SpectraSuite Data File
++++++++++++++++++++++++++++++++++++
Date: Fri Oct 18 13:55:40 GMT-05:00 2013
User: bianchi
Dark Spectrum Present: No
Reference Spectrum Present: No
Number of Sampled Component Spectra: 1
Spectrometers: USB2+H05261
Integration Time (usec): 100000 (USB2+H05261)
Spectra Averaged: 1 (USB2+H05261)
Boxcar Smoothing: 0 (USB2+H05261)
Correct for Electrical Dark: No (USB2+H05261)
Strobe/Lamp Enabled: No (USB2+H05261)
Correct for Detector Non-linearity: No (USB2+H05261)
Correct for Stray Light: No (USB2+H05261)
Number of Pixels in Processed Spectrum: 2048
>>>>>Begin Processed Spectral Data<<<<<
365.73	0.00
365.92	0.00
366.12	0.00
366.32	0.00
366.52	0.00
366.72	0.00
366.91	0.00
367.11	0.00
367.31	0.00
367.51	0.00
367.70	0.00
367.90	0.00
368.10	0.00
368.30	0.00
368.49	0.00
368.69	0.00
368.89	0.00
369.09	0.00
369.28	0.00
369.48	0.00
369.68	0.00
369.87	0.00
370.07	0.00
370.27	0.00
370.47	25.75
370.66	313.63
370.86	278.52
371.06	306.61
371.25	421.30
371.45	334.70
371.65	330.02
371.84	290.23
372.04	355.76
372.24	355.76
372.44	411.93
372.63	454.06
372.83	402.57
373.03	411.93
373.22	411.93
373.42	414.27
373.62	498.53
373.81	440.02
374.01	507.90
374.21	491.51
374.40	423.64
374.60	498.53
374.79	409.59
374.99	449.38
375.19	442.36
375.38	435.34
375.58	472.79
375.78	615.56
375.97	505.56
376.17	594.50
376.37	531.30
376.56	552.37
376.76	458.74
376.95	547.69
377.15	496.19
377.35	543.00
377.54	580.45
377.74	587.47
377.93	512.58
378.13	521.94
378.33	484.49
378.52	510.24
378.72	627.26
378.91	561.73
379.11	575.77
379.31	521.94
379.50	552.37
379.70	610.88
379.89	627.26
380.09	641.31
380.28	627.26
380.48	664.71
380.68	582.79
380.87	617.90
381.07	615.56
381.26	645.99
381.46	650.67
381.65	629.60
381.85	685.78
382.04	620.24
382.24	676.41
382.43	718.54
382.63	748.97
382.83	798.12
383.02	699.82
383.22	699.82
383.41	685.78
383.61	746.63
383.80	772.38
384.00	739.61
384.19	807.48
384.39	788.76
384.58	786.42
384.78	676.41
384.97	861.32
385.17	758.33
385.36	706.84
385.56	758.33
385.75	809.83
385.95	770.04
386.14	802.80
386.34	849.61
386.53	784.08
386.72	786.42
386.92	835.57
387.11	748.97
387.31	791.10
387.50	833.23
387.70	875.36
387.89	947.92
388.09	814.51
388.28	954.94
388.48	917.49
388.67	945.58
388.86	835.57
389.06	873.02
389.25	987.71
389.45	943.24
389.64	889.40
389.84	999.41
390.03	947.92
390.22	961.96
390.42	917.49
390.61	957.28
390.81	971.32
391.00	943.24
391.19	1048.56
391.39	1006.43
391.58	1039.20
391.78	968.98
391.97	1097.71
392.16	1050.90
392.36	1111.75
392.55	1015.79
392.75	1074.31
392.94	1081.33
393.13	1188.99
393.33	1128.14
393.52	1130.48
393.71	1163.25
393.91	1158.57
394.10	1123.46
394.29	1109.41
394.49	1142.18
394.68	1177.29
394.88	1114.10
395.07	1181.97
395.26	1240.48
395.46	1142.18
395.65	1247.51
395.84	1322.40
396.04	1378.58
396.23	1263.89
396.42	1266.23
396.62	1362.19
396.81	1287.29
397.00	1331.76
397.19	1420.71
397.39	1350.49
397.58	1430.07
397.77	1282.61
397.97	1320.06
398.16	1357.51
398.35	1385.60
398.55	1430.07
398.74	1399.64
398.93	1561.14
399.12	1535.39
399.32	1378.58
399.51	1460.49
399.70	1479.22
399.90	1483.90
400.09	1556.46
400.28	1621.99
400.47	1502.62
400.67	1638.38
400.86	1572.84
401.05	1577.52
401.24	1626.67
401.44	1593.90
401.63	1603.27
401.82	1591.56
402.01	1607.95
402.21	1696.89
402.40	1661.78
402.59	1736.68
402.78	1776.47
402.97	1764.76
403.17	1886.47
403.36	1764.76
403.55	1863.07
403.74	1849.02
403.93	1764.76
404.13	1905.20
404.32	1811.57
404.51	1790.51
404.70	1989.46
404.89	1851.36
405.09	1989.46
405.28	1982.43
405.47	2106.48
405.66	2010.52
405.85	2099.46
406.05	2043.29
406.24	2087.76
406.43	2153.29
406.62	2054.99
406.81	2225.85
407.00	2150.95
407.20	2214.15
407.39	2193.08
407.58	2157.97
407.77	2244.57
407.96	2296.07
408.15	2291.38
408.34	2291.38
408.54	2347.56
408.73	2385.01
408.92	2249.25
409.11	2340.54
409.30	2420.11
409.49	2347.56
409.68	2321.81
409.87	2436.50
410.07	2518.42
410.26	2537.14
410.45	2513.74
410.64	2595.65
410.83	2696.30
411.02	2654.17
411.21	2738.43
411.40	2530.12
411.59	2665.87
411.78	2602.68
411.98	2677.57
412.17	2633.10
412.36	2679.91
412.55	2864.82
412.74	2949.08
412.93	2958.44
413.12	2881.20
413.31	3054.40
413.50	2885.88
413.69	3047.38
413.88	3117.59
414.07	2984.18
414.26	3131.64
414.45	3150.36
414.64	3173.77
414.83	3215.90
415.02	3110.57
415.22	3251.00
415.41	3478.04
415.60	3302.50
415.79	3375.05
415.98	3314.20
416.17	3461.65
416.36	3440.59
416.55	3459.31
416.74	3517.83
416.93	3536.55
417.12	3585.70
417.31	3559.95
417.50	3641.87
417.69	3754.22
417.88	3808.05
418.07	3786.99
418.26	3761.24
418.45	3747.20
418.64	3892.31
418.83	3805.71
419.02	3868.91
419.21	3936.78
419.39	4016.36
419.58	3922.74
419.77	3957.85
419.96	4072.53
420.15	4002.32
420.34	3953.16
420.53	4119.34
420.72	4128.70
420.91	4074.87
421.10	4252.75
421.29	4409.57
421.48	4119.34
421.67	4297.22
421.86	4117.00
422.05	4273.82
422.24	4154.45
422.43	4278.50
422.61	4374.46
422.80	4521.92
422.99	4287.86
423.18	4496.17
423.37	4444.68
423.56	4456.38
423.75	4500.85
423.94	4411.91
424.13	4077.21
424.32	4236.37
424.50	4505.53
424.69	4578.09
424.88	4491.49
425.07	4320.63
425.26	4175.52
425.45	4430.63
425.64	4475.10
425.83	4451.70
426.01	4472.76
426.20	4587.45
426.39	4606.17
426.58	4667.03
426.77	4390.84
426.96	4629.58
427.15	4557.02
427.33	4746.61
427.52	4695.11
427.71	4662.35
427.90	4739.58
428.09	4732.56
428.28	4767.67
428.46	4894.06
428.65	4770.01
428.84	4816.82
429.03	5004.07
429.22	4753.63
429.40	4947.89
429.59	5004.07
429.78	4667.03
429.97	4730.22
430.16	4800.44
430.34	5114.07
430.53	5032.15
430.72	5203.01
430.91	5158.54
431.10	5015.77
431.28	5170.24
431.47	5165.56
431.66	5226.42
431.85	5004.07
432.03	5455.79
432.22	5359.83
432.41	5259.18
432.60	5472.17
432.79	5167.90
432.97	5380.89
433.16	5385.57
433.35	5502.60
433.54	5514.30
433.72	5518.98
433.91	5390.25
434.10	5387.91
434.28	5502.60
434.47	5607.92
434.66	5671.12
434.85	5652.39
435.03	5701.54
435.22	5701.54
435.41	5881.77
435.59	5872.40
435.78	5907.51
435.97	5947.30
436.16	5891.13
436.34	5820.91
436.53	5956.66
436.72	5982.41
436.90	5940.28
437.09	5818.57
437.28	5966.03
437.46	5996.45
437.65	6143.91
437.84	6101.78
438.02	6061.99
438.21	6132.20
438.40	6113.48
438.58	6326.47
438.77	6380.30
438.96	6401.37
439.14	6443.49
439.33	6354.55
439.52	6506.69
439.70	6686.91
439.89	6581.59
440.08	6834.36
440.26	6729.04
440.45	6693.93
440.63	6637.76
440.82	6925.65
441.01	6843.73
441.19	6949.05
441.38	7096.50
441.57	6853.09
441.75	7108.21
441.94	7255.66
442.12	7140.97
442.31	7152.68
442.50	7049.69
442.68	7094.16
442.87	7452.27
443.05	7293.11
443.24	7459.29
443.43	7288.43
443.61	7452.27
443.80	7660.57
443.98	7286.09
444.17	7101.19
444.35	7513.12
444.54	7531.84
444.73	7503.76
444.91	7581.00
445.10	7447.58
445.28	7644.19
445.47	7382.05
445.65	7623.12
445.84	7646.53
446.02	7597.38
446.21	7529.50
446.39	7590.36
446.58	7700.36
446.77	7712.07
446.95	7548.23
447.14	7789.30
447.32	7714.41
447.51	7707.38
447.69	7611.42
447.88	7637.17
448.06	7555.25
448.25	7808.03
448.43	7889.95
448.62	7719.09
448.80	7803.35
448.99	7735.47
449.17	7913.35
449.36	7793.98
449.54	8126.34
449.73	7840.79
449.91	8149.75
450.10	8196.56
450.28	8231.66
450.46	8168.47
450.65	8182.51
450.83	8210.60
451.02	8187.19
451.20	8444.65
451.39	8355.71
451.57	8245.71
451.76	8283.16
451.94	8241.03
452.13	8416.57
452.31	8468.06
452.49	8374.44
452.68	8477.42
452.86	8388.48
453.05	8549.98
453.23	8571.04
453.42	8449.33
453.60	8304.22
453.78	8505.51
453.97	8648.28
454.15	8585.08
454.34	8711.47
454.52	8681.05
454.70	8800.41
454.89	8760.63
455.07	8746.58
455.26	8851.91
455.44	9011.06
455.62	8889.35
455.81	8917.44
455.99	8952.55
456.17	8926.80
456.36	8954.89
456.54	9228.73
456.73	9125.75
456.91	9554.07
457.09	9451.08
457.28	9682.80
457.46	9397.25
457.64	9439.38
457.83	9486.19
458.01	9291.93
458.19	9650.03
458.38	9525.98
458.56	9914.51
458.74	9715.56
458.93	9755.35
459.11	9832.59
459.29	9738.97
459.48	9745.99
459.66	9813.87
459.84	9741.31
460.03	10097.07
460.21	9994.09
460.39	9975.36
460.57	9891.10
460.76	9984.73
460.94	10052.60
461.12	9764.72
461.31	9968.34
461.49	10022.17
461.67	10108.77
461.85	10342.83
462.04	10228.14
462.22	11084.78
462.40	10431.77
462.59	10281.97
462.77	10284.31
462.95	10466.88
463.13	10462.19
463.32	10569.86
463.50	10602.63
463.68	10740.72
463.86	10619.01
464.05	10509.01
464.23	10504.32
464.41	10787.53
464.59	10424.75
464.78	10867.11
464.96	10920.94
465.14	10457.51
465.32	10853.06
465.50	10881.15
465.69	11005.20
465.87	10691.57
466.05	10841.36
466.23	10721.99
466.41	11049.67
466.60	11253.30
466.78	10930.30
466.96	10721.99
467.14	10895.19
467.32	10998.18
467.51	11501.39
467.69	10918.60
467.87	10986.47
468.05	11115.20
468.23	11190.10
468.41	11180.74
468.60	11246.27
468.78	11328.19
468.96	11222.87
469.14	11414.79
469.32	11569.27
469.50	11314.15
469.69	11700.34
469.87	11810.34
470.05	11873.54
470.23	11782.26
470.41	11908.65
470.59	11882.90
470.77	11714.38
470.95	12084.19
471.14	12123.98
471.32	11833.75
471.50	12081.85
471.68	12236.32
471.86	12074.82
472.04	12355.69
472.22	12589.74
472.40	12304.20
472.58	12596.76
472.77	12589.74
472.95	12545.27
473.13	13104.66
473.31	12776.98
473.49	12695.07
473.67	12697.41
473.85	12931.46
474.03	13256.79
474.21	12798.05
474.39	13205.30
474.57	13125.72
474.75	13399.57
474.93	13703.84
475.12	13406.59
475.30	13771.71
475.48	13476.80
475.66	13748.31
475.84	13696.82
476.02	13809.16
476.20	13703.84
476.38	14057.26
476.56	14019.81
476.74	14167.26
476.92	13994.06
477.10	14230.46
477.28	14494.94
477.46	14551.11
477.64	14576.86
477.82	14803.89
478.00	15190.08
478.18	15054.33
478.36	15297.74
478.54	15534.14
478.72	15377.32
478.90	15468.60
479.08	15681.59
479.26	16116.93
479.44	16065.44
479.62	15812.66
479.80	16500.78
479.98	16053.73
480.16	16355.66
480.34	16465.67
480.52	16493.76
480.70	16479.71
480.88	16388.43
481.06	16851.86
481.24	16840.15
481.41	16924.41
481.59	17752.96
481.77	17198.26
481.95	17303.58
482.13	17481.46
482.31	17584.44
482.49	17942.55
482.67	18192.98
482.85	18412.99
483.03	18520.66
483.21	18724.29
483.39	18792.16
483.57	18717.26
483.74	18930.25
483.92	19005.15
484.10	19290.70
484.28	19580.92
484.46	19763.48
484.64	20173.08
484.82	19756.46
485.00	19730.72
485.18	20196.48
485.35	20636.50
485.53	20531.18
485.71	20659.91
485.89	21090.57
486.07	20716.08
486.25	21247.38
486.43	21156.10
486.61	21287.17
486.78	21638.25
486.96	21465.05
487.14	22097.00
487.32	22033.80
487.50	22164.87
487.68	22382.54
487.85	22478.50
488.03	22855.33
488.21	23267.27
488.39	23154.92
488.57	23543.45
488.75	23105.77
488.92	24226.89
489.10	23908.57
489.28	23995.17
489.46	24130.92
489.64	24367.32
489.81	24542.86
489.99	24739.46
490.17	24732.44
490.35	25282.47
490.53	25528.22
490.70	25481.41
490.88	25282.47
491.06	26118.04
491.24	25242.68
491.41	25729.51
491.59	26164.85
491.77	26391.88
491.95	26611.89
492.13	26693.81
492.30	26845.94
492.48	27103.40
492.66	26417.63
492.84	27262.56
493.01	27452.14
493.19	27800.88
493.37	27725.99
493.54	27861.74
493.72	28058.34
493.90	27805.56
494.08	28416.44
494.25	28730.08
494.43	28772.21
494.61	29624.16
494.79	29343.30
494.96	29219.25
495.14	29216.91
495.32	29411.17
495.49	29230.95
495.67	29635.86
495.85	29816.08
496.02	30593.14
496.20	30426.96
496.38	30438.67
496.55	30331.00
496.73	31393.61
496.91	30925.50
497.09	30958.27
497.26	30955.93
497.44	31480.21
497.62	31409.99
497.79	31887.46
497.97	31784.48
498.14	32327.48
498.32	32264.28
498.50	32381.31
498.67	32348.54
498.85	32390.67
499.03	32334.50
499.20	32781.54
499.38	32655.15
499.56	32950.06
499.73	33013.26
499.91	33322.21
500.08	33504.77
500.26	33628.82
500.44	33769.25
500.61	33404.13
500.79	33914.36
500.97	33682.65
501.14	34569.71
501.32	34604.82
501.49	34749.93
501.67	34422.26
501.84	34714.83
502.02	34211.61
502.20	35204.00
502.37	35316.34
502.55	34878.66
502.72	35021.44
502.90	35178.25
503.07	35084.63
503.25	35562.10
503.43	35416.99
503.60	35573.80
503.78	35906.16
503.95	36105.10
504.13	35913.18
504.30	36011.48
504.48	36016.16
504.65	36264.26
504.83	36655.13
505.01	36449.16
505.18	36591.94
505.36	37062.38
505.53	36980.46
505.71	37015.57
505.88	37525.81
506.06	37214.52
506.23	37280.05
506.41	37165.37
506.58	37811.35
506.76	37371.33
506.93	37572.62
507.11	37574.96
507.28	37881.57
507.46	38012.64
507.63	38202.22
507.81	38129.67
507.98	38153.07
508.16	38335.63
508.33	38698.42
508.50	38675.01
508.68	39023.75
508.85	39292.91
509.03	39145.46
509.20	39264.83
509.38	39548.03
509.55	39313.98
509.73	39213.34
509.90	39611.23
510.08	39431.01
510.25	39597.18
510.42	39889.75
510.60	40425.73
510.77	40360.20
510.95	40348.50
511.12	40137.85
511.30	40339.13
511.47	40488.93
511.64	40297.00
511.82	40659.79
511.99	40690.21
512.17	40924.27
512.34	40840.01
512.51	41493.02
512.69	41406.42
512.86	41163.00
513.04	41525.78
513.21	41659.20
513.38	41979.85
513.56	41984.53
513.73	41876.86
513.90	41993.89
514.08	41785.58
514.25	41841.76
514.43	42471.36
514.60	42295.82
514.77	42412.85
514.95	42646.90
515.12	42452.64
515.29	42579.03
515.47	42820.10
515.64	43189.91
515.81	42600.09
515.99	43278.85
516.16	43393.53
516.33	43775.04
516.51	43779.72
516.68	43335.02
516.85	43318.64
517.03	43515.24
517.20	43826.53
517.37	43826.53
517.54	43894.41
517.72	44147.18
517.89	43765.68
518.06	44161.23
518.24	44275.91
518.41	43959.94
518.58	44474.86
518.75	44414.01
518.93	44767.43
519.10	44388.26
519.27	44737.00
519.45	44617.63
519.62	44477.20
519.79	44559.12
519.96	45027.23
520.14	45549.17
520.31	44905.52
520.48	45511.72
520.65	45408.73
520.83	45722.37
521.00	45773.86
521.17	45481.29
521.34	45612.36
521.52	45713.00
521.69	45785.56
521.86	45879.18
522.03	46127.28
522.20	46045.36
522.38	46232.60
522.55	46036.00
522.72	46469.00
522.89	46160.05
523.07	46974.55
523.24	46384.74
523.41	46731.14
523.58	46745.18
523.75	46600.07
523.92	46405.80
524.10	46319.20
524.27	46735.82
524.44	47004.98
524.61	47452.02
524.78	47597.13
524.96	47224.99
525.13	47423.93
525.30	47674.37
525.47	47662.67
525.64	47533.94
525.81	47695.44
525.98	47983.32
526.16	47950.56
526.33	48116.73
526.50	48165.88
526.67	48165.88
526.84	47648.63
527.01	47962.26
527.18	48423.34
527.36	48444.41
527.53	48411.64
527.70	48493.56
527.87	48608.25
528.04	48472.49
528.21	48273.55
528.38	48652.72
528.55	48261.85
528.72	48570.80
528.89	48987.41
529.07	49064.65
529.24	49127.84
529.41	48999.12
529.58	49017.84
529.75	48952.30
529.92	48985.07
530.09	49069.33
530.26	49556.16
530.43	49425.09
530.60	49202.74
530.77	49120.82
530.94	49495.31
531.11	49191.04
531.28	49366.58
531.46	49371.26
531.63	49572.55
531.80	49748.09
531.97	50405.78
532.14	49698.94
532.31	49830.01
532.48	50176.40
532.65	50096.83
532.82	50021.93
532.99	50024.27
533.16	49750.43
533.33	50480.67
533.50	50672.60
533.67	50658.56
533.84	50274.71
534.01	50197.47
534.18	50080.44
534.35	50326.20
534.52	50396.42
534.69	50550.89
534.86	50899.63
535.03	50384.71
535.20	50405.78
535.37	50883.25
535.54	50869.20
535.71	50213.85
535.88	50763.88
536.05	50536.85
536.22	51084.53
536.38	51089.21
536.55	51068.15
536.72	51082.19
536.89	50803.67
537.06	50951.12
537.23	51061.13
537.40	50976.87
537.57	51014.32
537.74	51370.08
537.91	51793.71
538.08	51578.39
538.25	51021.34
538.42	51267.09
538.59	51672.01
538.75	51213.26
538.92	51676.69
539.09	51952.87
539.26	51606.47
539.43	51774.99
539.60	51718.82
539.77	51620.52
539.94	51732.86
540.11	52105.01
540.28	51824.14
540.44	52037.13
540.61	51849.89
540.78	51948.19
540.95	52016.07
541.12	51821.80
541.29	51456.68
541.46	52093.30
541.62	51938.83
541.79	52102.67
541.96	52006.70
542.13	51854.57
542.30	52048.83
542.47	52664.39
542.63	52364.81
542.80	52797.80
542.97	52533.32
543.14	52793.12
543.31	52577.79
543.48	52488.85
543.64	52495.88
543.81	53017.82
543.98	52968.66
544.15	53413.37
544.32	53127.82
544.48	53057.60
544.65	52994.41
544.82	53083.35
544.99	53167.61
545.16	52919.51
545.32	52992.07
545.49	53055.26
545.66	53701.25
545.83	53364.21
546.00	53591.25
546.16	53226.12
546.33	53024.84
546.50	52842.27
546.67	53289.32
546.83	52849.30
547.00	53261.23
547.17	53581.88
547.34	53549.12
547.50	53539.75
547.67	53619.33
547.84	53532.73
548.00	53661.46
548.17	53729.34
548.34	53741.04
548.51	53902.54
548.67	53773.81
548.84	53958.71
549.01	53804.24
549.18	53668.48
549.34	53588.91
549.51	53851.05
549.68	53719.98
549.84	53911.90
550.01	53778.49
550.18	53829.98
550.34	53947.01
550.51	54005.52
550.68	54134.25
550.84	53764.45
551.01	54045.31
551.18	53939.99
551.34	53605.29
551.51	54068.72
551.68	54260.64
551.84	54099.14
552.01	53848.71
552.18	54333.20
552.34	54298.09
552.51	54405.75
552.68	54169.36
552.84	54157.66
553.01	54288.73
553.18	54096.80
553.34	54391.71
553.51	54094.46
553.67	54618.74
553.84	54578.95
554.01	54733.43
554.17	54567.25
554.34	54520.44
554.51	54695.98
554.67	54468.95
554.84	54642.15
555.00	54600.02
555.17	54913.65
555.33	54609.38
555.50	54574.27
555.67	54621.08
555.83	54635.13
556.00	54742.79
556.16	55035.36
556.33	54569.59
556.50	54543.84
556.66	54834.07
556.83	54831.73
556.99	55246.00
557.16	55112.59
557.32	54972.16
557.49	55278.77
557.65	54745.13
557.82	54815.35
557.98	54803.64
558.15	54906.63
558.32	54923.01
558.48	55033.02
558.65	55000.25
558.81	55140.68
558.98	55344.31
559.14	55274.09
559.31	55033.02
559.47	54770.88
559.64	54951.10
559.80	55124.30
559.97	55306.86
560.13	55070.46
560.30	55114.94
560.46	54972.16
560.63	55276.43
560.79	55215.58
560.96	55299.84
561.12	55196.85
561.29	55023.65
561.45	55210.90
561.61	55187.49
561.78	55463.67
561.94	55217.92
562.11	55496.44
562.27	55243.66
562.44	55107.91
562.60	55157.06
562.77	55468.36
562.93	55295.16
563.10	55508.14
563.26	55449.63
563.42	55686.03
563.59	55356.01
563.75	55285.79
563.92	55650.92
564.08	55576.02
564.24	55243.66
564.41	55444.95
564.57	55194.51
564.74	55023.65
564.90	55517.51
565.07	55732.84
565.23	55580.70
565.39	55526.87
565.56	55330.26
565.72	55580.70
565.88	55491.76
566.05	55510.49
566.21	55721.13
566.38	55290.48
566.54	55585.38
566.70	55796.03
566.87	55899.01
567.03	55693.05
567.19	55770.28
567.36	55414.52
567.52	55496.44
567.68	55735.18
567.85	55627.51
568.01	55812.41
568.17	55519.85
568.34	55765.60
568.50	55774.97
568.66	55845.18
568.83	55957.53
568.99	55564.32
569.15	55484.74
569.32	55505.80
569.48	55629.85
569.64	55695.39
569.81	55611.13
569.97	55653.26
570.13	55693.05
570.30	55828.80
570.46	55664.96
570.62	55742.20
570.78	55650.92
570.95	55711.77
571.11	55835.82
571.27	55718.79
571.43	55536.23
571.60	55711.77
571.76	55669.64
571.92	55866.25
572.09	55868.59
572.25	56020.72
572.41	55910.72
572.57	55779.65
572.74	55959.87
572.90	55763.26
573.06	55688.37
573.22	55608.79
573.38	55870.93
573.55	55854.54
573.71	55955.19
573.87	55980.93
574.03	55831.14
574.20	56133.07
574.36	55737.52
574.52	55835.82
574.68	55784.33
574.84	55758.58
575.01	55985.61
575.17	55952.85
575.33	55976.25
575.49	55810.07
575.65	56278.18
575.82	56037.11
575.98	55924.76
576.14	55962.21
576.30	55763.26
576.46	55891.99
576.62	55810.07
576.79	55938.80
576.95	55639.22
577.11	55884.97
577.27	56034.77
577.43	55971.57
577.59	56053.49
577.75	56088.60
577.92	55941.14
578.08	55938.80
578.24	55735.18
578.40	55887.31
578.56	55819.44
578.72	56151.79
578.88	56236.05
579.04	56268.82
579.21	55770.28
579.37	56247.75
579.53	56175.20
579.69	56119.02
579.85	55934.12
580.01	55945.83
580.17	55739.86
580.33	55688.37
580.49	56041.79
580.65	55917.74
580.82	55866.25
580.98	55964.55
581.14	55917.74
581.30	55852.20
581.46	55828.80
581.62	55983.27
581.78	55861.57
581.94	55948.17
582.10	55803.05
582.26	56055.83
582.42	55838.16
582.58	56168.18
582.74	56006.68
582.90	56048.81
583.06	56161.15
583.22	55906.04
583.38	56025.40
583.54	55889.65
583.70	55835.82
583.86	56119.02
584.02	55955.19
584.18	56088.60
584.34	56231.37
584.50	56287.54
584.66	55931.78
584.82	55903.70
584.98	55901.36
585.14	55924.76
585.30	55765.60
585.46	56074.55
585.62	55791.35
585.78	56168.18
585.94	56004.34
586.10	56163.50
586.26	56177.54
586.42	56069.87
586.58	56310.95
586.74	56156.47
586.90	55976.25
587.06	56016.04
587.22	56151.79
587.38	55971.57
587.54	56046.47
587.70	56193.92
587.86	56009.02
588.02	56324.99
588.18	56240.73
588.34	56229.03
588.49	56006.68
588.65	55906.04
588.81	56023.06
588.97	56058.17
589.13	56147.11
589.29	56100.30
589.45	56268.82
589.61	56289.88
589.77	56404.57
