SpectraSuite Data File
++++++++++++++++++++++++++++++++++++
Date: Fri Oct 18 13:55:03 GMT-05:00 2013
User: bianchi
Dark Spectrum Present: No
Reference Spectrum Present: No
Number of Sampled Component Spectra: 1
Spectrometers: USB2+H05261
Integration Time (usec): 100000 (USB2+H05261)
Spectra Averaged: 1 (USB2+H05261)
Boxcar Smoothing: 0 (USB2+H05261)
Correct for Electrical Dark: No (USB2+H05261)
Strobe/Lamp Enabled: No (USB2+H05261)
Correct for Detector Non-linearity: No (USB2+H05261)
Correct for Stray Light: No (USB2+H05261)
Number of Pixels in Processed Spectrum: 2048
>>>>>Begin Processed Spectral Data<<<<<
365.73	0.00
365.92	0.00
366.12	0.00
366.32	0.00
366.52	0.00
366.72	0.00
366.91	0.00
367.11	0.00
367.31	0.00
367.51	0.00
367.70	0.00
367.90	0.00
368.10	0.00
368.30	0.00
368.49	0.00
368.69	0.00
368.89	0.00
369.09	0.00
369.28	0.00
369.48	0.00
369.68	0.00
369.87	0.00
370.07	0.00
370.27	7.02
370.47	16.38
370.66	285.55
370.86	313.63
371.06	348.74
371.25	348.74
371.45	344.06
371.65	374.49
371.84	334.70
372.04	348.74
372.24	327.68
372.44	390.87
372.63	397.89
372.83	482.15
373.03	409.59
373.22	458.74
373.42	468.11
373.62	402.57
373.81	407.25
374.01	402.57
374.21	482.15
374.40	477.47
374.60	507.90
374.79	458.74
374.99	475.13
375.19	521.94
375.38	528.96
375.58	498.53
375.78	580.45
375.97	587.47
376.17	592.16
376.37	547.69
376.56	559.39
376.76	524.28
376.95	526.62
377.15	547.69
377.35	575.77
377.54	596.84
377.74	629.60
377.93	437.68
378.13	608.54
378.33	631.94
378.52	571.09
378.72	575.77
378.91	615.56
379.11	547.69
379.31	589.82
379.50	601.52
379.70	674.07
379.89	657.69
380.09	596.84
380.28	580.45
380.48	582.79
380.68	620.24
380.87	582.79
381.07	667.05
381.26	638.97
381.46	702.16
381.65	678.76
381.85	634.29
382.04	734.93
382.24	716.20
382.43	683.44
382.63	727.91
382.83	751.31
383.02	676.41
383.22	683.44
383.41	669.39
383.61	784.08
383.80	828.55
384.00	734.93
384.19	704.50
384.39	847.27
384.58	706.84
384.78	730.25
384.97	727.91
385.17	751.31
385.36	753.65
385.56	781.74
385.75	697.48
385.95	823.87
386.14	788.76
386.34	814.51
386.53	880.04
386.72	894.08
386.92	929.19
387.11	882.38
387.31	905.79
387.50	924.51
387.70	835.57
387.89	908.13
388.09	961.96
388.28	896.43
388.48	952.60
388.67	891.74
388.86	973.66
389.06	922.17
389.25	985.37
389.45	910.47
389.64	952.60
389.84	973.66
390.03	1069.62
390.22	997.07
390.42	952.60
390.61	905.79
390.81	929.19
391.00	1015.79
391.19	1071.97
391.39	1060.26
391.58	1128.14
391.78	1097.71
391.97	1088.35
392.16	1090.69
392.36	1109.41
392.55	1071.97
392.75	1184.31
392.94	1132.82
393.13	1116.44
393.33	1097.71
393.52	1245.16
393.71	1217.08
393.91	1181.97
394.10	1083.67
394.29	1151.54
394.49	1284.95
394.68	1277.93
394.88	1179.63
395.07	1198.35
395.26	1263.89
395.46	1277.93
395.65	1249.85
395.84	1329.42
396.04	1345.81
396.23	1324.74
396.42	1350.49
396.62	1371.55
396.81	1313.04
397.00	1296.66
397.19	1362.19
397.39	1437.09
397.58	1369.21
397.77	1404.32
397.97	1409.00
398.16	1401.98
398.35	1423.05
398.55	1448.79
398.74	1486.24
398.93	1544.75
399.12	1596.25
399.32	1465.18
399.51	1448.79
399.70	1586.88
399.90	1486.24
400.09	1624.33
400.28	1584.54
400.47	1591.56
400.67	1652.42
400.86	1535.39
401.05	1558.80
401.24	1650.08
401.44	1717.95
401.63	1682.85
401.82	1687.53
402.01	1607.95
402.21	1818.60
402.40	1893.49
402.59	1746.04
402.78	1874.77
402.97	1729.66
403.17	1788.17
403.36	1867.75
403.55	1867.75
403.74	1937.96
403.93	1898.17
404.13	1966.05
404.32	2001.16
404.51	1940.30
404.70	1977.75
404.89	1912.22
405.09	2083.08
405.28	2092.44
405.47	1996.48
405.66	2200.10
405.85	2015.20
406.05	2019.88
406.24	2204.78
406.43	2052.65
406.62	2221.17
406.81	2242.23
407.00	2176.70
407.20	2097.12
407.39	2174.36
407.58	2223.51
407.77	2272.66
407.96	2448.20
408.15	2321.81
408.34	2317.13
408.54	2305.43
408.73	2401.39
408.92	2473.95
409.11	2504.37
409.30	2347.56
409.49	2520.76
409.68	2518.42
409.87	2429.48
410.07	2567.57
410.26	2588.63
410.45	2509.05
410.64	2623.74
410.83	2654.17
411.02	2647.15
411.21	2743.11
411.40	2705.66
411.59	2810.98
411.78	2724.38
411.98	2780.56
412.17	2785.24
412.36	2857.79
412.55	2825.03
412.74	2888.22
412.93	2949.08
413.12	3045.04
413.31	2963.12
413.50	3002.91
413.69	3045.04
413.88	3227.60
414.07	3129.30
414.26	3185.47
414.45	3206.53
414.64	3276.75
414.83	3215.90
415.02	3328.24
415.22	3365.69
415.41	3513.14
415.60	3428.88
415.79	3372.71
415.98	3475.70
416.17	3456.97
416.36	3482.72
416.55	3562.30
416.74	3604.42
416.93	3639.53
417.12	3679.32
417.31	3707.41
417.50	3829.12
417.69	3824.44
417.88	3882.95
418.07	3637.19
418.26	3709.75
418.45	4070.19
418.64	3976.57
418.83	4037.42
419.02	4032.74
419.21	4170.83
419.39	4056.15
419.58	4046.79
419.77	4063.17
419.96	4170.83
420.15	4245.73
420.34	4126.36
420.53	4360.42
420.72	4421.27
420.91	4231.69
421.10	4344.03
421.29	4318.29
421.48	4135.73
421.67	4430.63
421.86	4418.93
422.05	4414.25
422.24	4418.93
422.43	4475.10
422.61	4292.54
422.80	4568.73
422.99	4582.77
423.18	4493.83
423.37	4657.67
423.56	4585.11
423.75	4610.86
423.94	4517.23
424.13	4294.88
424.32	4341.69
424.50	4645.96
424.69	4702.14
424.88	4667.03
425.07	4486.81
425.26	4432.97
425.45	4493.83
425.64	4442.34
425.83	4564.04
426.01	4671.71
426.20	4512.55
426.39	4636.60
426.58	4571.07
426.77	4760.65
426.96	4734.90
427.15	4636.60
427.33	4903.42
427.52	4842.57
427.71	4840.23
427.90	4837.89
428.09	4809.80
428.28	4795.76
428.46	4966.62
428.65	4999.38
428.84	5020.45
429.03	5043.85
429.22	4959.60
429.40	5128.11
429.59	5055.56
429.78	4882.36
429.97	4887.04
430.16	5013.43
430.34	5200.67
430.53	5242.80
430.72	5341.10
430.91	5212.37
431.10	5177.26
431.28	5231.10
431.47	5303.65
431.66	5416.00
431.85	5357.49
432.03	5481.53
432.22	5507.28
432.41	5467.49
432.60	5427.70
432.79	5411.32
432.97	5427.70
433.16	5495.58
433.35	5455.79
433.54	5701.54
433.72	5504.94
433.91	5549.41
434.10	5694.52
434.28	5664.10
434.47	5621.97
434.66	5853.68
434.85	5748.36
435.03	5809.21
435.22	5898.15
435.41	6064.33
435.59	5818.57
435.78	5912.19
435.97	6026.88
436.16	5895.81
436.34	5954.32
436.53	6085.39
436.72	6225.82
436.90	5916.87
437.09	6076.03
437.28	5994.11
437.46	6080.71
437.65	6335.83
437.84	6258.59
438.02	6026.88
438.21	6291.36
438.40	6235.19
438.58	6450.52
438.77	6600.31
438.96	6677.55
439.14	6457.54
439.33	6693.93
439.52	6745.42
439.70	6768.83
439.89	6642.44
440.08	6876.49
440.26	6829.68
440.45	6883.52
440.63	6799.26
440.82	6965.43
441.01	7162.04
441.19	7133.95
441.38	7150.34
441.57	7136.29
441.75	7276.73
441.94	7204.17
442.12	7344.60
442.31	7588.02
442.50	7583.34
442.68	7421.84
442.87	7330.56
443.05	7501.42
443.24	7524.82
443.43	7468.65
443.61	7625.47
443.80	7992.93
443.98	7534.18
444.17	7403.11
444.35	7716.75
444.54	7859.52
444.73	7742.49
444.91	7662.91
445.10	7763.56
445.28	7646.53
445.47	7559.93
445.65	7700.36
445.84	7901.65
446.02	7957.82
446.21	7779.94
446.39	7836.11
446.58	7885.26
446.77	7894.63
446.95	7721.43
447.14	7950.80
447.32	7962.50
447.51	8025.70
447.69	7798.66
447.88	7889.95
448.06	7911.01
448.25	8114.64
448.43	8039.74
448.62	7922.71
448.80	7854.84
448.99	7925.05
449.17	8070.17
449.36	8065.49
449.54	8217.62
449.73	8313.58
449.91	8269.11
450.10	8327.63
450.28	8472.74
450.46	8510.19
450.65	8542.96
450.83	8376.78
451.02	8402.52
451.20	8395.50
451.39	8430.61
451.57	8446.99
451.76	8339.33
451.94	8461.04
452.13	8585.08
452.31	8659.98
452.49	8538.27
452.68	8634.24
452.86	8706.79
453.05	8767.65
453.23	8744.24
453.42	8557.00
453.60	8538.27
453.78	8657.64
453.97	8683.39
454.15	8718.50
454.34	8678.71
454.52	9018.08
454.70	8978.30
454.89	8997.02
455.07	9097.66
455.26	9172.56
455.44	9331.72
455.62	9048.51
455.81	9144.47
455.99	9238.09
456.17	9430.02
456.36	9200.65
456.54	9453.42
456.73	9453.42
456.91	9778.76
457.09	9668.75
457.28	9640.67
457.46	9561.09
457.64	9652.37
457.83	9748.33
458.01	9610.24
458.19	9652.37
458.38	9561.09
458.56	10080.69
458.74	9909.83
458.93	9966.00
459.11	9937.91
459.29	10108.77
459.48	10090.05
459.66	9956.64
459.84	10052.60
460.03	10340.49
460.21	10066.64
460.39	10052.60
460.57	10176.65
460.76	10169.63
460.94	10499.64
461.12	10190.69
461.31	10274.95
461.49	10352.19
461.67	10202.40
461.85	10506.66
462.04	10714.97
462.22	10897.53
462.40	10705.61
462.59	10649.44
462.77	10555.82
462.95	10813.28
463.13	10537.09
463.32	10740.72
463.50	10815.62
463.68	10988.82
463.86	10949.03
464.05	10937.32
464.23	10878.81
464.41	11304.79
464.59	10906.90
464.78	11206.48
464.96	10864.77
465.14	10773.49
465.32	11225.21
465.50	11276.70
465.69	11379.68
465.87	11140.95
466.05	11150.31
466.23	11166.70
466.41	11084.78
466.60	11613.74
466.78	11232.23
466.96	11147.97
467.14	11304.79
467.32	11382.03
467.51	11630.12
467.69	11044.99
467.87	11559.91
468.05	11648.85
468.23	11623.10
468.41	11482.67
468.60	11564.59
468.78	11730.76
468.96	11566.93
469.14	11873.54
469.32	11845.45
469.50	11552.88
469.69	11791.62
469.87	12084.19
470.05	11992.90
470.23	11997.59
470.41	12123.98
470.59	12156.74
470.77	12042.06
470.95	12245.68
471.14	12304.20
471.32	12294.83
471.50	12561.66
471.68	12531.23
471.86	12538.25
472.04	12596.76
472.22	13165.51
472.40	12585.06
472.58	12936.14
472.77	12720.81
472.95	12947.84
473.13	13551.70
473.31	12919.76
473.49	12924.44
473.67	13160.83
473.85	13502.55
474.03	13511.91
474.21	13322.33
474.39	13598.51
474.57	13483.83
474.75	14038.53
474.93	14003.43
475.12	13797.46
475.30	13947.25
475.48	13802.14
475.66	14207.05
475.84	14190.67
476.02	14001.08
476.20	14068.96
476.38	14413.02
476.56	14682.18
476.74	14537.07
476.92	14415.36
477.10	14675.16
477.28	14780.48
477.46	14820.27
477.64	15133.90
477.82	15164.33
478.00	15522.43
478.18	15459.24
478.36	15417.11
478.54	15646.48
478.72	15803.30
478.90	16203.53
479.08	16037.35
479.26	15988.20
479.44	16386.09
479.62	16407.16
479.80	16353.32
479.98	16702.06
480.16	16978.25
480.34	16898.67
480.52	17036.76
480.70	16985.27
480.88	17111.66
481.06	17444.01
481.24	17383.16
481.41	17469.76
481.59	17909.78
481.77	18054.89
481.95	17994.04
482.13	18064.25
482.31	17930.84
482.49	18630.66
482.67	18333.42
482.85	18724.29
483.03	18827.27
483.21	19204.10
483.39	19103.45
483.57	19337.51
483.74	19391.34
483.92	19756.46
484.10	19466.24
484.28	19901.58
484.46	20556.93
484.64	20664.59
484.82	20219.89
485.00	20430.54
485.18	20711.40
485.35	21200.57
485.53	21132.70
485.71	21404.20
485.89	21774.00
486.07	21284.83
486.25	21731.87
486.43	21638.25
486.61	22195.30
486.78	22230.41
486.96	22092.32
487.14	22803.84
487.32	22778.09
487.50	22986.40
487.68	22991.08
487.85	23250.88
488.03	23555.15
488.21	24072.41
488.39	23807.93
488.57	23807.93
488.75	23988.15
488.92	24144.97
489.10	24790.95
489.28	24678.61
489.46	25064.80
489.64	24769.89
489.81	25493.12
489.99	25390.13
490.17	25689.72
490.35	25902.71
490.53	25944.84
490.70	26253.79
490.88	26284.22
491.06	26684.45
491.24	26284.22
491.41	26630.62
491.59	26586.15
491.77	27002.76
491.95	27508.32
492.13	27400.65
492.30	27653.43
492.48	27569.17
492.66	27550.45
492.84	27974.08
493.01	28353.25
493.19	27880.46
493.37	28917.32
493.54	29074.13
493.72	28690.29
493.90	28842.42
494.08	29198.18
494.25	29347.98
494.43	29675.65
494.61	30211.64
494.79	29795.02
494.96	29991.62
495.14	30405.90
495.32	30431.65
495.49	30438.67
495.67	30677.40
495.85	30955.93
496.02	31019.12
496.20	31103.38
496.38	31189.98
496.55	31213.38
496.73	31885.12
496.91	31812.56
497.09	32109.81
497.26	32507.70
497.44	32498.34
497.62	32491.32
497.79	32823.67
497.97	32474.93
498.14	32985.17
498.32	33284.76
498.50	33567.96
498.67	33514.13
498.85	33331.57
499.03	33560.94
499.20	33659.24
499.38	33717.76
499.56	33612.43
499.73	34040.75
499.91	34330.98
500.08	34359.06
500.26	34188.21
500.44	34185.86
500.61	34923.13
500.79	34899.73
500.97	35220.38
501.14	35681.47
501.32	35211.02
501.49	35393.58
501.67	35353.79
501.84	35470.82
502.02	35831.26
502.20	35988.08
502.37	35941.27
502.55	35983.40
502.72	35831.26
502.90	36084.04
503.07	36409.37
503.25	36388.31
503.43	36264.26
503.60	36573.21
503.78	36884.50
503.95	36858.76
504.13	37310.48
504.30	37333.89
504.48	36982.80
504.65	37172.39
504.83	37579.64
505.01	38052.43
505.18	37537.51
505.36	37713.05
505.53	37820.72
505.71	38134.35
505.88	38148.39
506.06	37787.95
506.23	38476.07
506.41	38085.20
506.58	38834.17
506.76	38667.99
506.93	38946.51
507.11	38644.59
507.28	38934.81
507.46	39140.78
507.63	39248.44
507.81	39704.85
507.98	39173.55
508.16	39594.84
508.33	39477.82
508.50	39510.58
508.68	39548.03
508.85	40271.26
509.03	40119.12
509.20	40451.48
509.38	40800.22
509.55	40297.00
509.73	40694.89
509.90	40268.92
510.08	40706.60
510.25	40825.96
510.42	40849.37
510.60	41228.54
510.77	41153.64
510.95	41853.46
511.12	41420.46
511.30	40989.80
511.47	41371.31
511.64	41715.37
511.82	41989.21
511.99	41738.77
512.17	42347.31
512.34	41675.58
512.51	42141.35
512.69	42490.09
512.86	42770.95
513.04	42965.21
513.21	42564.98
513.38	43194.59
513.56	42834.14
513.73	43225.01
513.90	43468.43
514.08	43129.05
514.25	43079.90
514.43	43344.38
514.60	43636.95
514.77	43648.65
514.95	44011.43
515.12	43583.12
515.29	43723.55
515.47	43959.94
515.64	44135.48
515.81	44058.24
515.99	44587.21
516.16	44610.61
516.33	44584.86
516.51	44634.02
516.68	44687.85
516.85	44624.65
517.03	44879.77
517.20	45125.53
517.37	44769.77
517.54	45237.87
517.72	44947.65
517.89	44893.82
518.06	45139.57
518.24	45228.51
518.41	44989.78
518.58	45347.88
518.75	45675.55
518.93	46115.58
519.10	45762.15
519.27	45799.60
519.45	45689.60
519.62	45853.44
519.79	45801.94
519.96	45638.11
520.14	46490.06
520.31	45619.38
520.48	46651.56
520.65	46576.66
520.83	46749.86
521.00	46452.61
521.17	46562.62
521.34	46703.05
521.52	46703.05
521.69	47114.98
521.86	47007.32
522.03	47208.61
522.20	47342.02
522.38	47475.43
522.55	47447.34
522.72	47789.06
522.89	47398.19
523.07	47845.23
523.24	47767.99
523.41	48058.22
523.58	47721.18
523.75	48105.03
523.92	47997.37
524.10	47824.17
524.27	48252.48
524.44	48301.64
524.61	48720.59
524.78	48648.03
524.96	48083.97
525.13	48212.70
525.30	48449.09
525.47	48790.81
525.64	48734.63
525.81	48865.70
525.98	49127.84
526.16	49680.21
526.33	48753.36
526.50	49237.85
526.67	48924.22
526.84	49532.76
527.01	48851.66
527.18	49230.83
527.36	49111.46
527.53	49628.72
527.70	50050.02
527.87	49556.16
528.04	49549.14
528.21	49460.20
528.38	49867.45
528.55	49848.73
528.72	49666.17
528.89	49963.42
529.07	49635.74
529.24	50225.56
529.41	50122.57
529.58	49930.65
529.75	49970.44
529.92	49918.95
530.09	50174.06
530.26	50007.89
530.43	50593.02
530.60	50220.87
530.77	50351.94
530.94	50684.30
531.11	50426.84
531.28	50370.67
531.46	50361.31
531.63	50667.92
531.80	50593.02
531.97	51007.29
532.14	50965.17
532.31	50960.48
532.48	50806.01
532.65	51082.19
532.82	51114.96
532.99	51182.84
533.16	51168.79
533.33	51222.62
533.50	51526.89
533.67	51309.22
533.84	50852.82
534.01	51391.14
534.18	51119.64
534.35	51531.57
534.52	51381.78
534.69	51866.27
534.86	51679.03
535.03	51473.06
535.20	51669.67
535.37	51737.54
535.54	51613.49
535.71	51491.79
535.88	51725.84
536.05	51583.07
536.22	52105.01
536.38	52355.44
536.55	52083.94
536.72	52264.16
536.89	51821.80
537.06	51966.91
537.23	52154.16
537.40	51990.32
537.57	52076.92
537.74	52236.08
537.91	52617.58
538.08	52495.88
538.25	52322.68
538.42	52502.90
538.59	52484.17
538.75	52144.80
538.92	52519.28
539.09	52629.29
539.26	52708.86
539.43	52622.26
539.60	52816.53
539.77	52516.94
539.94	53134.84
540.11	52884.40
540.28	52832.91
540.44	52907.81
540.61	52774.40
540.78	52971.00
540.95	52842.27
541.12	52903.13
541.29	52963.98
541.46	53216.76
541.62	52825.89
541.79	53181.65
541.96	52811.85
542.13	52856.32
542.30	53212.08
542.47	53392.30
542.63	53411.02
542.80	53525.71
542.97	53689.55
543.14	53696.57
543.31	53504.65
543.48	53525.71
543.64	53780.83
543.81	53930.62
543.98	54148.29
544.15	54078.08
544.32	54143.61
544.48	53958.71
544.65	53844.02
544.82	53727.00
544.99	53638.06
545.16	54049.99
545.32	53743.38
545.49	54239.57
545.66	54337.88
545.83	54335.54
546.00	54520.44
546.16	54255.96
546.33	54131.91
546.50	53773.81
546.67	54031.27
546.83	53888.49
547.00	54293.41
547.17	54354.26
547.34	54532.14
547.50	54419.80
547.67	54630.44
547.84	54412.77
548.00	54372.99
548.17	54614.06
548.34	54482.99
548.51	54855.14
548.67	54745.13
548.84	54777.90
549.01	54625.76
549.18	54754.49
549.34	54747.47
549.51	54578.95
549.68	54649.17
549.84	54630.44
550.01	54667.89
550.18	54784.92
550.34	54810.67
550.51	55035.36
550.68	55009.61
550.84	54745.13
551.01	54906.63
551.18	54876.20
551.34	54604.70
551.51	54878.54
551.68	54967.48
551.84	55011.95
552.01	54930.03
552.18	55416.86
552.34	55128.98
552.51	54946.42
552.68	55044.72
552.84	55063.44
553.01	55084.51
553.18	55222.60
553.34	55487.08
553.51	55121.96
553.67	55292.82
553.84	55618.15
554.01	55454.31
554.17	55210.90
554.34	55323.24
554.51	55257.71
554.67	55412.18
554.84	55302.18
555.00	55374.73
555.17	55501.12
555.33	55356.01
555.50	55395.80
555.67	55402.82
555.83	55470.70
556.00	55728.16
556.16	55868.59
556.33	55594.74
556.50	55494.10
556.66	55920.08
556.83	55695.39
556.99	56013.70
557.16	56179.88
557.32	55971.57
557.49	55957.53
557.65	55477.72
557.82	55838.16
557.98	55735.18
558.15	55763.26
558.32	56158.81
558.48	55927.10
558.65	55987.95
558.81	55941.14
558.98	56135.41
559.14	55739.86
559.31	55718.79
559.47	55749.22
559.64	56002.00
559.80	56212.65
559.97	56238.39
560.13	56048.81
560.30	56032.42
560.46	56212.65
560.63	56044.13
560.79	55861.57
560.96	56175.20
561.12	55845.18
561.29	55952.85
561.45	55969.23
561.61	56128.39
561.78	56357.76
561.94	56067.53
562.11	56341.38
562.27	56076.90
562.44	56355.42
562.60	56196.26
562.77	56116.68
562.93	55955.19
563.10	56315.63
563.26	56186.90
563.42	56615.22
563.59	56062.85
563.75	56353.08
563.92	56350.74
564.08	56203.28
564.24	56383.51
564.41	56186.90
564.57	56165.84
564.74	56151.79
564.90	56329.67
565.07	56610.54
565.23	56622.24
565.39	56357.76
565.56	56437.34
565.72	56254.78
565.88	56399.89
566.05	56261.80
566.21	56427.98
566.38	56495.85
566.54	56545.00
566.70	56481.81
566.87	56453.72
567.03	56442.02
567.19	56439.68
567.36	56535.64
567.52	56399.89
567.68	56577.77
567.85	56308.61
568.01	56535.64
568.17	56313.29
568.34	56617.56
568.50	56463.08
568.66	56626.92
568.83	56568.41
568.99	56706.50
569.15	56463.08
569.32	56521.60
569.48	56432.66
569.64	56603.52
569.81	56460.74
569.97	56413.93
570.13	56655.01
570.30	56463.08
570.46	56645.65
570.62	56631.60
570.78	56420.95
570.95	56432.66
571.11	56451.38
571.27	56289.88
571.43	56514.58
571.60	56727.56
571.76	56673.73
571.92	56561.39
572.09	56882.04
572.25	56835.23
572.41	56727.56
572.57	56671.39
572.74	56690.12
572.90	56608.20
573.06	56762.67
573.22	56666.71
573.38	56704.16
573.55	56715.86
573.71	56816.50
573.87	56818.84
574.03	56680.75
574.20	56708.84
574.36	56837.57
574.52	56699.48
574.68	56662.03
574.84	56694.80
575.01	56650.33
575.17	56823.53
575.33	56701.82
575.49	56692.46
575.65	56776.72
575.82	56889.06
575.98	56537.98
576.14	56779.06
576.30	56828.21
576.46	56584.79
576.62	56554.36
576.79	56811.82
576.95	56624.58
577.11	56952.26
577.27	56931.19
577.43	56772.03
577.59	56788.42
577.75	56732.25
577.92	56549.68
578.08	56570.75
578.24	56769.69
578.40	56980.34
578.56	56706.50
578.72	56655.01
578.88	57003.75
579.04	56942.89
579.21	56811.82
579.37	56837.57
579.53	56825.87
579.69	56910.13
579.85	56645.65
580.01	56650.33
580.17	56868.00
580.33	56554.36
580.49	56741.61
580.65	57041.20
580.82	56949.92
580.98	56715.86
581.14	56598.83
581.30	56912.47
581.46	56416.27
581.62	56767.35
581.78	56458.40
581.94	56928.85
582.10	56811.82
582.26	56804.80
582.42	56652.67
582.58	56788.42
582.74	56905.44
582.90	56938.21
583.06	57041.20
583.22	56788.42
583.38	56837.57
583.54	56821.19
583.70	56966.30
583.86	56928.85
584.02	56669.05
584.18	57120.77
584.34	57006.09
584.50	56900.76
584.66	56828.21
584.82	56839.91
584.98	56877.36
585.14	56868.00
585.30	56612.88
585.46	56879.70
585.62	56781.40
585.78	56985.02
585.94	56856.29
586.10	56985.02
586.26	56809.48
586.42	57078.64
586.58	57141.84
586.74	56889.06
586.90	56790.76
587.06	56748.63
587.22	57050.56
587.38	56746.29
587.54	57134.82
587.70	57205.03
587.86	57176.95
588.02	57188.65
588.18	57394.62
588.34	56858.63
588.49	57158.22
588.65	56783.74
588.81	56961.62
588.97	56933.53
589.13	56884.38
589.29	56919.49
589.45	57228.44
589.61	57471.85
