SpectraSuite Data File
++++++++++++++++++++++++++++++++++++
Date: Fri Oct 18 13:55:51 GMT-05:00 2013
User: bianchi
Dark Spectrum Present: No
Reference Spectrum Present: No
Number of Sampled Component Spectra: 1
Spectrometers: USB2+H05261
Integration Time (usec): 100000 (USB2+H05261)
Spectra Averaged: 1 (USB2+H05261)
Boxcar Smoothing: 0 (USB2+H05261)
Correct for Electrical Dark: No (USB2+H05261)
Strobe/Lamp Enabled: No (USB2+H05261)
Correct for Detector Non-linearity: No (USB2+H05261)
Correct for Stray Light: No (USB2+H05261)
Number of Pixels in Processed Spectrum: 2048
>>>>>Begin Processed Spectral Data<<<<<
365.73	0.00
365.92	0.00
366.12	0.00
366.32	0.00
366.52	0.00
366.72	0.00
366.91	0.00
367.11	0.00
367.31	0.00
367.51	0.00
367.70	0.00
367.90	0.00
368.10	0.00
368.30	0.00
368.49	0.00
368.69	0.00
368.89	0.00
369.09	0.00
369.28	0.00
369.48	0.00
369.68	0.00
369.87	0.00
370.07	0.00
370.27	0.00
370.47	0.00
370.66	166.18
370.86	227.03
371.06	344.06
371.25	346.40
371.45	234.05
371.65	283.20
371.84	346.40
372.04	280.86
372.24	409.59
372.44	257.46
372.63	386.19
372.83	496.19
373.03	416.62
373.22	337.04
373.42	351.08
373.62	346.40
373.81	423.64
374.01	381.51
374.21	402.57
374.40	402.57
374.60	486.83
374.79	411.93
374.99	442.36
375.19	372.15
375.38	404.91
375.58	451.72
375.78	498.53
375.97	449.38
376.17	564.07
376.37	514.92
376.56	486.83
376.76	437.68
376.95	381.51
377.15	521.94
377.35	519.60
377.54	393.21
377.74	442.36
377.93	454.06
378.13	496.19
378.33	592.16
378.52	503.22
378.72	514.92
378.91	514.92
379.11	526.62
379.31	486.83
379.50	416.62
379.70	550.03
379.89	617.90
380.09	580.45
380.28	451.72
380.48	468.11
380.68	533.64
380.87	528.96
381.07	610.88
381.26	535.98
381.46	519.60
381.65	608.54
381.85	622.58
382.04	603.86
382.24	491.51
382.43	615.56
382.63	653.01
382.83	601.52
383.02	603.86
383.22	655.35
383.41	601.52
383.61	681.10
383.80	643.65
384.00	634.29
384.19	690.46
384.39	643.65
384.58	610.88
384.78	653.01
384.97	725.57
385.17	641.31
385.36	704.50
385.56	706.84
385.75	716.20
385.95	690.46
386.14	702.16
386.34	650.67
386.53	755.99
386.72	730.25
386.92	732.59
387.11	723.23
387.31	702.16
387.50	765.36
387.70	706.84
387.89	826.21
388.09	725.57
388.28	713.86
388.48	718.54
388.67	758.33
388.86	854.30
389.06	767.70
389.25	772.38
389.45	812.17
389.64	861.32
389.84	826.21
390.03	802.80
390.22	844.93
390.42	798.12
390.61	830.89
390.81	837.91
391.00	905.79
391.19	877.70
391.39	842.59
391.58	980.68
391.78	842.59
391.97	968.98
392.16	1001.75
392.36	933.87
392.55	1001.75
392.75	994.73
392.94	950.26
393.13	1057.92
393.33	1027.50
393.52	947.92
393.71	1081.33
393.91	1053.24
394.10	961.96
394.29	1050.90
394.49	1130.48
394.68	1100.05
394.88	1130.48
395.07	1114.10
395.26	1181.97
395.46	1064.94
395.65	1128.14
395.84	1160.91
396.04	1205.38
396.23	1170.27
396.42	1191.33
396.62	1181.97
396.81	1214.74
397.00	1203.04
397.19	1200.69
397.39	1212.40
397.58	1249.85
397.77	1214.74
397.97	1177.29
398.16	1306.02
398.35	1210.06
398.55	1214.74
398.74	1273.25
398.93	1299.00
399.12	1378.58
399.32	1313.04
399.51	1343.47
399.70	1306.02
399.90	1294.32
400.09	1380.92
400.28	1509.65
400.47	1390.28
400.67	1387.94
400.86	1483.90
401.05	1504.96
401.24	1563.48
401.44	1467.52
401.63	1551.78
401.82	1589.22
402.01	1476.88
402.21	1537.73
402.40	1488.58
402.59	1544.75
402.78	1556.46
402.97	1577.52
403.17	1631.35
403.36	1533.05
403.55	1584.54
403.74	1666.46
403.93	1659.44
404.13	1769.44
404.32	1750.72
404.51	1652.42
404.70	1629.01
404.89	1710.93
405.09	1799.87
405.28	1671.14
405.47	1741.36
405.66	1806.89
405.85	1823.28
406.05	1753.06
406.24	1921.58
406.43	1858.39
406.62	1944.99
406.81	1956.69
407.00	1891.15
407.20	1905.20
407.39	1944.99
407.58	2052.65
407.77	2005.84
407.96	2115.84
408.15	2076.06
408.34	2059.67
408.54	2047.97
408.73	2188.40
408.92	1973.07
409.11	2258.62
409.30	2181.38
409.49	2165.00
409.68	2256.28
409.87	2160.31
410.07	2303.09
410.26	2312.45
410.45	2338.20
410.64	2211.81
410.83	2249.25
411.02	2361.60
411.21	2495.01
411.40	2499.69
411.59	2448.20
411.78	2565.23
411.98	2455.22
412.17	2576.93
412.36	2567.57
412.55	2483.31
412.74	2658.85
412.93	2562.89
413.12	2637.78
413.31	2679.91
413.50	2722.04
413.69	2717.36
413.88	2813.32
414.07	2799.28
414.26	2794.60
414.45	2813.32
414.64	2904.60
414.83	2928.01
415.02	2979.50
415.22	3026.31
415.41	2944.39
415.60	3091.85
415.79	3164.40
415.98	3178.45
416.17	3035.67
416.36	3232.28
416.55	3229.94
416.74	3218.24
416.93	3246.32
417.12	3265.05
417.31	3468.67
417.50	3466.33
417.69	3375.05
417.88	3382.07
418.07	3433.57
418.26	3407.82
418.45	3538.89
418.64	3655.92
418.83	3630.17
419.02	3602.08
419.21	3618.47
419.39	3588.04
419.58	3691.02
419.77	3618.47
419.96	3693.37
420.15	3772.94
420.34	3688.68
420.53	3782.31
420.72	3824.44
420.91	3803.37
421.10	3866.56
421.29	4014.02
421.48	3719.11
421.67	4002.32
421.86	3918.06
422.05	3985.93
422.24	3971.89
422.43	3889.97
422.61	4032.74
422.80	3943.80
422.99	4063.17
423.18	3936.78
423.37	4196.58
423.56	4128.70
423.75	3922.74
423.94	3957.85
424.13	3875.93
424.32	3831.46
424.50	4051.47
424.69	4095.94
424.88	4105.30
425.07	4046.79
425.26	3936.78
425.45	4065.51
425.64	4065.51
425.83	3908.69
426.01	4212.96
426.20	4198.92
426.39	4180.20
426.58	4161.47
426.77	4208.28
426.96	4273.82
427.15	4320.63
427.33	4248.07
427.52	4292.54
427.71	4306.59
427.90	4297.22
428.09	4294.88
428.28	4388.50
428.46	4372.12
428.65	4526.60
428.84	4519.57
429.03	4674.05
429.22	4395.53
429.40	4613.20
429.59	4472.76
429.78	4250.41
429.97	4313.61
430.16	4589.79
430.34	4561.70
430.53	4706.82
430.72	4657.67
430.91	4676.39
431.10	4650.64
431.28	4678.73
431.47	4821.50
431.66	4898.74
431.85	4835.55
432.03	4840.23
432.22	5027.47
432.41	4837.89
432.60	5083.64
432.79	4901.08
432.97	4912.78
433.16	4856.61
433.35	4870.65
433.54	5011.09
433.72	4940.87
433.91	5097.69
434.10	5067.26
434.28	5123.43
434.47	5205.35
434.66	5240.46
434.85	5121.09
435.03	5156.20
435.22	5118.75
435.41	5612.60
435.59	5331.74
435.78	5280.25
435.97	5322.38
436.16	5425.36
436.34	5369.19
436.53	5273.23
436.72	5439.40
436.90	5401.96
437.09	5605.58
437.28	5406.64
437.46	5561.11
437.65	5589.20
437.84	5703.89
438.02	5465.15
438.21	5504.94
438.40	5521.32
438.58	5788.14
438.77	5832.62
438.96	5731.97
439.14	5888.79
439.33	5984.75
439.52	5998.79
439.70	6052.63
439.89	6064.33
440.08	6289.02
440.26	6207.10
440.45	6225.82
440.63	6225.82
440.82	6282.00
441.01	6389.66
441.19	6525.41
441.38	6352.21
441.57	6424.77
441.75	6282.00
441.94	6679.89
442.12	6656.48
442.31	6738.40
442.50	6630.74
442.68	6719.68
442.87	6628.40
443.05	6764.15
443.24	6853.09
443.43	6799.26
443.61	6712.66
443.80	7173.74
443.98	6803.94
444.17	6675.21
444.35	6951.39
444.54	6988.84
444.73	6988.84
444.91	7087.14
445.10	6773.51
445.28	6991.18
445.47	6846.07
445.65	7000.54
445.84	6995.86
446.02	6977.14
446.21	7019.27
446.39	6864.79
446.58	6977.14
446.77	7087.14
446.95	6888.20
447.14	7080.12
447.32	7045.01
447.51	7047.35
447.69	6911.60
447.88	7101.19
448.06	7176.08
448.25	7133.95
448.43	7136.29
448.62	7042.67
448.80	7213.53
448.99	7274.38
449.17	7208.85
449.36	7155.02
449.54	7377.37
449.73	7510.78
449.91	7503.76
450.10	7499.08
450.28	7611.42
450.46	7461.63
450.65	7618.44
450.83	7421.84
451.02	7623.12
451.20	7681.64
451.39	7613.76
451.57	7602.06
451.76	7733.13
451.94	7775.26
452.13	7871.22
452.31	7777.60
452.49	7585.68
452.68	7674.62
452.86	7735.47
453.05	7850.16
453.23	7747.17
453.42	7660.57
453.60	7751.85
453.78	7831.43
453.97	7730.79
454.15	7648.87
454.34	7861.86
454.52	7932.08
454.70	7772.92
454.89	8051.44
455.07	7974.21
455.26	8100.59
455.44	8124.00
455.62	8147.40
455.81	8138.04
455.99	8238.69
456.17	8250.39
456.36	8383.80
456.54	8475.08
456.73	8519.55
456.91	8636.58
457.09	8554.66
457.28	8805.10
457.46	8566.36
457.64	8664.66
457.83	8755.94
458.01	8676.37
458.19	8819.14
458.38	8903.40
458.56	8938.51
458.74	8901.06
458.93	9036.81
459.11	8774.67
459.29	8954.89
459.48	8870.63
459.66	8997.02
459.84	9142.13
460.03	9312.99
460.21	8997.02
460.39	9111.71
460.57	9057.87
460.76	9224.05
460.94	9146.81
461.12	9238.09
461.31	9453.42
461.49	9284.91
461.67	9270.86
461.85	9753.01
462.04	9511.94
462.22	9839.61
462.40	9371.50
462.59	9518.96
462.77	9554.07
462.95	9591.52
463.13	9699.18
463.32	9530.66
463.50	9682.80
463.68	9661.73
463.86	9666.41
464.05	9570.45
464.23	9364.48
464.41	9839.61
464.59	9867.70
464.78	9858.34
464.96	9963.66
465.14	9818.55
465.32	9872.38
465.50	10031.54
465.69	9954.30
465.87	9848.97
466.05	9900.47
466.23	10015.15
466.41	9919.19
466.60	10429.43
466.78	9968.34
466.96	10148.56
467.14	9958.98
467.32	9827.91
467.51	10347.51
467.69	9818.55
467.87	10272.61
468.05	10186.01
468.23	10377.94
468.41	10427.09
468.60	10380.28
468.78	10356.87
468.96	10265.59
469.14	10478.58
469.32	10633.05
469.50	10459.85
469.69	10864.77
469.87	10953.71
470.05	10841.36
470.23	10803.91
470.41	10553.48
470.59	10942.00
470.77	10497.30
470.95	11007.54
471.14	11101.16
471.32	10939.66
471.50	11201.80
471.68	11398.41
471.86	11126.91
472.04	11215.85
472.22	11637.14
472.40	11187.76
472.58	11360.96
472.77	11536.50
472.95	11492.03
473.13	12023.33
473.31	11726.08
473.49	11541.18
473.67	11662.89
473.85	11782.26
474.03	12051.42
474.21	11709.70
474.39	12074.82
474.57	12058.44
474.75	12411.86
474.93	12381.43
475.12	12224.62
475.30	12425.90
475.48	12231.64
475.66	12421.22
475.84	12489.10
476.02	12767.62
476.20	12578.04
476.38	12994.65
476.56	13217.01
476.74	13008.70
476.92	13074.23
477.10	12959.55
477.28	13135.09
477.46	13238.07
477.64	13521.27
477.82	13081.25
478.00	13809.16
478.18	13762.35
478.36	13998.74
478.54	14087.68
478.72	14106.41
478.90	14029.17
479.08	14281.95
479.26	14333.44
479.44	14389.61
479.62	14675.16
479.80	14745.38
479.98	14871.76
480.16	15124.54
480.34	15014.54
480.52	14991.13
480.70	15321.15
480.88	14906.87
481.06	15440.51
481.24	15398.38
481.41	15449.88
481.59	15885.22
481.77	15929.69
481.95	16217.57
482.13	16152.04
482.31	16362.69
482.49	16390.77
482.67	16706.74
482.85	16912.71
483.03	16849.52
483.21	17111.66
483.39	17053.14
483.57	17067.19
483.74	17256.77
483.92	17490.82
484.10	17186.55
484.28	17607.85
484.46	17851.27
484.64	18101.70
484.82	17912.12
485.00	18274.90
485.18	18604.92
485.35	18579.17
485.53	19098.77
485.71	18782.80
485.89	19051.96
486.07	19061.32
486.25	19201.76
486.43	19253.25
486.61	19536.45
486.78	19674.54
486.96	19786.89
487.14	19807.95
487.32	20210.53
487.50	20088.82
487.68	20395.43
487.85	20601.40
488.03	20893.96
488.21	21268.45
488.39	21195.89
488.57	21249.72
488.75	21390.16
488.92	21731.87
489.10	21905.07
489.28	21664.00
489.46	21907.41
489.64	22401.27
489.81	22265.52
489.99	22494.89
490.17	22438.72
490.35	22965.34
490.53	23084.70
490.70	23194.71
490.88	23168.96
491.06	23793.89
491.24	23082.36
491.41	23726.01
491.59	23571.54
491.77	23861.76
491.95	24334.55
492.13	24353.27
492.30	24311.14
492.48	24645.84
492.66	24788.61
492.84	24615.41
493.01	25001.60
493.19	25163.10
493.37	25355.02
493.54	25563.33
493.72	25556.31
493.90	25652.27
494.08	25603.12
494.25	26066.55
494.43	26174.21
494.61	26665.72
494.79	26607.21
494.96	26494.86
495.14	26808.50
495.32	26876.37
495.49	26906.80
495.67	27152.55
495.85	27246.18
496.02	27653.43
496.20	27573.85
496.38	27391.29
496.55	27627.68
496.73	28217.50
496.91	28224.52
497.09	28477.30
497.26	28582.62
497.44	28278.35
497.62	28568.58
497.79	29219.25
497.97	29244.99
498.14	29230.95
498.32	29586.71
498.50	29762.25
498.67	29617.14
498.85	29556.28
499.03	29979.92
499.20	29900.34
499.38	29802.04
499.56	30298.23
499.73	30380.15
499.91	30293.55
500.08	30504.20
500.26	30403.56
500.44	30490.16
500.61	30635.27
500.79	30654.00
500.97	31292.96
501.14	31466.16
501.32	31213.38
501.49	31409.99
501.67	31559.78
501.84	31512.97
502.02	31461.48
502.20	31583.19
502.37	32217.47
502.55	32226.84
502.72	31868.73
502.90	32161.30
503.07	31833.63
503.25	32261.94
503.43	32226.84
503.60	32505.36
503.78	32655.15
503.95	32776.86
504.13	32889.21
504.30	33029.64
504.48	32833.04
504.65	33109.22
504.83	33493.07
505.01	33591.37
505.18	33490.73
505.36	33741.16
505.53	33511.79
505.71	33387.74
505.88	34068.84
506.06	33628.82
506.23	34249.06
506.41	34047.77
506.58	34426.94
506.76	34614.18
506.93	34492.47
507.11	34249.06
507.28	34199.91
507.46	34532.26
507.63	34927.81
507.81	35093.99
507.98	34916.11
508.16	35019.10
508.33	35000.37
508.50	35229.74
508.68	34986.33
508.85	35496.56
509.03	35487.20
509.20	35814.88
509.38	36023.19
509.55	35988.08
509.73	36030.21
509.90	36348.52
510.08	36641.09
510.25	36416.40
510.42	36411.71
510.60	36655.13
510.77	36926.63
510.95	36624.70
511.12	36788.54
511.30	36601.30
511.47	37095.15
511.64	36690.24
511.82	37577.30
511.99	37691.99
512.17	37612.41
512.34	37446.23
512.51	37614.75
512.69	37804.33
512.86	37525.81
513.04	38384.79
513.21	38359.04
513.38	38377.76
513.56	38487.77
513.73	38029.02
513.90	38447.98
514.08	38515.86
514.25	38817.78
514.43	38504.15
514.60	38623.52
514.77	38969.92
514.95	38707.78
515.12	38560.33
515.29	38834.17
515.47	39009.71
515.64	39426.32
515.81	39325.68
515.99	38925.45
516.16	40233.81
516.33	39679.10
516.51	39779.74
516.68	39592.50
516.85	39611.23
517.03	40156.57
517.20	39964.65
517.37	40287.64
517.54	40245.51
517.72	40116.78
517.89	40605.95
518.06	40140.19
518.24	40669.15
518.41	40594.25
518.58	40655.11
518.75	40479.57
518.93	41181.73
519.10	40975.76
519.27	40898.52
519.45	40987.46
519.62	41067.04
519.79	41216.83
519.96	41450.89
520.14	41895.59
520.31	41462.59
520.48	41603.02
520.65	41706.01
520.83	41724.73
521.00	41291.73
521.17	41670.90
521.34	41724.73
521.52	41486.00
521.69	41642.81
521.86	42588.39
522.03	42525.19
522.20	42597.75
522.38	42330.93
522.55	42223.26
522.72	42440.93
522.89	42426.89
523.07	42820.10
523.24	42843.51
523.41	43075.22
523.58	42677.33
523.75	42850.53
523.92	42904.36
524.10	42866.91
524.27	43323.32
524.44	43232.04
524.61	43737.59
524.78	43775.04
524.96	43775.04
525.13	43622.90
525.30	44025.48
525.47	44002.07
525.64	43709.50
525.81	43634.61
525.98	44126.12
526.16	44304.00
526.33	43742.27
526.50	44460.82
526.67	43871.00
526.84	43800.79
527.01	44121.44
527.18	44397.62
527.36	44851.69
527.53	44526.35
527.70	44917.22
527.87	45083.40
528.04	45010.84
528.21	45081.06
528.38	44456.14
528.55	45076.38
528.72	45216.81
528.89	44996.80
529.07	45207.45
529.24	44865.73
529.41	44935.95
529.58	44708.91
529.75	44959.35
529.92	45387.67
530.09	45357.24
530.26	45600.66
530.43	45443.84
530.60	45485.97
530.77	45727.05
530.94	45858.12
531.11	45359.58
531.28	45322.13
531.46	45373.63
531.63	46256.01
531.80	46195.15
531.97	46167.07
532.14	46698.37
532.31	46267.71
532.48	45689.60
532.65	46403.46
532.82	45736.41
532.99	46529.85
533.16	46164.73
533.33	46747.52
533.50	47002.64
533.67	46457.29
533.84	46445.59
534.01	46789.65
534.18	46663.26
534.35	46993.28
534.52	46209.20
534.69	46827.10
534.86	47210.95
535.03	46946.47
535.20	47122.01
535.37	47323.29
535.54	47136.05
535.71	47096.26
535.88	47033.07
536.05	46880.93
536.22	47657.99
536.38	47566.71
536.55	47175.84
536.72	47639.26
536.89	47206.26
537.06	47253.08
537.23	47599.47
537.40	47557.35
537.57	47529.26
537.74	47746.93
537.91	48133.12
538.08	48296.95
538.25	47924.81
538.42	47973.96
538.59	47936.51
538.75	47585.43
538.92	47845.23
539.09	48137.80
539.26	48208.01
539.43	48076.94
539.60	48444.41
539.77	48320.36
539.94	48446.75
540.11	48086.31
540.28	48573.14
540.44	48444.41
540.61	48383.55
540.78	48573.14
540.95	48369.51
541.12	48486.54
541.29	48175.25
541.46	48502.92
541.62	48673.78
541.79	48907.83
541.96	48018.43
542.13	48573.14
542.30	48872.73
542.47	48765.06
542.63	48893.79
542.80	48924.22
542.97	49284.66
543.14	49481.27
543.31	49151.25
543.48	49453.18
543.64	49490.63
543.81	49593.61
543.98	49844.05
544.15	49588.93
544.32	49876.82
544.48	49876.82
544.65	49652.12
544.82	49457.86
544.99	49600.63
545.16	49565.52
545.32	49656.81
545.49	50424.50
545.66	50412.80
545.83	49698.94
546.00	50087.46
546.16	49907.24
546.33	49895.54
546.50	49584.25
546.67	50010.23
546.83	49352.54
547.00	50092.15
547.17	50239.60
547.34	50199.81
547.50	50277.05
547.67	50424.50
547.84	50085.12
548.00	50176.40
548.17	50475.99
548.34	50066.40
548.51	50838.78
548.67	50457.27
548.84	50258.32
549.01	50412.80
549.18	50583.66
549.34	50642.17
549.51	50272.37
549.68	50632.81
549.84	50321.52
550.01	50822.39
550.18	50576.64
550.34	50955.80
550.51	51000.27
550.68	50782.60
550.84	50443.23
551.01	50880.91
551.18	50834.10
551.34	50445.57
551.51	50953.46
551.68	50555.57
551.84	51030.70
552.01	50536.85
552.18	51056.45
552.34	50955.80
552.51	50885.59
552.68	50841.12
552.84	51002.61
553.01	51107.94
553.18	50979.21
553.34	51065.81
553.51	51063.47
553.67	51341.99
553.84	51625.20
554.01	51341.99
554.17	51227.31
554.34	51239.01
554.51	51196.88
554.67	51550.30
554.84	51049.42
555.00	51379.44
555.17	51358.38
555.33	51409.87
555.50	51292.84
555.67	51358.38
555.83	51416.89
556.00	51606.47
556.16	51868.61
556.33	51540.94
556.50	51709.46
556.66	52023.09
556.83	51538.60
556.99	52009.04
557.16	51751.59
557.32	51870.95
557.49	51945.85
557.65	51442.63
557.82	51456.68
557.98	51533.92
558.15	51845.21
558.32	52004.36
558.48	51873.29
558.65	52044.15
558.81	52097.98
558.98	52088.62
559.14	51824.14
559.31	51833.50
559.47	51709.46
559.64	51959.89
559.80	52287.57
559.97	52177.56
560.13	51639.24
560.30	51812.44
560.46	52076.92
560.63	52030.11
560.79	52105.01
560.96	52025.43
561.12	52420.98
561.29	52093.30
561.45	52144.80
561.61	52404.59
561.78	52186.92
561.94	52404.59
562.11	52060.54
562.27	52161.18
562.44	52034.79
562.60	52081.60
562.77	52168.20
562.93	52009.04
563.10	52432.68
563.26	52308.63
563.42	52615.24
563.59	52334.38
563.75	52261.82
563.92	52502.90
564.08	52067.56
564.24	52175.22
564.41	52294.59
564.57	51826.48
564.74	52090.96
564.90	52299.27
565.07	52390.55
565.23	52626.95
565.39	52325.02
565.56	52353.10
565.72	52404.59
565.88	52474.81
566.05	52079.26
566.21	51973.94
566.38	52364.81
566.54	52299.27
566.70	52870.36
566.87	52753.33
567.03	52465.45
567.19	52577.79
567.36	52542.69
567.52	52327.36
567.68	52442.04
567.85	52275.87
568.01	52547.37
568.17	52259.48
568.34	52507.58
568.50	52626.95
568.66	52552.05
568.83	52640.99
568.99	52261.82
569.15	52488.85
569.32	52303.95
569.48	52376.51
569.64	52619.92
569.81	52467.79
569.97	52198.63
570.13	52556.73
570.30	52460.77
570.46	52591.84
570.62	52666.73
570.78	52357.78
570.95	52547.37
571.11	52568.43
571.27	52229.05
571.43	52479.49
571.60	52727.59
571.76	52736.95
571.92	52683.12
572.09	52758.02
572.25	52823.55
572.41	52608.22
572.57	52835.25
572.74	52788.44
572.90	52809.51
573.06	52736.95
573.22	52640.99
573.38	52863.34
573.55	52839.93
573.71	52648.01
573.87	53083.35
574.03	52633.97
574.20	52694.82
574.36	52486.51
574.52	52612.90
574.68	52540.35
574.84	52563.75
575.01	52910.15
575.17	52704.18
575.33	52638.65
575.49	52879.72
575.65	52767.38
575.82	52980.37
575.98	52683.12
576.14	53130.16
576.30	52921.85
576.46	52463.11
576.62	52479.49
576.79	52549.71
576.95	52428.00
577.11	52659.71
577.27	52727.59
577.43	52615.24
577.59	52938.24
577.75	52741.63
577.92	52631.63
578.08	52664.39
578.24	52631.63
578.40	52596.52
578.56	52797.80
578.72	52779.08
578.88	52790.78
579.04	52954.62
579.21	53097.39
579.37	53116.12
579.53	52963.98
579.69	52725.25
579.85	52608.22
580.01	52519.28
580.17	52491.19
580.33	52898.45
580.49	52687.80
580.65	52802.49
580.82	52945.26
580.98	52746.31
581.14	52563.75
581.30	52786.10
581.46	52903.13
581.62	52645.67
581.78	52458.43
581.94	52762.70
582.10	52662.05
582.26	52910.15
582.42	53059.94
582.58	52865.68
582.74	53153.57
582.90	53045.90
583.06	52839.93
583.22	52877.38
583.38	52615.24
583.54	52622.26
583.70	52570.77
583.86	52774.40
584.02	52741.63
584.18	53127.82
584.34	53169.95
584.50	53158.25
584.66	52891.43
584.82	52671.42
584.98	53017.82
585.14	52858.66
585.30	52788.44
585.46	52800.15
585.62	52868.02
585.78	52739.29
585.94	52619.92
586.10	52818.87
586.26	52931.22
586.42	52718.23
586.58	53055.26
586.74	52884.40
586.90	52617.58
587.06	52898.45
587.22	52570.77
587.38	52818.87
587.54	52968.66
587.70	53071.65
587.86	53118.46
588.02	53092.71
588.18	53118.46
588.34	53310.38
588.49	52629.29
588.65	52758.02
588.81	52662.05
588.97	53006.11
589.13	52966.32
589.29	52793.12
589.45	53237.83
589.61	52842.27
589.77	53254.21
589.93	53205.06
590.08	53052.92
