SpectraSuite Data File
++++++++++++++++++++++++++++++++++++
Date: Fri Oct 18 13:55:47 GMT-05:00 2013
User: bianchi
Dark Spectrum Present: No
Reference Spectrum Present: No
Number of Sampled Component Spectra: 1
Spectrometers: USB2+H05261
Integration Time (usec): 100000 (USB2+H05261)
Spectra Averaged: 1 (USB2+H05261)
Boxcar Smoothing: 0 (USB2+H05261)
Correct for Electrical Dark: No (USB2+H05261)
Strobe/Lamp Enabled: No (USB2+H05261)
Correct for Detector Non-linearity: No (USB2+H05261)
Correct for Stray Light: No (USB2+H05261)
Number of Pixels in Processed Spectrum: 2048
>>>>>Begin Processed Spectral Data<<<<<
365.73	0.00
365.92	0.00
366.12	0.00
366.32	0.00
366.52	0.00
366.72	0.00
366.91	0.00
367.11	0.00
367.31	0.00
367.51	0.00
367.70	0.00
367.90	0.00
368.10	0.00
368.30	0.00
368.49	0.00
368.69	0.00
368.89	0.00
369.09	0.00
369.28	0.00
369.48	0.00
369.68	0.00
369.87	0.00
370.07	0.00
370.27	0.00
370.47	0.00
370.66	173.20
370.86	217.67
371.06	299.59
371.25	348.74
371.45	285.55
371.65	325.33
371.84	264.48
372.04	243.42
372.24	388.53
372.44	374.49
372.63	337.04
372.83	447.04
373.03	390.87
373.22	425.98
373.42	425.98
373.62	383.85
373.81	486.83
374.01	425.98
374.21	381.51
374.40	369.80
374.60	430.66
374.79	381.51
374.99	433.00
375.19	423.64
375.38	416.62
375.58	475.13
375.78	496.19
375.97	465.77
376.17	479.81
376.37	543.00
376.56	428.32
376.76	475.13
376.95	395.55
377.15	465.77
377.35	517.26
377.54	496.19
377.74	472.79
377.93	442.36
378.13	491.51
378.33	505.56
378.52	411.93
378.72	496.19
378.91	484.49
379.11	463.43
379.31	512.58
379.50	503.22
379.70	517.26
379.89	568.75
380.09	486.83
380.28	540.66
380.48	580.45
380.68	587.47
380.87	557.05
381.07	606.20
381.26	594.50
381.46	531.30
381.65	585.13
381.85	620.24
382.04	638.97
382.24	568.75
382.43	638.97
382.63	592.16
382.83	589.82
383.02	690.46
383.22	688.12
383.41	645.99
383.61	699.82
383.80	692.80
384.00	737.27
384.19	524.28
384.39	643.65
384.58	653.01
384.78	683.44
384.97	685.78
385.17	601.52
385.36	770.04
385.56	660.03
385.75	622.58
385.95	678.76
386.14	737.27
386.34	748.97
386.53	667.05
386.72	697.48
386.92	716.20
387.11	636.63
387.31	748.97
387.50	748.97
387.70	739.61
387.89	807.48
388.09	763.01
388.28	737.27
388.48	800.46
388.67	938.55
388.86	802.80
389.06	875.36
389.25	840.25
389.45	802.80
389.64	844.93
389.84	875.36
390.03	851.96
390.22	880.04
390.42	847.27
390.61	734.93
390.81	805.14
391.00	940.90
391.19	903.45
391.39	947.92
391.58	882.38
391.78	826.21
391.97	1013.45
392.16	931.53
392.36	903.45
392.55	952.60
392.75	990.05
392.94	931.53
393.13	985.37
393.33	1013.45
393.52	1015.79
393.71	1015.79
393.91	1004.09
394.10	992.39
394.29	997.07
394.49	1008.77
394.68	1093.03
394.88	1069.62
395.07	1137.50
395.26	1055.58
395.46	1100.05
395.65	1104.73
395.84	1172.61
396.04	1214.74
396.23	1172.61
396.42	1128.14
396.62	1130.48
396.81	1217.08
397.00	1078.99
397.19	1163.25
397.39	1174.95
397.58	1259.21
397.77	1210.06
397.97	1221.76
398.16	1247.51
398.35	1366.87
398.55	1320.06
398.74	1217.08
398.93	1263.89
399.12	1315.38
399.32	1249.85
399.51	1327.08
399.70	1434.75
399.90	1350.49
400.09	1423.05
400.28	1451.13
400.47	1418.36
400.67	1423.05
400.86	1418.36
401.05	1458.15
401.24	1521.35
401.44	1549.43
401.63	1476.88
401.82	1563.48
402.01	1455.81
402.21	1479.22
402.40	1528.37
402.59	1598.59
402.78	1551.78
402.97	1537.73
403.17	1650.08
403.36	1657.10
403.55	1591.56
403.74	1556.46
403.93	1582.20
404.13	1610.29
404.32	1720.29
404.51	1734.34
404.70	1792.85
404.89	1757.74
405.09	1764.76
405.28	1732.00
405.47	1844.34
405.66	1867.75
405.85	1811.57
406.05	1923.92
406.24	1746.04
406.43	1874.77
406.62	1877.11
406.81	1926.26
407.00	1902.86
407.20	1867.75
407.39	1935.62
407.58	1989.46
407.77	1984.77
407.96	2040.95
408.15	2069.03
408.34	1926.26
408.54	2162.66
408.73	2090.10
408.92	2139.25
409.11	2197.76
409.30	2043.29
409.49	2179.04
409.68	2258.62
409.87	2195.42
410.07	2162.66
410.26	2296.07
410.45	2253.94
410.64	2373.30
410.83	2284.36
411.02	2265.64
411.21	2511.39
411.40	2387.35
411.59	2518.42
411.78	2483.31
411.98	2504.37
412.17	2518.42
412.36	2527.78
412.55	2560.55
412.74	2534.80
412.93	2675.23
413.12	2675.23
413.31	2640.12
413.50	2686.94
413.69	2686.94
413.88	2803.96
414.07	2876.52
414.26	2906.95
414.45	2892.90
414.64	2920.99
414.83	2942.05
415.02	2967.80
415.22	2906.95
415.41	3084.83
415.60	3110.57
415.79	3164.40
415.98	3279.09
416.17	3178.45
416.36	3222.92
416.55	3150.36
416.74	3304.84
416.93	3255.69
417.12	3297.81
417.31	3208.87
417.50	3318.88
417.69	3447.61
417.88	3489.74
418.07	3445.27
418.26	3545.91
418.45	3527.19
418.64	3719.11
418.83	3623.15
419.02	3513.14
419.21	3578.68
419.39	3681.66
419.58	3613.79
419.77	3637.19
419.96	3653.58
420.15	3702.73
420.34	3796.35
420.53	3843.16
420.72	3936.78
420.91	3791.67
421.10	3908.69
421.29	4021.04
421.48	3707.41
421.67	4009.34
421.86	3861.88
422.05	4152.11
422.24	3791.67
422.43	3934.44
422.61	4072.53
422.80	4074.87
422.99	4121.68
423.18	4065.51
423.37	4145.09
423.56	3950.82
423.75	4100.62
423.94	4081.89
424.13	3822.09
424.32	3969.55
424.50	4049.13
424.69	4175.52
424.88	4287.86
425.07	4231.69
425.26	3964.87
425.45	4189.56
425.64	4100.62
425.83	4154.45
426.01	4301.90
426.20	4177.86
426.39	4128.70
426.58	4159.13
426.77	4198.92
426.96	4201.26
427.15	4227.01
427.33	4203.60
427.52	4248.07
427.71	4416.59
427.90	4304.25
428.09	4421.27
428.28	4421.27
428.46	4608.51
428.65	4468.08
428.84	4624.90
429.03	4538.30
429.22	4472.76
429.40	4552.34
429.59	4531.28
429.78	4397.87
429.97	4374.46
430.16	4561.70
430.34	4603.83
430.53	4723.20
430.72	4772.35
430.91	4624.90
431.10	4561.70
431.28	4807.46
431.47	4844.91
431.66	4767.67
431.85	4788.74
432.03	4966.62
432.22	5137.48
432.41	4966.62
432.60	4910.44
432.79	4987.68
432.97	5015.77
433.16	4985.34
433.35	5064.92
433.54	5125.77
433.72	5139.82
433.91	5111.73
434.10	5174.92
434.28	5050.88
434.47	5029.81
434.66	5177.26
434.85	5210.03
435.03	5254.50
435.22	5348.12
435.41	5547.07
435.59	5135.14
435.78	5242.80
435.97	5425.36
436.16	5418.34
436.34	5181.95
436.53	5472.17
436.72	5771.76
436.90	5313.02
437.09	5518.98
437.28	5270.89
437.46	5570.48
437.65	5689.84
437.84	5668.78
438.02	5640.69
438.21	5568.13
438.40	5425.36
438.58	5748.36
438.77	5781.12
438.96	5741.33
439.14	5832.62
439.33	6024.54
439.52	6097.10
439.70	6033.90
439.89	6127.52
440.08	6148.59
440.26	6214.12
440.45	6235.19
440.63	6218.80
440.82	6279.66
441.01	6120.50
441.19	6469.24
441.38	6436.47
441.57	6523.07
441.75	6509.03
441.94	6630.74
442.12	6586.27
442.31	6562.86
442.50	6698.61
442.68	6588.61
442.87	6717.34
443.05	6747.76
443.24	6782.87
443.43	6867.13
443.61	6930.33
443.80	6869.47
443.98	6822.66
444.17	6586.27
444.35	6953.73
444.54	6944.37
444.73	6925.65
444.91	6817.98
445.10	6867.13
445.28	7019.27
445.47	6787.55
445.65	6899.90
445.84	6963.09
446.02	6988.84
446.21	6860.11
446.39	6979.48
446.58	7061.40
446.77	7112.89
446.95	6963.09
447.14	7105.87
447.32	7276.73
447.51	7089.48
447.69	7112.89
447.88	7066.08
448.06	7243.96
448.25	7077.78
448.43	7190.13
448.62	6895.22
448.80	7117.57
448.99	7096.50
449.17	7222.89
449.36	7138.63
449.54	7342.26
449.73	7349.28
449.91	7400.77
450.10	7494.40
450.28	7520.14
450.46	7571.63
450.65	7489.71
450.83	7667.60
451.02	7403.11
451.20	7721.43
451.39	7578.65
451.57	7613.76
451.76	7660.57
451.94	7702.70
452.13	7943.78
452.31	7534.18
452.49	7730.79
452.68	7798.66
452.86	7742.49
453.05	8006.97
453.23	7817.39
453.42	7826.75
453.60	7878.24
453.78	7892.29
453.97	7749.51
454.15	8030.38
454.34	7995.27
454.52	7950.80
454.70	8091.23
454.89	7964.84
455.07	8273.79
455.26	8222.30
455.44	8465.72
455.62	8102.93
455.81	8161.45
455.99	8421.25
456.17	8196.56
456.36	8322.94
456.54	8383.80
456.73	8545.30
456.91	8674.03
457.09	8549.98
457.28	8737.22
457.46	8435.29
457.64	8798.07
457.83	8905.74
458.01	8765.31
458.19	8798.07
458.38	8905.74
458.56	8994.68
458.74	8978.30
458.93	8744.24
459.11	9078.94
459.29	8980.64
459.48	9015.74
459.66	9046.17
459.84	9085.96
460.03	9174.90
460.21	9198.31
460.39	9179.58
460.57	9090.64
460.76	9308.31
460.94	9348.10
461.12	9355.12
461.31	9191.28
461.49	9320.01
461.67	9121.07
461.85	9359.80
462.04	9525.98
462.22	9944.94
462.40	9652.37
462.59	9596.20
462.77	9411.29
462.95	9729.61
463.13	9233.41
463.32	9727.27
463.50	9872.38
463.68	9727.27
463.86	9605.56
464.05	9439.38
464.23	9757.69
464.41	9982.38
464.59	9528.32
464.78	9764.72
464.96	9724.93
465.14	9638.33
465.32	9811.53
465.50	10181.33
465.69	10068.98
465.87	9795.14
466.05	10225.80
466.23	9846.63
466.41	10083.03
466.60	10403.68
466.78	9923.87
466.96	10132.18
467.14	10120.48
467.32	10136.86
467.51	10291.34
467.69	10083.03
467.87	10251.55
468.05	10345.17
468.23	10125.16
468.41	10237.50
468.60	10209.42
468.78	10534.75
468.96	10436.45
469.14	10635.39
469.32	10607.31
469.50	10281.97
469.69	10733.70
469.87	10745.40
470.05	10824.98
470.23	10913.92
470.41	10785.19
470.59	10860.09
470.77	10846.04
470.95	10932.64
471.14	11030.94
471.32	10897.53
471.50	11169.04
471.68	11241.59
471.86	11166.70
472.04	11129.25
472.22	11454.58
472.40	11194.78
472.58	11218.19
472.77	11400.75
472.95	11414.79
473.13	11971.84
473.31	11630.12
473.49	11562.25
473.67	11747.15
473.85	11721.40
474.03	11770.55
474.21	11833.75
474.39	12248.02
474.57	12131.00
474.75	12266.75
474.93	12315.90
475.12	12175.47
475.30	12554.63
475.48	12191.85
475.66	12538.25
475.84	12624.85
476.02	12692.73
476.20	12844.86
476.38	12896.35
476.56	13076.57
476.74	13064.87
476.92	13067.21
477.10	13034.44
477.28	13209.98
477.46	12917.42
477.64	13582.13
477.82	13741.29
478.00	13703.84
478.18	13984.70
478.36	13710.86
478.54	13907.46
478.72	14356.85
478.90	14132.15
479.08	14232.80
479.26	14637.71
479.44	14480.89
479.62	14478.55
479.80	14792.19
479.98	14731.33
480.16	15000.49
480.34	14977.09
480.52	15173.69
480.70	15438.17
480.88	15147.95
481.06	15594.99
481.24	15311.78
481.41	15440.51
481.59	15896.92
481.77	15817.34
481.95	16016.29
482.13	15962.45
482.31	16154.38
482.49	16379.07
482.67	16353.32
482.85	16858.88
483.03	16980.59
483.21	16959.52
483.39	17280.18
483.57	17186.55
483.74	17153.79
483.92	17558.70
484.10	17542.32
484.28	17680.41
484.46	17862.97
484.64	18391.93
484.82	18143.83
485.00	17872.33
485.18	18539.38
485.35	18462.15
485.53	18415.34
485.71	18897.49
485.89	19058.98
486.07	18946.64
486.25	19070.68
486.43	19304.74
486.61	19613.69
486.78	19885.19
486.96	19845.40
487.14	20152.01
487.32	20173.08
487.50	20184.78
487.68	20327.55
487.85	20453.94
488.03	20826.09
488.21	21036.74
488.39	21167.80
488.57	21436.97
488.75	21640.59
488.92	21406.54
489.10	21781.03
489.28	21839.54
489.46	22265.52
489.64	22326.37
489.81	22335.73
489.99	22478.50
490.17	22586.17
490.35	23009.81
490.53	23161.94
490.70	23185.35
490.88	23171.30
491.06	23506.00
491.24	23405.36
491.41	23674.52
491.59	23592.60
491.77	23974.11
491.95	24201.14
492.13	24205.82
492.30	24652.86
492.48	24341.57
492.66	24762.87
492.84	24554.56
493.01	24966.49
493.19	24617.75
493.37	25378.43
493.54	25130.33
493.72	25511.84
493.90	25488.43
494.08	26153.15
494.25	26417.63
494.43	26115.70
494.61	26368.48
494.79	26647.00
494.96	26354.43
495.14	26705.51
495.32	26845.94
495.49	27084.68
495.67	27152.55
495.85	27037.87
496.02	27634.71
496.20	27590.24
496.38	27646.41
496.55	27775.14
496.73	28568.58
496.91	28435.17
497.09	28472.62
497.26	28631.77
497.44	28481.98
497.62	28779.23
497.79	29015.62
497.97	29034.35
498.14	29205.20
498.32	29450.96
498.50	29474.37
498.67	29677.99
498.85	29474.37
499.03	29635.86
499.20	29839.49
499.38	29621.82
499.56	30197.59
499.73	30408.24
499.91	30494.84
500.08	30565.06
500.26	30391.86
500.44	30492.50
500.61	30888.05
500.79	30890.39
500.97	30862.30
501.14	31564.46
501.32	31489.57
501.49	31295.30
501.67	31281.26
501.84	31419.35
502.02	31658.09
502.20	31529.36
502.37	32437.48
502.55	31786.82
502.72	32264.28
502.90	32201.09
503.07	31910.86
503.25	32275.99
503.43	32308.76
503.60	32535.79
503.78	32435.14
503.95	33057.73
504.13	32917.29
504.30	33123.26
504.48	32484.30
504.65	32994.53
504.83	33095.18
505.01	33563.28
505.18	33493.07
505.36	33848.83
505.53	33488.38
505.71	33586.69
505.88	33886.28
506.06	33684.99
506.23	34143.74
506.41	34265.44
506.58	34668.02
506.76	34258.42
506.93	34625.89
507.11	34244.38
507.28	34682.06
507.46	34581.42
507.63	35056.54
507.81	35026.12
507.98	34752.27
508.16	34888.03
508.33	35028.46
508.50	35618.27
508.68	35360.81
508.85	35489.54
509.03	35505.93
509.20	36297.03
509.38	36006.80
509.55	36093.40
509.73	36341.50
509.90	35938.93
510.08	36133.19
510.25	36151.91
510.42	36411.71
510.60	36912.59
510.77	37116.22
510.95	36610.66
511.12	36664.49
511.30	36535.76
511.47	37240.26
511.64	37443.89
511.82	37099.83
511.99	37464.96
512.17	37441.55
512.34	37570.28
512.51	37790.29
512.69	37989.24
512.86	37649.86
513.04	37935.40
513.21	38089.88
513.38	38216.27
513.56	38286.48
513.73	38230.31
513.90	38511.17
514.08	38225.63
514.25	38370.74
514.43	38864.60
514.60	38810.76
514.77	38806.08
514.95	39021.41
515.12	39126.74
515.29	38869.28
515.47	39248.44
515.64	39194.61
515.81	39335.04
515.99	39735.27
516.16	39833.58
516.33	40093.38
516.51	40112.10
516.68	39592.50
516.85	40144.87
517.03	40119.12
517.20	39943.58
517.37	40205.72
517.54	40322.75
517.72	40179.98
517.89	39929.54
518.06	40126.14
518.24	40474.88
518.41	40481.91
518.58	40610.64
518.75	40357.86
518.93	40882.14
519.10	41085.76
519.27	40912.56
519.45	40804.90
519.62	41118.53
519.79	40615.32
519.96	41071.72
520.14	41422.80
520.31	41186.41
520.48	41486.00
520.65	41771.54
520.83	41921.34
521.00	41876.86
521.17	41509.40
521.34	41808.99
521.52	41752.82
521.69	41771.54
521.86	41982.19
522.03	42394.12
522.20	42438.59
522.38	42286.46
522.55	42600.09
522.72	42763.93
522.89	42766.27
523.07	42934.79
523.24	43089.26
523.41	43093.94
523.58	42532.22
523.75	42976.92
523.92	42932.45
524.10	42911.38
524.27	43438.00
524.44	43295.23
524.61	43660.35
524.78	43564.39
524.96	43723.55
525.13	43222.67
525.30	43660.35
525.47	44009.09
525.64	44046.54
525.81	43885.04
525.98	44252.51
526.16	44357.83
526.33	43714.19
526.50	44875.09
526.67	44039.52
526.84	43849.94
527.01	43849.94
527.18	44446.77
527.36	44210.38
527.53	44425.71
527.70	44912.54
527.87	45013.18
528.04	44961.69
528.21	44605.93
528.38	45001.48
528.55	44720.62
528.72	44708.91
528.89	44949.99
529.07	45221.49
529.24	45111.49
529.41	45591.30
529.58	45261.28
529.75	45254.26
529.92	45148.93
530.09	45291.71
530.26	45799.60
530.43	45375.97
530.60	45144.25
530.77	46075.79
530.94	45635.77
531.11	45916.63
531.28	46047.70
531.46	45881.52
531.63	45998.55
531.80	45951.74
531.97	46043.02
532.14	46387.08
532.31	46038.34
532.48	46532.19
532.65	46181.11
532.82	45855.78
532.99	46312.18
533.16	46265.37
533.33	46337.93
533.50	46927.74
533.67	46609.43
533.84	46342.61
534.01	46246.65
534.18	46436.23
534.35	46990.94
534.52	46637.51
534.69	46969.87
534.86	46972.21
535.03	46960.51
535.20	47201.58
535.37	47168.82
535.54	47215.63
535.71	46541.55
535.88	47014.34
536.05	47374.78
536.22	47805.44
536.38	47693.10
536.55	47597.13
536.72	47767.99
536.89	47248.39
537.06	47803.10
537.23	47255.42
537.40	47697.78
537.57	47473.09
537.74	47786.72
537.91	48474.84
538.08	47814.80
538.25	47789.06
538.42	48086.31
538.59	48053.54
538.75	47842.89
538.92	47721.18
539.09	47999.71
539.26	48098.01
539.43	48137.80
539.60	48313.34
539.77	48245.46
539.94	48264.19
540.11	48090.99
540.28	48311.00
540.44	48680.80
540.61	48299.30
540.78	48383.55
540.95	48636.33
541.12	48346.11
541.29	48746.34
541.46	48633.99
541.62	48538.03
541.79	48774.42
541.96	48100.35
542.13	48879.75
542.30	48701.87
542.47	48896.13
542.63	49174.66
542.80	49139.55
542.97	49312.75
543.14	49125.50
543.31	49385.30
543.48	49254.23
543.64	49298.70
543.81	49624.04
543.98	49448.50
544.15	49750.43
544.32	49860.43
544.48	49993.84
544.65	49401.69
544.82	49439.14
544.99	48945.28
545.16	49830.01
545.32	49549.14
545.49	50005.55
545.66	50227.90
545.83	50127.25
546.00	50258.32
546.16	49989.16
546.33	50145.98
546.50	49338.49
546.67	49701.28
546.83	49619.36
547.00	49888.52
547.17	50197.47
547.34	50071.08
547.50	50026.61
547.67	50363.65
547.84	50202.15
548.00	50307.47
548.17	50623.45
548.34	50295.77
548.51	50733.45
548.67	50511.10
548.84	50113.21
549.01	50447.91
549.18	50560.25
549.34	50693.66
549.51	50431.52
549.68	50635.15
549.84	50621.11
550.01	50616.43
550.18	50349.60
550.34	50735.79
550.51	50672.60
550.68	50688.98
550.84	50255.98
551.01	50822.39
551.18	50131.93
551.34	50597.70
551.51	50979.21
551.68	51070.49
551.84	51166.45
552.01	50745.15
552.18	51110.28
552.34	50887.93
552.51	50997.93
552.68	50808.35
552.84	50885.59
553.01	51098.58
553.18	51246.03
553.34	51257.73
553.51	51447.32
553.67	51070.49
553.84	51503.49
554.01	51414.55
554.17	51323.27
554.34	51351.35
554.51	51290.50
554.67	51229.65
554.84	51189.86
555.00	51402.85
555.17	51178.15
555.33	51901.38
555.50	51264.75
555.67	51269.43
555.83	51477.74
556.00	51580.73
556.16	51784.35
556.33	51433.27
556.50	51796.06
556.66	51721.16
556.83	51569.02
556.99	51669.67
557.16	51866.27
557.32	51845.21
557.49	52207.99
557.65	51594.77
557.82	51583.07
557.98	51955.21
558.15	52069.90
558.32	52317.99
558.48	51880.31
558.65	51971.60
558.81	51877.97
558.98	51885.00
559.14	51849.89
559.31	51917.76
559.47	51894.36
559.64	51987.98
559.80	52025.43
559.97	52037.13
560.13	52018.41
560.30	52009.04
560.46	51779.67
560.63	51990.32
560.79	52161.18
560.96	51962.23
561.12	52086.28
561.29	52362.46
561.45	51980.96
561.61	52018.41
561.78	52205.65
561.94	52308.63
562.11	52570.77
562.27	52226.71
562.44	51934.15
562.60	52079.26
562.77	52016.07
562.93	51896.70
563.10	52465.45
563.26	52158.84
563.42	52458.43
563.59	52390.55
563.75	52371.83
563.92	52233.74
564.08	52191.61
564.24	52182.24
564.41	52112.03
564.57	52142.45
564.74	52210.33
564.90	52474.81
565.07	52465.45
565.23	52556.73
565.39	52023.09
565.56	52383.53
565.72	52200.97
565.88	52378.85
566.05	52383.53
566.21	52435.02
566.38	52303.95
566.54	52509.92
566.70	52683.12
566.87	52828.23
567.03	52231.40
567.19	52870.36
567.36	52463.11
567.52	52402.25
567.68	52559.07
567.85	52294.59
568.01	52762.70
568.17	52313.31
568.34	52484.17
568.50	52573.11
568.66	52570.77
568.83	52404.59
568.99	52327.36
569.15	52570.77
569.32	52437.36
569.48	52446.72
569.64	52582.48
569.81	52594.18
569.97	52858.66
570.13	52793.12
570.30	52804.83
570.46	52626.95
570.62	52643.33
570.78	52512.26
570.95	52446.72
571.11	52552.05
571.27	52271.18
571.43	52535.66
571.60	52538.01
571.76	52594.18
571.92	52521.62
572.09	52781.42
572.25	52631.63
572.41	52509.92
572.57	52973.34
572.74	53015.47
572.90	52828.23
573.06	52809.51
573.22	52734.61
573.38	52851.64
573.55	52648.01
573.71	52966.32
573.87	52746.31
574.03	52870.36
574.20	52832.91
574.36	52603.54
574.52	52509.92
574.68	52514.60
574.84	52870.36
575.01	52797.80
575.17	52828.23
575.33	52912.49
575.49	52900.79
575.65	53219.10
575.82	52945.26
575.98	52528.64
576.14	52856.32
576.30	52708.86
576.46	52877.38
576.62	52519.28
576.79	52917.17
576.95	52694.82
577.11	52811.85
577.27	52945.26
577.43	52680.78
577.59	52788.44
577.75	53116.12
577.92	52643.33
578.08	52385.87
578.24	52430.34
578.40	52842.27
578.56	52736.95
578.72	52790.78
578.88	53036.54
579.04	52870.36
579.21	52624.60
579.37	52879.72
579.53	53106.76
579.69	52655.03
579.85	52638.65
580.01	52580.13
580.17	52481.83
580.33	52711.20
580.49	52528.64
580.65	52952.28
580.82	52985.05
580.98	52697.16
581.14	52856.32
581.30	53099.73
581.46	52774.40
581.62	52626.95
581.78	52690.14
581.94	52830.57
582.10	52605.88
582.26	52774.40
582.42	52783.76
582.58	52865.68
582.74	52865.68
582.90	52886.74
583.06	53109.10
583.22	52893.77
583.38	52863.34
583.54	52818.87
583.70	52729.93
583.86	52652.69
584.02	52591.84
584.18	53027.18
584.34	52928.87
584.50	53226.12
584.66	52954.62
584.82	52748.65
584.98	52533.32
585.14	52596.52
585.30	52629.29
585.46	52617.58
585.62	52678.44
585.78	53006.11
585.94	52648.01
586.10	52963.98
586.26	52966.32
586.42	53116.12
586.58	53158.25
586.74	52741.63
586.90	52519.28
587.06	52584.82
587.22	52685.46
587.38	52732.27
587.54	53076.33
587.70	52942.92
587.86	53029.52
588.02	53130.16
588.18	53408.68
588.34	52971.00
588.49	52954.62
588.65	52643.33
588.81	52921.85
588.97	52683.12
589.13	52868.02
589.29	52739.29
589.45	52797.80
589.61	52968.66
589.77	53158.25
589.93	53078.67
590.08	53148.88
