SpectraSuite Data File
++++++++++++++++++++++++++++++++++++
Date: Fri Oct 18 13:55:57 GMT-05:00 2013
User: bianchi
Dark Spectrum Present: No
Reference Spectrum Present: No
Number of Sampled Component Spectra: 1
Spectrometers: USB2+H05261
Integration Time (usec): 100000 (USB2+H05261)
Spectra Averaged: 1 (USB2+H05261)
Boxcar Smoothing: 0 (USB2+H05261)
Correct for Electrical Dark: No (USB2+H05261)
Strobe/Lamp Enabled: No (USB2+H05261)
Correct for Detector Non-linearity: No (USB2+H05261)
Correct for Stray Light: No (USB2+H05261)
Number of Pixels in Processed Spectrum: 2048
>>>>>Begin Processed Spectral Data<<<<<
365.73	0.00
365.92	0.00
366.12	0.00
366.32	0.00
366.52	0.00
366.72	0.00
366.91	0.00
367.11	0.00
367.31	0.00
367.51	0.00
367.70	0.00
367.90	0.00
368.10	0.00
368.30	0.00
368.49	0.00
368.69	0.00
368.89	0.00
369.09	0.00
369.28	0.00
369.48	0.00
369.68	0.00
369.87	0.00
370.07	0.00
370.27	0.00
370.47	11.70
370.66	191.92
370.86	271.50
371.06	283.20
371.25	369.80
371.45	358.10
371.65	264.48
371.84	271.50
372.04	250.44
372.24	290.23
372.44	255.12
372.63	337.04
372.83	416.62
373.03	348.74
373.22	320.65
373.42	325.33
373.62	360.44
373.81	418.96
374.01	416.62
374.21	517.26
374.40	425.98
374.60	440.02
374.79	362.78
374.99	437.68
375.19	458.74
375.38	402.57
375.58	468.11
375.78	573.43
375.97	479.81
376.17	528.96
376.37	374.49
376.56	444.70
376.76	458.74
376.95	404.91
377.15	552.37
377.35	372.15
377.54	440.02
377.74	411.93
377.93	475.13
378.13	493.85
378.33	489.17
378.52	475.13
378.72	484.49
378.91	463.43
379.11	416.62
379.31	498.53
379.50	489.17
379.70	486.83
379.89	517.26
380.09	601.52
380.28	491.51
380.48	550.03
380.68	575.77
380.87	475.13
381.07	571.09
381.26	578.11
381.46	503.22
381.65	557.05
381.85	596.84
382.04	573.43
382.24	594.50
382.43	589.82
382.63	690.46
382.83	578.11
383.02	648.33
383.22	683.44
383.41	645.99
383.61	615.56
383.80	620.24
384.00	645.99
384.19	641.31
384.39	624.92
384.58	695.14
384.78	641.31
384.97	622.58
385.17	702.16
385.36	683.44
385.56	697.48
385.75	667.05
385.95	662.37
386.14	758.33
386.34	709.18
386.53	676.41
386.72	678.76
386.92	732.59
387.11	732.59
387.31	725.57
387.50	791.10
387.70	727.91
387.89	774.72
388.09	807.48
388.28	718.54
388.48	814.51
388.67	716.20
388.86	798.12
389.06	777.06
389.25	880.04
389.45	774.72
389.64	835.57
389.84	919.83
390.03	833.23
390.22	882.38
390.42	816.85
390.61	795.78
390.81	987.71
391.00	854.30
391.19	877.70
391.39	905.79
391.58	973.66
391.78	868.34
391.97	990.05
392.16	905.79
392.36	905.79
392.55	959.62
392.75	1025.15
392.94	1015.79
393.13	959.62
393.33	1022.81
393.52	943.24
393.71	973.66
393.91	987.71
394.10	1001.75
394.29	1041.54
394.49	997.07
394.68	1064.94
394.88	1109.41
395.07	1118.78
395.26	1062.60
395.46	1032.18
395.65	1186.65
395.84	1207.72
396.04	1268.57
396.23	1071.97
396.42	1144.52
396.62	1249.85
396.81	1158.57
397.00	1170.27
397.19	1219.42
397.39	1224.10
397.58	1287.29
397.77	1210.06
397.97	1247.51
398.16	1217.08
398.35	1186.65
398.55	1203.04
398.74	1345.81
398.93	1371.55
399.12	1341.13
399.32	1369.21
399.51	1240.48
399.70	1371.55
399.90	1308.36
400.09	1472.20
400.28	1404.32
400.47	1432.41
400.67	1458.15
400.86	1380.92
401.05	1404.32
401.24	1401.98
401.44	1437.09
401.63	1481.56
401.82	1467.52
402.01	1462.83
402.21	1481.56
402.40	1521.35
402.59	1519.01
402.78	1507.30
402.97	1589.22
403.17	1626.67
403.36	1593.90
403.55	1558.80
403.74	1720.29
403.93	1631.35
404.13	1708.59
404.32	1671.14
404.51	1673.48
404.70	1778.81
404.89	1703.91
405.09	1668.80
405.28	1753.06
405.47	1757.74
405.66	1853.70
405.85	1905.20
406.05	1813.92
406.24	1837.32
406.43	1914.56
406.62	1963.71
406.81	1898.17
407.00	1877.11
407.20	1867.75
407.39	1872.43
407.58	1991.80
407.77	2022.22
407.96	2040.95
408.15	1921.58
408.34	1959.03
408.54	2118.18
408.73	2057.33
408.92	2209.47
409.11	2174.36
409.30	2190.74
409.49	2181.38
409.68	2190.74
409.87	2097.12
410.07	2363.94
410.26	2258.62
410.45	2242.23
410.64	2345.22
410.83	2392.03
411.02	2326.49
411.21	2459.90
411.40	2377.98
411.59	2483.31
411.78	2466.92
411.98	2490.33
412.17	2593.31
412.36	2518.42
412.55	2513.74
412.74	2605.02
412.93	2558.21
413.12	2635.44
413.31	2745.45
413.50	2668.21
413.69	2693.96
413.88	2754.81
414.07	2808.64
414.26	2935.03
414.45	2895.24
414.64	2899.92
414.83	2935.03
415.02	3042.70
415.22	3023.97
415.41	3028.65
415.60	3000.57
415.79	3019.29
415.98	3133.98
416.17	3222.92
416.36	3094.19
416.55	3155.04
416.74	3267.39
416.93	3248.66
417.12	3349.31
417.31	3330.58
417.50	3293.13
417.69	3482.72
417.88	3407.82
418.07	3335.26
418.26	3454.63
418.45	3597.40
418.64	3588.04
418.83	3475.70
419.02	3632.51
419.21	3627.83
419.39	3595.06
419.58	3515.48
419.77	3735.50
419.96	3707.41
420.15	3618.47
420.34	3646.55
420.53	3878.27
420.72	3808.05
420.91	3805.71
421.10	3866.56
421.29	3976.57
421.48	3777.62
421.67	3913.38
421.86	3990.61
422.05	3988.27
422.24	3978.91
422.43	4044.45
422.61	4018.70
422.80	4128.70
422.99	3983.59
423.18	4042.11
423.37	4095.94
423.56	4067.85
423.75	4100.62
423.94	4060.83
424.13	3742.52
424.32	3913.38
424.50	4002.32
424.69	4180.20
424.88	4215.30
425.07	4182.54
425.26	4091.26
425.45	4161.47
425.64	3967.21
425.83	4072.53
426.01	4241.05
426.20	4180.20
426.39	4184.88
426.58	4102.96
426.77	4112.32
426.96	4147.43
427.15	4058.49
427.33	4280.84
427.52	4280.84
427.71	4421.27
427.90	4280.84
428.09	4241.05
428.28	4266.80
428.46	4561.70
428.65	4440.00
428.84	4421.27
429.03	4472.76
429.22	4484.47
429.40	4566.39
429.59	4493.83
429.78	4341.69
429.97	4325.31
430.16	4449.36
430.34	4566.39
430.53	4620.22
430.72	4592.13
430.91	4678.73
431.10	4727.88
431.28	4739.58
431.47	4692.77
431.66	4802.78
431.85	4828.53
432.03	4882.36
432.22	5083.64
432.41	4985.34
432.60	4926.83
432.79	4964.28
432.97	5062.58
433.16	5043.85
433.35	5060.24
433.54	4922.15
433.72	5027.47
433.91	4990.02
434.10	5170.24
434.28	5205.35
434.47	5032.15
434.66	5163.22
434.85	5238.12
435.03	5366.85
435.22	5282.59
435.41	5359.83
435.59	5277.91
435.78	5195.99
435.97	5469.83
436.16	5195.99
436.34	5544.73
436.53	5439.40
436.72	5490.90
436.90	5430.04
437.09	5495.58
437.28	5432.38
437.46	5334.08
437.65	5446.43
437.84	5708.57
438.02	5577.50
438.21	5666.44
438.40	5486.22
438.58	5919.21
438.77	5853.68
438.96	5710.91
439.14	5877.09
439.33	5865.38
439.52	5973.05
439.70	5937.94
439.89	6083.05
440.08	6080.71
440.26	6127.52
440.45	6017.52
440.63	6076.03
440.82	6270.30
441.01	6342.85
441.19	6436.47
441.38	6284.34
441.57	6553.50
441.75	6635.42
441.94	6637.76
442.12	6677.55
442.31	6743.08
442.50	6504.35
442.68	6525.41
442.87	6698.61
443.05	6707.98
443.24	6626.06
443.43	6619.04
443.61	6799.26
443.80	7012.24
443.98	6857.77
444.17	6616.69
444.35	6871.81
444.54	7030.97
444.73	7012.24
444.91	6935.01
445.10	6930.33
445.28	6986.50
445.47	6857.77
445.65	6925.65
445.84	6888.20
446.02	6932.67
446.21	6988.84
446.39	6918.62
446.58	7070.76
446.77	7037.99
446.95	6930.33
447.14	7073.10
447.32	7077.78
447.51	6820.32
447.69	7157.36
447.88	7164.38
448.06	7169.06
448.25	6970.12
448.43	7026.29
448.62	7070.76
448.80	7204.17
448.99	7253.32
449.17	7236.94
449.36	7220.55
449.54	7286.09
449.73	7454.61
449.91	7328.22
450.10	7517.80
450.28	7417.16
450.46	7531.84
450.65	7595.04
450.83	7548.23
451.02	7260.34
451.20	7637.17
451.39	7489.71
451.57	7683.98
451.76	7466.31
451.94	7494.40
452.13	7749.51
452.31	7803.35
452.49	7609.08
452.68	7590.36
452.86	7815.05
453.05	7962.50
453.23	7943.78
453.42	7782.28
453.60	7791.64
453.78	7901.65
453.97	7819.73
454.15	7974.21
454.34	7854.84
454.52	7950.80
454.70	7805.69
454.89	8063.15
455.07	7988.25
455.26	8049.10
455.44	8285.50
455.62	8210.60
455.81	8306.56
455.99	8196.56
456.17	8255.07
456.36	8383.80
456.54	8519.55
456.73	8472.74
456.91	8659.98
457.09	8505.51
457.28	8519.55
457.46	8624.87
457.64	8596.79
457.83	8599.13
458.01	8535.93
458.19	8858.93
458.38	8657.64
458.56	8943.19
458.74	8809.78
458.93	8683.39
459.11	9060.21
459.29	8985.32
459.48	8917.44
459.66	8908.08
459.84	9170.22
460.03	9188.94
460.21	9135.11
460.39	9200.65
460.57	9231.07
460.76	9074.26
460.94	9364.48
461.12	9235.75
461.31	9263.84
461.49	9390.23
461.67	9458.10
461.85	9507.26
462.04	9394.91
462.22	9970.68
462.40	9444.06
462.59	9558.75
462.77	9469.81
462.95	9734.29
463.13	9523.64
463.32	9394.91
463.50	9624.28
463.68	9914.51
463.86	9476.83
464.05	9724.93
464.23	9785.78
464.41	9764.72
464.59	9652.37
464.78	9914.51
464.96	9851.31
465.14	9722.59
465.32	9870.04
465.50	10026.86
465.69	9902.81
465.87	9806.84
466.05	10012.81
466.23	9958.98
466.41	10190.69
466.60	10546.45
466.78	10260.91
466.96	10108.77
467.14	10267.93
467.32	10441.13
467.51	10370.91
467.69	10136.86
467.87	10340.49
468.05	10326.44
468.23	10307.72
468.41	9961.32
468.60	10499.64
468.78	10518.37
468.96	10363.89
469.14	10377.94
469.32	10672.84
469.50	10162.61
469.69	10677.52
469.87	10626.03
470.05	10979.45
470.23	10698.59
470.41	10757.10
470.59	10888.17
470.77	10906.90
470.95	10871.79
471.14	11052.01
471.32	10927.96
471.50	11201.80
471.68	11047.33
471.86	11110.52
472.04	11049.67
472.22	11482.67
472.40	11304.79
472.58	11447.56
472.77	11344.58
472.95	11379.68
473.13	11873.54
473.31	11538.84
473.49	11569.27
473.67	11571.61
473.85	11761.19
474.03	11922.69
474.21	11728.42
474.39	11971.84
474.57	12091.21
474.75	12119.29
474.93	12191.85
475.12	12138.02
475.30	12292.49
475.48	12374.41
475.66	12416.54
475.84	12531.23
476.02	12641.23
476.20	12699.75
476.38	12662.30
476.56	13071.89
476.74	13111.68
476.92	13027.42
477.10	13123.38
477.28	13254.45
477.46	13170.19
477.64	13315.31
477.82	13280.20
478.00	13802.14
478.18	13682.77
478.36	14012.79
478.54	13928.53
478.72	13806.82
478.90	14108.75
479.08	14492.60
479.26	14253.86
479.44	14520.68
479.62	14736.01
479.80	14951.34
479.98	14977.09
480.16	14927.94
480.34	14918.57
480.52	15115.18
480.70	15129.22
480.88	15400.72
481.06	15211.14
481.24	15307.10
481.41	15651.16
481.59	15618.39
481.77	15896.92
481.95	16121.61
482.13	16067.78
482.31	16006.92
482.49	16453.97
482.67	16489.07
482.85	16828.45
483.03	16805.05
483.21	16891.65
483.39	17048.46
483.57	17060.16
483.74	17441.67
483.92	17483.80
484.10	17205.28
484.28	17701.47
484.46	18237.45
484.64	18263.20
484.82	18092.34
485.00	18384.91
485.18	18391.93
485.35	18775.78
485.53	18611.94
485.71	19002.81
485.89	19133.88
486.07	18977.06
486.25	19403.04
486.43	19227.50
486.61	19396.02
486.78	19281.33
486.96	19695.61
487.14	20030.30
487.32	20271.38
487.50	20278.40
487.68	20217.55
487.85	20861.19
488.03	21001.63
488.21	20936.09
488.39	20943.11
488.57	21308.24
488.75	21282.49
488.92	21809.11
489.10	22050.19
489.28	21886.35
489.46	21809.11
489.64	22190.62
489.81	22508.93
489.99	22462.12
490.17	22553.40
490.35	22792.14
490.53	23054.28
490.70	23323.44
490.88	23388.97
491.06	23625.37
491.24	23332.80
491.41	23648.77
491.59	23960.06
491.77	23611.32
491.95	24147.31
492.13	24140.29
492.30	24652.86
492.48	24184.76
492.66	24339.23
492.84	24393.06
493.01	25083.52
493.19	25146.72
493.37	25579.71
493.54	25663.97
493.72	25455.67
493.90	25450.99
494.08	25799.73
494.25	26209.32
494.43	26073.57
494.61	26684.45
494.79	26359.11
494.96	26361.45
495.14	26731.26
495.32	26757.00
495.49	26733.60
495.67	27180.64
495.85	27080.00
496.02	27112.77
496.20	28077.07
496.38	27763.43
496.55	27454.48
496.73	28065.36
496.91	28311.12
497.09	28388.36
497.26	28362.61
497.44	28238.56
497.62	28662.20
497.79	29146.69
497.97	28596.67
498.14	29228.61
498.32	29600.76
498.50	29048.39
498.67	29790.34
498.85	29502.45
499.03	29638.20
499.20	29879.28
499.38	29472.03
499.56	29790.34
499.73	30176.53
499.91	30672.72
500.08	30616.55
500.26	30583.78
500.44	30780.39
500.61	30527.61
500.79	30522.93
500.97	30946.56
501.14	31435.74
501.32	31431.05
501.49	31021.46
501.67	31173.60
501.84	31571.49
502.02	31800.86
502.20	31630.00
502.37	31983.42
502.55	31864.05
502.72	31995.12
502.90	31864.05
503.07	32182.37
503.25	32421.10
503.43	32163.64
503.60	32676.22
503.78	32713.67
503.95	32748.78
504.13	32973.47
504.30	32741.75
504.48	32603.66
504.65	33036.66
504.83	33371.36
505.01	33937.77
505.18	33495.41
505.36	33813.72
505.53	33656.90
505.71	33577.33
505.88	33902.66
506.06	33502.43
506.23	34132.03
506.41	33687.33
506.58	34057.14
506.76	34113.31
506.93	34499.50
507.11	34583.76
507.28	34511.20
507.46	34443.32
507.63	34778.02
507.81	35101.01
507.98	34888.03
508.16	35267.19
508.33	35159.53
508.50	35103.35
508.68	35257.83
508.85	35658.06
509.03	35807.86
509.20	35803.17
509.38	35796.15
509.55	35697.85
509.73	36414.05
509.90	36453.84
510.08	36191.70
510.25	36142.55
510.42	36605.98
510.60	36432.78
510.77	36594.28
510.95	36893.86
511.12	36627.04
511.30	36666.83
511.47	36781.52
511.64	37221.54
511.82	37284.73
511.99	37291.76
512.17	37441.55
512.34	37216.86
512.51	37738.80
512.69	37755.18
512.86	37680.28
513.04	38345.00
513.21	37638.15
513.38	37965.83
513.56	38422.23
513.73	38103.92
513.90	38253.72
514.08	38108.60
514.25	38284.14
514.43	38557.99
514.60	38843.53
514.77	38665.65
514.95	39271.85
515.12	38522.88
515.29	38955.88
515.47	39250.78
515.64	39161.84
515.81	38916.09
515.99	39723.57
516.16	39887.41
516.33	39503.56
516.51	39819.53
516.68	39108.01
516.85	39536.33
517.03	40149.55
517.20	39943.58
517.37	40098.06
517.54	39882.73
517.72	40790.86
517.89	40285.30
518.06	39959.97
518.24	40212.74
518.41	39922.52
518.58	40362.54
518.75	40158.91
518.93	41010.87
519.10	40533.40
519.27	40800.22
519.45	40851.71
519.62	41013.21
519.79	41289.39
519.96	41244.92
520.14	41525.78
520.31	41167.68
520.48	41542.17
520.65	41855.80
520.83	41673.24
521.00	42000.91
521.17	41581.96
521.34	41757.50
521.52	41942.40
521.69	41806.65
521.86	41794.95
522.03	42429.23
522.20	42539.24
522.38	42258.37
522.55	42373.06
522.72	42590.73
522.89	42560.30
523.07	42794.36
523.24	43000.32
523.41	42927.77
523.58	42583.71
523.75	42850.53
523.92	42986.28
524.10	42866.91
524.27	42855.21
524.44	43676.74
524.61	43393.53
524.78	43430.98
524.96	43929.51
525.13	43337.36
525.30	43917.81
525.47	44065.27
525.64	43641.63
525.81	43400.55
525.98	43878.02
526.16	44055.90
526.33	44212.72
526.50	43962.28
526.67	43613.54
526.84	44535.71
527.01	44072.29
527.18	44292.30
527.36	44994.46
527.53	44257.19
527.70	45057.65
527.87	44832.96
528.04	44680.83
528.21	44612.95
528.38	44229.10
528.55	44753.38
528.72	44900.84
528.89	45237.87
529.07	45404.05
529.24	45240.21
529.41	44891.48
529.58	44734.66
529.75	45200.43
529.92	45059.99
530.09	45350.22
530.26	45057.65
530.43	45385.33
530.60	45560.87
530.77	45663.85
530.94	45530.44
531.11	45734.07
531.28	45736.41
531.46	45490.65
531.63	46141.32
531.80	46050.04
531.97	46307.50
532.14	46330.90
532.31	46284.09
532.48	45883.86
532.65	46164.73
532.82	45841.73
532.99	46363.67
533.16	46157.70
533.33	46272.39
533.50	46714.75
533.67	46391.76
533.84	46263.03
534.01	46693.69
534.18	46377.72
534.35	47002.64
534.52	46639.86
534.69	47112.64
534.86	46897.31
535.03	46763.90
535.20	47075.19
535.37	46852.84
535.54	46990.94
535.71	46726.46
535.88	47037.75
536.05	47100.94
536.22	47398.19
536.38	47203.92
536.55	47445.00
536.72	47510.53
536.89	47398.19
537.06	47454.36
537.23	47601.82
537.40	47049.45
537.57	47292.86
537.74	47618.20
537.91	47952.90
538.08	47566.71
538.25	47611.18
538.42	47503.51
538.59	47908.43
538.75	47491.81
538.92	48002.05
539.09	48236.10
539.26	48074.60
539.43	48011.41
539.60	48198.65
539.77	48423.34
539.94	48353.13
540.11	48491.22
540.28	47959.92
540.44	48549.73
540.61	48088.65
540.78	48474.84
540.95	48582.50
541.12	48238.44
541.29	48816.55
541.46	48594.20
541.62	48226.74
541.79	48413.98
541.96	48505.26
542.13	48416.32
542.30	48559.09
542.47	49036.56
542.63	49249.55
542.80	49006.14
542.97	49179.34
543.14	49272.96
543.31	49017.84
543.48	48854.00
543.64	49429.77
543.81	49551.48
543.98	49684.89
544.15	49354.88
544.32	49614.68
544.48	49792.56
544.65	49642.76
544.82	49481.27
544.99	49200.40
545.16	49539.78
545.32	49411.05
545.49	49801.92
545.66	50141.30
545.83	50347.26
546.00	50024.27
546.16	49844.05
546.33	49598.29
546.50	49881.50
546.67	49530.42
546.83	49858.09
547.00	50094.49
547.17	49670.85
547.34	49879.16
547.50	49993.84
547.67	50136.62
547.84	50124.91
548.00	50174.06
548.17	50293.43
548.34	50136.62
548.51	50419.82
548.67	50534.51
548.84	50677.28
549.01	50424.50
549.18	50518.12
549.34	50543.87
549.51	50611.74
549.68	50316.84
549.84	50431.52
550.01	50375.35
550.18	50368.33
550.34	50621.11
550.51	50930.06
550.68	50918.35
550.84	50312.16
551.01	50974.53
551.18	50511.10
551.34	50365.99
551.51	50707.71
551.68	50845.80
551.84	50941.76
552.01	50518.12
552.18	50955.80
552.34	50791.97
552.51	51243.69
552.68	50761.54
552.84	50719.41
553.01	51014.32
553.18	51030.70
553.34	51224.96
553.51	51091.55
553.67	50869.20
553.84	51391.14
554.01	51344.33
554.17	51423.91
554.34	51112.62
554.51	50719.41
554.67	51374.76
554.84	51419.23
555.00	51353.69
555.17	51358.38
555.33	51229.65
555.50	51430.93
555.67	51370.08
555.83	51393.48
556.00	51407.53
556.16	51697.75
556.33	51505.83
556.50	51459.02
556.66	51475.40
556.83	51702.43
556.99	51751.59
557.16	51927.13
557.32	51859.25
557.49	51941.17
557.65	51711.80
557.82	51180.49
557.98	51421.57
558.15	51695.41
558.32	51782.01
558.48	51533.92
558.65	51976.28
558.81	51922.44
558.98	51873.29
559.14	51760.95
559.31	51826.48
559.47	51721.16
559.64	51767.97
559.80	51917.76
559.97	52191.61
560.13	51358.38
560.30	51976.28
560.46	52105.01
560.63	51618.17
560.79	51992.66
560.96	52327.36
561.12	51941.17
561.29	52147.14
561.45	52147.14
561.61	52257.14
561.78	52266.50
561.94	52126.07
562.11	52292.25
562.27	52037.13
562.44	52184.58
562.60	51896.70
562.77	52144.80
562.93	51950.53
563.10	52147.14
563.26	51835.84
563.42	52268.84
563.59	52240.76
563.75	52004.36
563.92	52395.23
564.08	51880.31
564.24	52229.05
564.41	52093.30
564.57	52264.16
564.74	52203.31
564.90	52011.38
565.07	52533.32
565.23	52236.08
565.39	52285.23
565.56	52261.82
565.72	52215.01
565.88	52456.09
566.05	52133.09
566.21	52280.55
566.38	52083.94
566.54	52243.10
566.70	52491.19
566.87	52924.19
567.03	52310.97
567.19	52706.52
567.36	52587.16
567.52	51976.28
567.68	52479.49
567.85	52083.94
568.01	52622.26
568.17	52549.71
568.34	52449.06
568.50	52395.23
568.66	52495.88
568.83	52652.69
568.99	52168.20
569.15	52191.61
569.32	52186.92
569.48	52308.63
569.64	52460.77
569.81	52287.57
569.97	52317.99
570.13	52676.10
570.30	52074.58
570.46	52329.70
570.62	52559.07
570.78	52390.55
570.95	52446.72
571.11	52523.96
571.27	52114.37
571.43	52486.51
571.60	52755.68
571.76	52500.56
571.92	52849.30
572.09	52664.39
572.25	52521.62
572.41	52746.31
572.57	52790.78
572.74	52678.44
572.90	52325.02
573.06	52535.66
573.22	52416.30
573.38	52638.65
573.55	52610.56
573.71	52945.26
573.87	52720.57
574.03	52640.99
574.20	52648.01
574.36	52456.09
574.52	52605.88
574.68	52385.87
574.84	52486.51
575.01	52760.36
575.17	52547.37
575.33	52545.03
575.49	52662.05
575.65	52945.26
575.82	52736.95
575.98	52498.22
576.14	52743.97
576.30	52736.95
576.46	52346.08
576.62	52374.17
576.79	52392.89
576.95	52498.22
577.11	52861.00
577.27	52418.64
577.43	52619.92
577.59	52671.42
577.75	52683.12
577.92	52453.75
578.08	52336.72
578.24	52673.76
578.40	52587.16
578.56	52816.53
578.72	52509.92
578.88	53010.79
579.04	52870.36
579.21	52535.66
579.37	52704.18
579.53	52481.83
579.69	52575.45
579.85	52369.49
580.01	52893.77
580.17	52655.03
580.33	52690.14
580.49	52617.58
580.65	52573.11
580.82	52823.55
580.98	52788.44
581.14	52631.63
581.30	53001.43
581.46	52554.39
581.62	52552.05
581.78	52680.78
581.94	52809.51
582.10	52659.71
582.26	52601.20
582.42	52554.39
582.58	53022.50
582.74	52666.73
582.90	52832.91
583.06	52748.65
583.22	52502.90
583.38	52332.04
583.54	52896.11
583.70	52589.50
583.86	52903.13
584.02	52514.60
584.18	52699.50
584.34	52678.44
584.50	52750.99
584.66	53013.13
584.82	52846.96
584.98	52762.70
585.14	52631.63
585.30	52645.67
585.46	52711.20
585.62	52514.60
585.78	52640.99
585.94	52587.16
586.10	52666.73
586.26	52680.78
586.42	52760.36
586.58	52739.29
586.74	52729.93
586.90	52437.36
587.06	52640.99
587.22	52339.06
587.38	52479.49
587.54	52858.66
587.70	52898.45
587.86	53198.04
588.02	53045.90
588.18	52863.34
588.34	52992.07
588.49	52655.03
588.65	52652.69
588.81	52935.90
588.97	52587.16
589.13	52790.78
589.29	52706.52
589.45	52982.71
589.61	52853.98
589.77	53237.83
589.93	53134.84
590.08	53162.93
