SpectraSuite Data File
++++++++++++++++++++++++++++++++++++
Date: Fri Oct 18 13:54:15 GMT-05:00 2013
User: bianchi
Dark Spectrum Present: No
Reference Spectrum Present: No
Number of Sampled Component Spectra: 1
Spectrometers: USB2+H05261
Integration Time (usec): 100000 (USB2+H05261)
Spectra Averaged: 1 (USB2+H05261)
Boxcar Smoothing: 0 (USB2+H05261)
Correct for Electrical Dark: No (USB2+H05261)
Strobe/Lamp Enabled: No (USB2+H05261)
Correct for Detector Non-linearity: No (USB2+H05261)
Correct for Stray Light: No (USB2+H05261)
Number of Pixels in Processed Spectrum: 2048
>>>>>Begin Processed Spectral Data<<<<<
365.73	0.00
365.92	0.00
366.12	0.00
366.32	0.00
366.52	0.00
366.72	0.00
366.91	0.00
367.11	0.00
367.31	0.00
367.51	0.00
367.70	0.00
367.90	0.00
368.10	0.00
368.30	0.00
368.49	0.00
368.69	0.00
368.89	0.00
369.09	0.00
369.28	0.00
369.48	0.00
369.68	0.00
369.87	0.00
370.07	0.00
370.27	0.00
370.47	9.36
370.66	245.76
370.86	264.48
371.06	215.33
371.25	369.80
371.45	301.93
371.65	425.98
371.84	271.50
372.04	351.08
372.24	341.72
372.44	390.87
372.63	383.85
372.83	440.02
373.03	365.12
373.22	337.04
373.42	449.38
373.62	461.09
373.81	498.53
374.01	545.34
374.21	503.22
374.40	500.87
374.60	533.64
374.79	418.96
374.99	486.83
375.19	512.58
375.38	507.90
375.58	449.38
375.78	510.24
375.97	594.50
376.17	521.94
376.37	521.94
376.56	477.47
376.76	512.58
376.95	503.22
377.15	585.13
377.35	589.82
377.54	564.07
377.74	582.79
377.93	538.32
378.13	538.32
378.33	545.34
378.52	585.13
378.72	557.05
378.91	550.03
379.11	622.58
379.31	585.13
379.50	575.77
379.70	620.24
379.89	624.92
380.09	601.52
380.28	573.43
380.48	575.77
380.68	674.07
380.87	608.54
381.07	603.86
381.26	645.99
381.46	662.37
381.65	674.07
381.85	627.26
382.04	751.31
382.24	720.88
382.43	662.37
382.63	655.35
382.83	746.63
383.02	739.61
383.22	723.23
383.41	851.96
383.61	720.88
383.80	709.18
384.00	770.04
384.19	753.65
384.39	819.19
384.58	786.42
384.78	765.36
384.97	800.46
385.17	821.53
385.36	807.48
385.56	758.33
385.75	770.04
385.95	744.29
386.14	910.47
386.34	744.29
386.53	823.87
386.72	837.91
386.92	875.36
387.11	816.85
387.31	830.89
387.50	798.12
387.70	947.92
387.89	741.95
388.09	919.83
388.28	877.70
388.48	929.19
388.67	980.68
388.86	978.34
389.06	915.15
389.25	1053.24
389.45	987.71
389.64	940.90
389.84	971.32
390.03	980.68
390.22	978.34
390.42	1006.43
390.61	990.05
390.81	994.73
391.00	1041.54
391.19	1116.44
391.39	1125.80
391.58	1095.37
391.78	1090.69
391.97	1015.79
392.16	980.68
392.36	1151.54
392.55	1018.13
392.75	1228.78
392.94	1210.06
393.13	1193.67
393.33	1174.95
393.52	1149.20
393.71	1132.82
393.91	1233.46
394.10	1128.14
394.29	1114.10
394.49	1181.97
394.68	1247.51
394.88	1224.10
395.07	1336.45
395.26	1238.14
395.46	1219.42
395.65	1203.04
395.84	1203.04
396.04	1329.42
396.23	1266.23
396.42	1336.45
396.62	1401.98
396.81	1427.73
397.00	1385.60
397.19	1380.92
397.39	1352.83
397.58	1458.15
397.77	1453.47
397.97	1465.18
398.16	1385.60
398.35	1526.03
398.55	1451.13
398.74	1378.58
398.93	1547.09
399.12	1406.66
399.32	1537.73
399.51	1455.81
399.70	1554.12
399.90	1603.27
400.09	1612.63
400.28	1619.65
400.47	1612.63
400.67	1678.16
400.86	1629.01
401.05	1640.72
401.24	1638.38
401.44	1694.55
401.63	1757.74
401.82	1650.08
402.01	1706.25
402.21	1694.55
402.40	1764.76
402.59	1811.57
402.78	1832.64
402.97	1834.98
403.17	1872.43
403.36	1902.86
403.55	1743.70
403.74	1813.92
403.93	1930.94
404.13	1987.11
404.32	1919.24
404.51	1954.35
404.70	2005.84
404.89	1907.54
405.09	2120.53
405.28	2010.52
405.47	1935.62
405.66	2036.27
405.85	1991.80
406.05	2045.63
406.24	2108.82
406.43	2125.21
406.62	2160.31
406.81	2242.23
407.00	2162.66
407.20	2221.17
407.39	2193.08
407.58	2275.00
407.77	2352.24
407.96	2342.88
408.15	2249.25
408.34	2251.60
408.54	2406.07
408.73	2272.66
408.92	2443.52
409.11	2338.20
409.30	2455.22
409.49	2469.27
409.68	2487.99
409.87	2513.74
410.07	2499.69
410.26	2621.40
410.45	2483.31
410.64	2612.04
410.83	2717.36
411.02	2612.04
411.21	2736.09
411.40	2761.83
411.59	2799.28
411.78	2614.38
411.98	2698.64
412.17	2923.33
412.36	2888.22
412.55	2717.36
412.74	2930.35
412.93	2820.35
413.12	2745.45
413.31	3040.36
413.50	2946.73
413.69	2986.52
413.88	3133.98
414.07	3197.17
414.26	3075.46
414.45	3297.81
414.64	3304.84
414.83	3358.67
415.02	3295.47
415.22	3335.26
415.41	3447.61
415.60	3442.93
415.79	3440.59
415.98	3433.57
416.17	3513.14
416.36	3538.89
416.55	3662.94
416.74	3566.98
416.93	3592.72
417.12	3559.95
417.31	3801.03
417.50	3723.79
417.69	3779.97
417.88	3693.37
418.07	3859.54
418.26	3721.45
418.45	3915.72
418.64	3997.64
418.83	3948.48
419.02	3904.01
419.21	4109.98
419.39	4100.62
419.58	4072.53
419.77	4032.74
419.96	4133.39
420.15	4135.73
420.34	4039.76
420.53	4198.92
420.72	4255.09
420.91	4238.71
421.10	4341.69
421.29	4304.25
421.48	4285.52
421.67	4360.42
421.86	4224.67
422.05	4444.68
422.24	4339.35
422.43	4262.12
422.61	4348.72
422.80	4430.63
422.99	4484.47
423.18	4425.95
423.37	4437.66
423.56	4552.34
423.75	4498.51
423.94	4461.06
424.13	4205.94
424.32	4252.75
424.50	4662.35
424.69	4669.37
424.88	4641.28
425.07	4517.23
425.26	4404.89
425.45	4564.04
425.64	4564.04
425.83	4578.09
426.01	4676.39
426.20	4620.22
426.39	4585.11
426.58	4514.89
426.77	4592.13
426.96	4655.33
427.15	4695.11
427.33	4762.99
427.52	4603.83
427.71	4744.27
427.90	4791.08
428.09	4816.82
428.28	4814.48
428.46	5011.09
428.65	4868.31
428.84	5039.17
429.03	5125.77
429.22	4940.87
429.40	5064.92
429.59	5125.77
429.78	4875.34
429.97	4854.27
430.16	4795.76
430.34	5064.92
430.53	5109.39
430.72	5205.35
430.91	5177.26
431.10	5177.26
431.28	5193.65
431.47	5313.02
431.66	5504.94
431.85	5371.53
432.03	5535.37
432.22	5413.66
432.41	5397.28
432.60	5528.35
432.79	5338.76
432.97	5430.04
433.16	5610.26
433.35	5427.70
433.54	5633.67
433.72	5738.99
433.91	5533.03
434.10	5596.22
434.28	5481.53
434.47	5621.97
434.66	5757.72
434.85	5809.21
435.03	5776.44
435.22	5858.36
435.41	6001.13
435.59	5816.23
435.78	5928.58
435.97	5961.34
436.16	5832.62
436.34	5975.39
436.53	5877.09
436.72	6279.66
436.90	5837.30
437.09	6153.27
437.28	6069.01
437.46	5867.72
437.65	6085.39
437.84	6324.13
438.02	6349.87
438.21	6132.20
438.40	6408.39
438.58	6380.30
438.77	6410.73
438.96	6370.94
439.14	6539.46
439.33	6551.16
439.52	6698.61
439.70	6581.59
439.89	6693.93
440.08	6586.27
440.26	6604.99
440.45	6909.26
440.63	6899.90
440.82	6857.77
441.01	6834.36
441.19	6822.66
441.38	7143.32
441.57	7157.36
441.75	7059.06
441.94	7302.47
442.12	7302.47
442.31	7456.95
442.50	7276.73
442.68	7337.58
442.87	7389.07
443.05	7609.08
443.24	7573.97
443.43	7524.82
443.61	7581.00
443.80	7854.84
443.98	7400.77
444.17	7255.66
444.35	7552.91
444.54	7599.72
444.73	7747.17
444.91	7702.70
445.10	7672.28
445.28	7789.30
445.47	7653.55
445.65	7632.49
445.84	7929.74
446.02	7681.64
446.21	7754.19
446.39	7740.15
446.58	7770.58
446.77	7730.79
446.95	7770.58
447.14	7740.15
447.32	7854.84
447.51	7641.85
447.69	7770.58
447.88	7850.16
448.06	7847.82
448.25	7808.03
448.43	7789.30
448.62	7829.09
448.80	7892.29
448.99	7946.12
449.17	8131.02
449.36	7953.14
449.54	8119.32
449.73	8278.47
449.91	8311.24
450.10	8367.42
450.28	8311.24
450.46	8514.87
450.65	8355.71
450.83	8486.78
451.02	8407.20
451.20	8545.30
451.39	8484.44
451.57	8606.15
451.76	8271.45
451.94	8238.69
452.13	8655.30
452.31	8744.24
452.49	8603.81
452.68	8779.35
452.86	8638.92
453.05	8664.66
453.23	8791.05
453.42	8468.06
453.60	8910.42
453.78	8727.86
453.97	8659.98
454.15	8580.40
454.34	8774.67
454.52	8863.61
454.70	8767.65
454.89	8952.55
455.07	9053.19
455.26	9188.94
455.44	9149.15
455.62	9104.68
455.81	9254.48
455.99	9242.78
456.17	9277.88
456.36	9350.44
456.54	9341.08
456.73	9490.87
456.91	9635.99
457.09	9598.54
457.28	9783.44
457.46	9514.28
457.64	9846.63
457.83	9741.31
458.01	9521.30
458.19	9891.10
458.38	9675.77
458.56	9795.14
458.74	9975.36
458.93	9853.66
459.11	9867.70
459.29	9867.70
459.48	10162.61
459.66	9841.95
459.84	10237.50
460.03	10223.46
460.21	10066.64
460.39	10036.22
460.57	10024.51
460.76	10162.61
460.94	10298.36
461.12	10450.49
461.31	10321.76
461.49	10373.25
461.67	10249.21
461.85	10684.55
462.04	10443.47
462.22	11239.25
462.40	10579.22
462.59	10487.94
462.77	10803.91
462.95	10703.27
463.13	10827.32
463.32	10717.31
463.50	10925.62
463.68	10691.57
463.86	10754.76
464.05	10806.25
464.23	10635.39
464.41	10981.79
464.59	10871.79
464.78	11295.43
464.96	10869.45
465.14	10827.32
465.32	10977.11
465.50	11199.46
465.69	11108.18
465.87	11145.63
466.05	11190.10
466.23	11187.76
466.41	11276.70
466.60	11377.34
466.78	11316.49
466.96	11293.08
467.14	11412.45
467.32	11290.74
467.51	11534.16
467.69	11609.06
467.87	11344.58
468.05	11580.97
468.23	11452.24
468.41	11602.04
468.60	11431.18
468.78	11742.47
468.96	11569.27
469.14	11559.91
469.32	12131.00
469.50	11756.51
469.69	12039.72
469.87	11885.24
470.05	12194.19
470.23	11946.09
470.41	11847.79
470.59	12149.72
470.77	11922.69
470.95	12175.47
471.14	12343.99
471.32	11955.46
471.50	12561.66
471.68	12498.46
471.86	12451.65
472.04	12489.10
472.22	12999.34
472.40	12582.72
472.58	12648.26
472.77	12650.60
472.95	13121.04
473.13	13158.49
473.31	12950.18
473.49	12812.09
473.67	12879.97
473.85	13109.34
474.03	13338.71
474.21	13378.50
474.39	13591.49
474.57	13642.98
474.75	13839.59
474.93	13841.93
475.12	13647.66
475.30	13884.06
475.48	13867.67
475.66	13958.96
475.84	13970.66
476.02	14363.87
476.20	14211.73
476.38	14307.69
476.56	14712.61
476.74	14508.98
476.92	14324.08
477.10	14569.83
477.28	14890.49
477.46	14768.78
477.64	15014.54
477.82	14775.80
478.00	15475.62
478.18	15611.37
478.36	15676.91
478.54	15634.78
478.72	15676.91
478.90	15868.83
479.08	16060.76
479.26	16334.60
479.44	16294.81
479.62	16439.92
479.80	16505.46
479.98	16563.97
480.16	16664.61
480.34	16865.90
480.52	17011.01
480.70	16924.41
480.88	16982.93
481.06	17336.35
481.24	17380.82
481.41	17355.07
481.59	17495.50
481.77	18057.23
481.95	17977.65
482.13	18026.81
482.31	18197.67
482.49	18464.49
482.67	18410.65
482.85	18567.47
483.03	18836.63
483.21	19164.31
483.39	19028.56
483.57	19117.50
483.74	19307.08
483.92	19730.72
484.10	19632.41
484.28	20079.46
484.46	20060.73
484.64	20477.35
484.82	20247.97
485.00	20531.18
485.18	20622.46
485.35	21055.46
485.53	20985.24
485.71	21296.53
485.89	21556.33
486.07	21474.42
486.25	21755.28
486.43	21947.20
486.61	21703.79
486.78	22202.32
486.96	22038.48
487.14	22342.75
487.32	22761.71
487.50	22665.75
487.68	22850.65
487.85	23489.62
488.03	23510.68
488.21	23749.42
488.39	23889.85
488.57	23810.27
488.75	24126.24
488.92	24341.57
489.10	24442.21
489.28	24673.93
489.46	24790.95
489.64	25008.62
489.81	25418.22
489.99	25525.88
490.17	25518.86
490.35	25825.47
490.53	25759.94
490.70	25921.43
490.88	26192.94
491.06	26113.36
491.24	26024.42
491.41	26417.63
491.59	26541.68
491.77	26656.36
491.95	27108.08
492.13	27225.11
492.30	27285.97
492.48	27583.21
492.66	27510.66
492.84	27885.14
493.01	28023.23
493.19	28458.57
493.37	28669.22
493.54	28573.26
493.72	28474.96
493.90	28816.68
494.08	29092.86
494.25	29198.18
494.43	29509.47
494.61	29682.67
494.79	29809.06
494.96	29607.78
495.14	30228.02
495.32	30260.79
495.49	30080.56
495.67	30228.02
495.85	30649.32
496.02	31051.89
496.20	31021.46
496.38	31007.42
496.55	30862.30
496.73	31716.60
496.91	31604.25
497.09	32339.18
497.26	31868.73
497.44	31501.27
497.62	32301.73
497.79	32472.59
497.97	32673.88
498.14	32608.34
498.32	32957.08
498.50	33354.97
498.67	33432.21
498.85	32940.70
499.03	33565.62
499.20	33542.22
499.38	33333.91
499.56	33970.54
499.73	34155.44
499.91	33970.54
500.08	34433.96
500.26	33802.02
500.44	34382.47
500.61	34504.18
500.79	34448.00
500.97	35283.58
501.14	35374.86
501.32	35519.97
501.49	35093.99
501.67	35526.99
501.84	35180.59
502.02	35395.92
502.20	35669.76
502.37	36215.11
502.55	36203.41
502.72	36060.63
502.90	35798.49
503.07	35571.46
503.25	36467.89
503.43	35716.58
503.60	36535.76
503.78	36727.69
503.95	36849.39
504.13	36495.97
504.30	36882.16
504.48	36940.68
504.65	37069.40
504.83	37694.33
505.01	37991.58
505.18	37226.22
505.36	37930.72
505.53	37670.92
505.71	37830.08
505.88	37914.34
506.06	37855.82
506.23	38167.12
506.41	38218.61
506.58	38527.56
506.76	38199.88
506.93	38670.33
507.11	38607.14
507.28	38876.30
507.46	38789.70
507.63	39426.32
507.81	39400.58
507.98	39000.35
508.16	39285.89
508.33	39377.17
508.50	39667.40
508.68	39791.45
508.85	40268.92
509.03	39990.39
509.20	40224.45
509.38	40549.78
509.55	40456.16
509.73	40034.86
509.90	40870.43
510.08	40692.55
510.25	40645.74
510.42	40921.93
510.60	41516.42
510.77	40940.65
510.95	41347.90
511.12	40968.74
511.30	41230.88
511.47	41839.42
511.64	41184.07
511.82	41890.91
511.99	41687.28
512.17	41949.42
512.34	41956.44
512.51	42183.48
512.69	42300.50
512.86	42445.62
513.04	42616.47
513.21	42513.49
513.38	42972.24
513.56	42754.57
513.73	42986.28
513.90	42871.59
514.08	42223.26
514.25	43405.23
514.43	43351.40
514.60	43730.57
514.77	43641.63
514.95	43650.99
515.12	43285.87
515.29	43309.27
515.47	44102.71
515.64	43770.36
515.81	43789.08
515.99	44456.14
516.16	44474.86
516.33	44760.40
516.51	44055.90
516.68	44397.62
516.85	44481.88
517.03	44514.65
517.20	44779.13
517.37	44650.40
517.54	45399.37
517.72	44971.05
517.89	45088.08
518.06	44994.46
518.24	44957.01
518.41	45474.27
518.58	45287.03
518.75	45345.54
518.93	45764.49
519.10	45591.30
519.27	45425.12
519.45	45549.17
519.62	46143.66
519.79	45703.64
519.96	45745.77
520.14	46263.03
520.31	46192.81
520.48	46244.30
520.65	46335.59
520.83	46302.82
521.00	46199.83
521.17	46356.65
521.34	46553.26
521.52	46366.01
521.69	46864.55
521.86	47224.99
522.03	47302.23
522.20	47152.43
522.38	47578.41
522.55	47122.01
522.72	47435.64
522.89	47131.37
523.07	47672.03
523.24	47402.87
523.41	47655.65
523.58	47512.88
523.75	47854.59
523.92	47185.20
524.10	47667.35
524.27	47934.17
524.44	48243.12
524.61	48128.44
524.78	48341.42
524.96	48247.80
525.13	48369.51
525.30	48413.98
525.47	48467.81
525.64	48119.07
525.81	48945.28
525.98	48992.09
526.16	48851.66
526.33	48484.20
526.50	49160.61
526.67	48917.20
526.84	48783.79
527.01	48790.81
527.18	49169.97
527.36	49193.38
527.53	49490.63
527.70	49815.96
527.87	49804.26
528.04	49591.27
528.21	49689.57
528.38	49294.02
528.55	49801.92
528.72	49270.62
528.89	49932.99
529.07	49783.19
529.24	49881.50
529.41	50277.05
529.58	50024.27
529.75	49626.38
529.92	50080.44
530.09	50454.93
530.26	50052.36
530.43	50279.39
530.60	49991.50
530.77	50277.05
530.94	50373.01
531.11	50206.83
531.28	50333.22
531.46	50286.41
531.63	50581.32
531.80	50686.64
531.97	50761.54
532.14	50571.96
532.31	50464.29
532.48	50717.07
532.65	50974.53
532.82	50454.93
532.99	50761.54
533.16	50878.57
533.33	50911.33
533.50	51547.96
533.67	51150.07
533.84	51037.72
534.01	51171.13
534.18	51063.47
534.35	51557.32
534.52	51229.65
534.69	51882.66
534.86	51779.67
535.03	51508.17
535.20	51512.85
535.37	51517.53
535.54	51779.67
535.71	51400.50
535.88	51484.76
536.05	51725.84
536.22	51992.66
536.38	51838.18
536.55	52222.03
536.72	51985.64
536.89	52252.46
537.06	51798.40
537.23	51695.41
537.40	51971.60
537.57	52011.38
537.74	52027.77
537.91	52507.58
538.08	52189.27
538.25	51936.49
538.42	52364.81
538.59	52317.99
538.75	52172.88
538.92	52224.37
539.09	52629.29
539.26	52556.73
539.43	52308.63
539.60	52215.01
539.77	52594.18
539.94	52884.40
540.11	52889.09
540.28	52624.60
540.44	52706.52
540.61	52512.26
540.78	52587.16
540.95	52931.22
541.12	53041.22
541.29	52563.75
541.46	52779.08
541.62	52830.57
541.79	52919.51
541.96	52807.17
542.13	52720.57
542.30	53333.79
542.47	53415.71
542.63	53645.08
542.80	53165.27
542.97	53715.29
543.14	53602.95
543.31	53406.34
543.48	53235.48
543.64	53488.26
543.81	53743.38
543.98	53921.26
544.15	53820.62
544.32	53682.53
544.48	53904.88
544.65	53389.96
544.82	54059.35
544.99	53467.20
545.16	53766.79
545.32	53785.51
545.49	54028.93
545.66	54223.19
545.83	54174.04
546.00	54305.11
546.16	54185.74
546.33	53900.20
546.50	53659.12
546.67	53993.82
546.83	53876.79
547.00	54197.44
547.17	54167.02
547.34	54452.56
547.50	54206.81
547.67	54227.87
547.84	54422.14
548.00	54438.52
548.17	54347.24
548.34	54412.77
548.51	54550.87
548.67	54370.64
548.84	54700.66
549.01	54293.41
549.18	54506.40
549.34	54525.12
549.51	54468.95
549.68	54555.55
549.84	54719.38
550.01	54520.44
550.18	54670.23
550.34	54693.64
550.51	54714.70
550.68	54632.78
550.84	54752.15
551.01	55018.97
551.18	54990.89
551.34	54646.83
551.51	54791.94
551.68	54876.20
551.84	54499.37
552.01	55023.65
552.18	55182.81
552.34	54972.16
552.51	55157.06
552.68	54611.72
552.84	54887.90
553.01	55072.81
553.18	55257.71
553.34	54988.55
553.51	54887.90
553.67	55386.44
553.84	55400.48
554.01	55341.97
554.17	55112.59
554.34	55407.50
554.51	55318.56
554.67	55220.26
554.84	55093.87
555.00	55358.35
555.17	55199.19
555.33	55646.24
555.50	55157.06
555.67	55374.73
555.83	55444.95
556.00	55517.51
556.16	55594.74
556.33	55154.72
556.50	55353.67
556.66	55781.99
556.83	55547.93
556.99	55889.65
557.16	55849.86
557.32	55838.16
557.49	55810.07
557.65	55566.66
557.82	55395.80
557.98	55798.37
558.15	55739.86
558.32	55718.79
558.48	55552.62
558.65	55950.51
558.81	55798.37
558.98	55688.37
559.14	55866.25
559.31	55625.17
559.47	55730.50
559.64	55915.40
559.80	55936.46
559.97	55943.48
560.13	55622.83
560.30	55870.93
560.46	55859.23
560.63	56027.74
560.79	56016.04
560.96	55913.06
561.12	55966.89
561.29	55814.76
561.45	56055.83
561.61	56013.70
561.78	56303.93
561.94	55899.01
562.11	56186.90
562.27	56116.68
562.44	55908.38
562.60	56011.36
562.77	56299.25
562.93	55927.10
563.10	56437.34
563.26	55812.41
563.42	56453.72
563.59	56051.15
563.75	56308.61
563.92	56353.08
564.08	56287.54
564.24	56002.00
564.41	55957.53
564.57	55943.48
564.74	56121.37
564.90	56399.89
565.07	56409.25
565.23	56484.15
565.39	56097.96
565.56	56191.58
565.72	56214.99
565.88	56334.35
566.05	55913.06
566.21	56147.11
566.38	56388.19
566.54	56287.54
566.70	56147.11
566.87	56470.11
567.03	56388.19
567.19	56561.39
567.36	56324.99
567.52	56088.60
567.68	56072.21
567.85	56186.90
568.01	56207.97
568.17	56268.82
568.34	56636.28
568.50	56369.46
568.66	56388.19
568.83	56615.22
568.99	56161.15
569.15	56425.64
569.32	56322.65
569.48	56226.69
569.64	56385.85
569.81	56449.04
569.97	56449.04
570.13	56390.53
570.30	56683.09
570.46	56341.38
570.62	56449.04
570.78	56346.06
570.95	56493.51
571.11	56863.32
571.27	56287.54
571.43	56278.18
571.60	56474.79
571.76	56662.03
571.92	56479.47
572.09	56430.32
572.25	56823.53
572.41	56643.30
572.57	56332.01
572.74	56573.09
572.90	56516.92
573.06	56446.70
573.22	56446.70
573.38	56662.03
573.55	56488.83
573.71	56842.25
573.87	56619.90
574.03	56655.01
574.20	56676.07
574.36	56488.83
574.52	56296.91
574.68	56465.42
574.84	56432.66
575.01	56645.65
575.17	56781.40
575.33	56458.40
575.49	56589.47
575.65	56884.38
575.82	56432.66
575.98	56629.26
576.14	56629.26
576.30	56734.59
576.46	56566.07
576.62	56355.42
576.79	56715.86
576.95	56423.29
577.11	56568.41
577.27	56559.05
577.43	56596.49
577.59	56336.69
577.75	56736.93
577.92	56261.80
578.08	56495.85
578.24	56535.64
578.40	56596.49
578.56	56626.92
578.72	56697.14
578.88	56741.61
579.04	57003.75
579.21	56797.78
579.37	56659.69
579.53	56788.42
579.69	56519.26
579.85	56704.16
580.01	56870.34
580.17	56528.62
580.33	56491.17
580.49	56643.30
580.65	57095.03
580.82	56615.22
580.98	56666.71
581.14	56734.59
581.30	56994.39
581.46	56507.55
581.62	56666.71
581.78	56566.07
581.94	56603.52
582.10	56420.95
582.26	56713.52
582.42	56844.59
582.58	56970.98
582.74	56837.57
582.90	56825.87
583.06	56935.87
583.22	56624.58
583.38	56797.78
583.54	56669.05
583.70	56638.62
583.86	56612.88
584.02	56601.18
584.18	56523.94
584.34	56821.19
584.50	56963.96
584.66	56776.72
584.82	56622.24
584.98	56743.95
585.14	56353.08
585.30	56591.81
585.46	56463.08
585.62	56559.05
585.78	56671.39
585.94	56638.62
586.10	56750.97
586.26	56935.87
586.42	56898.42
586.58	56886.72
586.74	56540.32
586.90	56809.48
587.06	56495.85
587.22	56886.72
587.38	56673.73
587.54	56924.17
587.70	56860.97
587.86	57017.79
588.02	56989.70
588.18	57034.17
588.34	56835.23
588.49	56788.42
588.65	56900.76
588.81	56886.72
588.97	56940.55
589.13	56734.59
589.29	56910.13
589.45	56952.26
589.61	56853.95
