SpectraSuite Data File
++++++++++++++++++++++++++++++++++++
Date: Fri Oct 18 13:55:38 GMT-05:00 2013
User: bianchi
Dark Spectrum Present: No
Reference Spectrum Present: No
Number of Sampled Component Spectra: 1
Spectrometers: USB2+H05261
Integration Time (usec): 100000 (USB2+H05261)
Spectra Averaged: 1 (USB2+H05261)
Boxcar Smoothing: 0 (USB2+H05261)
Correct for Electrical Dark: No (USB2+H05261)
Strobe/Lamp Enabled: No (USB2+H05261)
Correct for Detector Non-linearity: No (USB2+H05261)
Correct for Stray Light: No (USB2+H05261)
Number of Pixels in Processed Spectrum: 2048
>>>>>Begin Processed Spectral Data<<<<<
365.73	0.00
365.92	0.00
366.12	0.00
366.32	0.00
366.52	0.00
366.72	0.00
366.91	0.00
367.11	0.00
367.31	0.00
367.51	0.00
367.70	0.00
367.90	0.00
368.10	0.00
368.30	0.00
368.49	0.00
368.69	0.00
368.89	0.00
369.09	0.00
369.28	0.00
369.48	0.00
369.68	0.00
369.87	0.00
370.07	0.00
370.27	0.00
370.47	37.45
370.66	337.04
370.86	299.59
371.06	351.08
371.25	411.93
371.45	351.08
371.65	383.85
371.84	372.15
372.04	259.80
372.24	482.15
372.44	362.78
372.63	353.42
372.83	489.17
373.03	486.83
373.22	430.66
373.42	362.78
373.62	449.38
373.81	433.00
374.01	528.96
374.21	477.47
374.40	526.62
374.60	512.58
374.79	486.83
374.99	470.45
375.19	585.13
375.38	451.72
375.58	503.22
375.78	468.11
375.97	578.11
376.17	610.88
376.37	475.13
376.56	528.96
376.76	510.24
376.95	561.73
377.15	580.45
377.35	545.34
377.54	547.69
377.74	505.56
377.93	615.56
378.13	533.64
378.33	519.60
378.52	561.73
378.72	627.26
378.91	580.45
379.11	620.24
379.31	573.43
379.50	571.09
379.70	641.31
379.89	636.63
380.09	650.67
380.28	634.29
380.48	650.67
380.68	662.37
380.87	599.18
381.07	617.90
381.26	645.99
381.46	594.50
381.65	727.91
381.85	704.50
382.04	645.99
382.24	629.60
382.43	699.82
382.63	718.54
382.83	730.25
383.02	763.01
383.22	777.06
383.41	615.56
383.61	748.97
383.80	798.12
384.00	800.46
384.19	793.44
384.39	706.84
384.58	737.27
384.78	748.97
384.97	823.87
385.17	699.82
385.36	821.53
385.56	767.70
385.75	734.93
385.95	823.87
386.14	795.78
386.34	786.42
386.53	706.84
386.72	725.57
386.92	826.21
387.11	863.66
387.31	891.74
387.50	842.59
387.70	908.13
387.89	901.11
388.09	844.93
388.28	826.21
388.48	877.70
388.67	903.45
388.86	980.68
389.06	954.94
389.25	973.66
389.45	950.26
389.64	1018.13
389.84	1027.50
390.03	1039.20
390.22	966.64
390.42	940.90
390.61	1018.13
390.81	994.73
391.00	1020.47
391.19	931.53
391.39	1074.31
391.58	1128.14
391.78	1050.90
391.97	1060.26
392.16	1027.50
392.36	1088.35
392.55	1165.59
392.75	1160.91
392.94	1060.26
393.13	1149.20
393.33	1071.97
393.52	1137.50
393.71	1158.57
393.91	1193.67
394.10	1181.97
394.29	1181.97
394.49	1165.59
394.68	1142.18
394.88	1231.12
395.07	1247.51
395.26	1282.61
395.46	1235.80
395.65	1235.80
395.84	1350.49
396.04	1413.68
396.23	1242.82
396.42	1266.23
396.62	1310.70
396.81	1425.39
397.00	1275.59
397.19	1366.87
397.39	1341.13
397.58	1289.64
397.77	1406.66
397.97	1432.41
398.16	1399.64
398.35	1420.71
398.55	1427.73
398.74	1444.11
398.93	1612.63
399.12	1488.58
399.32	1425.39
399.51	1439.43
399.70	1481.56
399.90	1497.94
400.09	1589.22
400.28	1671.14
400.47	1605.61
400.67	1572.84
400.86	1591.56
401.05	1629.01
401.24	1643.06
401.44	1675.82
401.63	1668.80
401.82	1643.06
402.01	1614.97
402.21	1774.13
402.40	1771.79
402.59	1572.84
402.78	1790.51
402.97	1720.29
403.17	1682.85
403.36	1881.79
403.55	1811.57
403.74	1907.54
403.93	1881.79
404.13	1991.80
404.32	1966.05
404.51	1853.70
404.70	2073.71
404.89	2005.84
405.09	2003.50
405.28	1895.83
405.47	2043.29
405.66	1977.75
405.85	2155.63
406.05	1994.14
406.24	2019.88
406.43	2047.97
406.62	2228.19
406.81	2069.03
407.00	2134.57
407.20	2193.08
407.39	2052.65
407.58	2279.68
407.77	2221.17
407.96	2296.07
408.15	2349.90
408.34	2296.07
408.54	2338.20
408.73	2354.58
408.92	2363.94
409.11	2506.71
409.30	2424.80
409.49	2380.32
409.68	2434.16
409.87	2464.58
410.07	2553.52
410.26	2635.44
410.45	2588.63
410.64	2609.70
410.83	2630.76
411.02	2654.17
411.21	2677.57
411.40	2506.71
411.59	2757.15
411.78	2715.02
411.98	2712.68
412.17	2799.28
412.36	2846.09
412.55	2860.13
412.74	2998.23
412.93	2953.76
413.12	2949.08
413.31	3218.24
413.50	3066.10
413.69	3019.29
413.88	3052.06
414.07	3176.11
414.26	3056.74
414.45	3208.87
414.64	3208.87
414.83	3227.60
415.02	3222.92
415.22	3309.52
415.41	3391.44
415.60	3318.88
415.79	3375.05
415.98	3513.14
416.17	3473.36
416.36	3400.80
416.55	3637.19
416.74	3461.65
416.93	3463.99
417.12	3557.61
417.31	3691.02
417.50	3768.26
417.69	3733.15
417.88	3700.39
418.07	3896.99
418.26	3957.85
418.45	3911.04
418.64	3896.99
418.83	3988.27
419.02	3939.12
419.21	3934.44
419.39	4135.73
419.58	4070.19
419.77	3908.69
419.96	4234.03
420.15	4079.55
420.34	4035.08
420.53	4241.05
420.72	4250.41
420.91	4259.78
421.10	4243.39
421.29	4241.05
421.48	4032.74
421.67	4334.67
421.86	4306.59
422.05	4257.43
422.24	4292.54
422.43	4409.57
422.61	4379.14
422.80	4514.89
422.99	4475.10
423.18	4346.37
423.37	4458.72
423.56	4578.09
423.75	4409.57
423.94	4386.16
424.13	4203.60
424.32	4203.60
424.50	4428.29
424.69	4496.17
424.88	4463.40
425.07	4493.83
425.26	4430.63
425.45	4383.82
425.64	4435.32
425.83	4559.36
426.01	4638.94
426.20	4404.89
426.39	4585.11
426.58	4458.72
426.77	4514.89
426.96	4564.04
427.15	4720.86
427.33	4805.12
427.52	4571.07
427.71	4795.76
427.90	4723.20
428.09	4802.78
428.28	4844.91
428.46	4901.08
428.65	4847.25
428.84	4891.72
429.03	4966.62
429.22	4865.97
429.40	5107.05
429.59	5048.54
429.78	4809.80
429.97	4851.93
430.16	5022.79
430.34	5097.69
430.53	5156.20
430.72	5263.86
430.91	5053.22
431.10	5198.33
431.28	5399.62
431.47	5303.65
431.66	5214.71
431.85	5331.74
432.03	5408.98
432.22	5416.00
432.41	5343.44
432.60	5493.24
432.79	5385.57
432.97	5380.89
433.16	5467.49
433.35	5577.50
433.54	5591.54
433.72	5610.26
433.91	5689.84
434.10	5521.32
434.28	5626.65
434.47	5589.20
434.66	5900.49
434.85	5640.69
435.03	5687.50
435.22	5701.54
435.41	6076.03
435.59	5863.04
435.78	5797.51
435.97	5769.42
436.16	5937.94
436.34	5930.92
436.53	5755.38
436.72	6113.48
436.90	5877.09
437.09	6073.69
437.28	5900.49
437.46	5888.79
437.65	6076.03
437.84	6223.48
438.02	6214.12
438.21	6190.72
438.40	6050.28
438.58	6314.77
438.77	6427.11
438.96	6429.45
439.14	6572.22
439.33	6576.91
439.52	6597.97
439.70	6583.93
439.89	6745.42
440.08	6789.89
440.26	6705.63
440.45	6663.51
440.63	6892.88
440.82	6796.92
441.01	6906.92
441.19	6899.90
441.38	7000.54
441.57	7129.27
441.75	7045.01
441.94	7391.41
442.12	7297.79
442.31	7433.54
442.50	7440.56
442.68	7222.89
442.87	7370.35
443.05	7426.52
443.24	7480.35
443.43	7449.93
443.61	7414.82
443.80	7791.64
443.98	7501.42
444.17	7236.94
444.35	7616.10
444.54	7833.77
444.73	7508.44
444.91	7473.33
445.10	7639.51
445.28	7473.33
445.47	7768.24
445.65	7700.36
445.84	7824.41
446.02	7925.05
446.21	7595.04
446.39	7489.71
446.58	7967.18
446.77	7754.19
446.95	7803.35
447.14	7721.43
447.32	7831.43
447.51	7836.11
447.69	8035.06
447.88	7662.91
448.06	7672.28
448.25	7779.94
448.43	7978.89
448.62	7782.28
448.80	7892.29
448.99	8091.23
449.17	8100.59
449.36	7889.95
449.54	8222.30
449.73	8322.94
449.91	8287.84
450.10	7962.50
450.28	8198.90
450.46	8301.88
450.65	8496.14
450.83	8140.38
451.02	8175.49
451.20	8486.78
451.39	8425.93
451.57	8561.68
451.76	8318.26
451.94	8278.47
452.13	8587.43
452.31	8449.33
452.49	8461.04
452.68	8500.83
452.86	8498.49
453.05	8631.90
453.23	8699.77
453.42	8568.70
453.60	8526.57
453.78	8589.77
453.97	8486.78
454.15	8664.66
454.34	8882.33
454.52	8795.73
454.70	8545.30
454.89	8833.18
455.07	8975.95
455.26	8968.93
455.44	9088.30
455.62	8980.64
455.81	9167.88
455.99	9015.74
456.17	9034.47
456.36	9053.19
456.54	9181.92
456.73	9385.55
456.91	9593.86
457.09	9474.49
457.28	9544.70
457.46	9352.78
457.64	9757.69
457.83	9558.75
458.01	9460.45
458.19	9825.57
458.38	9572.79
458.56	9846.63
458.74	9783.44
458.93	9717.90
459.11	9736.63
459.29	9830.25
459.48	9891.10
459.66	9832.59
459.84	10050.26
460.03	10078.35
460.21	9888.76
460.39	10033.88
460.57	9991.75
460.76	10139.20
460.94	10235.16
461.12	10483.26
461.31	10228.14
461.49	10223.46
461.67	10249.21
461.85	10389.64
462.04	10239.84
462.22	10981.79
462.40	10420.06
462.59	10448.15
462.77	10459.85
462.95	10569.86
463.13	10602.63
463.32	10490.28
463.50	10787.53
463.68	10801.57
463.86	10640.08
464.05	10724.33
464.23	10647.10
464.41	10967.75
464.59	10628.37
464.78	11220.53
464.96	10733.70
465.14	10635.39
465.32	11232.23
465.50	11000.52
465.69	10944.34
465.87	10993.50
466.05	10974.77
466.23	10906.90
466.41	11190.10
466.60	11302.45
466.78	11204.14
466.96	10885.83
467.14	10960.73
467.32	11061.37
467.51	11353.94
467.69	11009.88
467.87	11302.45
468.05	11363.30
468.23	11199.46
468.41	11197.12
468.60	11377.34
468.78	11653.53
468.96	11335.21
469.14	11503.73
469.32	11653.53
469.50	11543.52
469.69	11634.80
469.87	12011.63
470.05	11946.09
470.23	12044.40
470.41	11988.22
470.59	11826.73
470.77	11772.89
470.95	12149.72
471.14	12180.15
471.32	11791.62
471.50	12271.43
471.68	12444.63
471.86	12411.86
472.04	12430.59
472.22	12779.32
472.40	12528.89
472.58	12643.57
472.77	12489.10
472.95	12695.07
473.13	13228.71
473.31	12720.81
473.49	12910.40
473.67	13032.10
473.85	13280.20
474.03	13207.64
474.21	13364.46
474.39	13373.82
474.57	13385.52
474.75	13486.17
474.93	13724.90
475.12	13729.58
475.30	13752.99
475.48	13537.66
475.66	14019.81
475.84	14083.00
476.02	13701.50
476.20	14015.13
476.38	14068.96
476.56	14527.71
476.74	14609.62
476.92	14459.83
477.10	14410.68
477.28	14494.94
477.46	14527.71
477.64	14799.21
477.82	15030.92
478.00	15220.50
478.18	15234.55
478.36	15358.60
478.54	15323.49
478.72	15585.63
478.90	15803.30
479.08	15709.68
479.26	15875.85
479.44	16381.41
479.62	16308.85
479.80	16510.14
479.98	16517.16
480.16	16762.92
480.34	16411.84
480.52	16844.84
480.70	16980.59
480.88	16706.74
481.06	17048.46
481.24	17003.99
481.41	17231.02
481.59	17532.95
481.77	17633.60
481.95	17497.84
482.13	18031.49
482.31	17720.20
482.49	18272.56
482.67	17970.63
482.85	18232.77
483.03	18637.69
483.21	18850.67
483.39	18895.14
483.57	19000.47
483.74	19225.16
483.92	19260.27
484.10	19253.25
484.28	19667.52
484.46	19875.83
484.64	20404.79
484.82	19955.41
485.00	20336.91
485.18	20559.27
485.35	20833.11
485.53	20950.14
485.71	21008.65
485.89	20945.45
486.07	21172.49
486.25	21418.24
486.43	21118.65
486.61	21685.06
486.78	21986.99
486.96	21764.64
487.14	22576.81
487.32	22162.53
487.50	22319.35
487.68	22735.96
487.85	22852.99
488.03	22993.42
488.21	23442.81
488.39	23428.76
488.57	23557.49
488.75	23608.98
488.92	23878.15
489.10	24168.37
489.28	24472.64
489.46	24732.44
489.64	24683.29
489.81	24947.77
489.99	25233.32
490.17	24875.21
490.35	25340.98
490.53	25612.48
490.70	25977.61
490.88	25699.08
491.06	26225.70
491.24	25902.71
491.41	26335.71
491.59	26434.01
491.77	26375.50
491.95	26775.73
492.13	26951.27
492.30	26962.97
492.48	27292.99
492.66	27662.79
492.84	27482.57
493.01	27744.71
493.19	27957.70
493.37	28166.01
493.54	28070.04
493.72	28299.42
493.90	28390.70
494.08	28933.70
494.25	29036.69
494.43	29612.46
494.61	29652.25
494.79	29305.85
494.96	29600.76
495.14	29273.08
495.32	29820.77
495.49	29560.97
495.67	30347.39
495.85	30529.95
496.02	30656.34
496.20	30838.90
496.38	30164.82
496.55	30714.85
496.73	31452.12
496.91	31145.51
497.09	31690.85
497.26	31711.92
497.44	31573.83
497.62	31744.69
497.79	32229.18
497.97	31835.97
498.14	32400.04
498.32	32992.19
498.50	33006.23
498.67	33118.58
498.85	33207.52
499.03	32818.99
499.20	33106.88
499.38	33085.81
499.56	33476.68
499.73	33584.35
499.91	34057.14
500.08	33935.43
500.26	33574.98
500.44	34265.44
500.61	33874.57
500.79	34139.05
500.97	34572.05
501.14	34883.34
501.32	34628.23
501.49	35093.99
501.67	34906.75
501.84	34895.05
502.02	34998.03
502.20	35772.75
502.37	35662.74
502.55	35728.28
502.72	35517.63
502.90	35562.10
503.07	35812.54
503.25	35915.52
503.43	35854.67
503.60	36282.98
503.78	36271.28
503.95	36414.05
504.13	36168.30
504.30	36495.97
504.48	36184.68
504.65	36538.10
504.83	37111.53
505.01	37420.48
505.18	37392.40
505.36	37418.14
505.53	36825.99
505.71	37415.80
505.88	37612.41
506.06	37251.97
506.23	37921.36
506.41	38082.86
506.58	38167.12
506.76	38349.68
506.93	38080.52
507.11	37996.26
507.28	38319.25
507.46	38485.43
507.63	38244.35
507.81	38876.30
507.98	38831.83
508.16	39051.84
508.33	38948.85
508.50	38944.17
508.68	39288.23
508.85	39625.27
509.03	39875.71
509.20	39782.09
509.38	40041.88
509.55	39854.64
509.73	40091.04
509.90	39782.09
510.08	40353.18
510.25	40081.67
510.42	40297.00
510.60	41027.25
510.77	40938.31
510.95	40783.83
511.12	40360.20
511.30	40612.98
511.47	40694.89
511.64	41394.71
511.82	41258.96
511.99	41497.70
512.17	41556.21
512.34	41383.01
512.51	41748.14
512.69	41677.92
512.86	41511.74
513.04	42408.17
513.21	42148.37
513.38	42115.60
513.56	42260.71
513.73	42342.63
513.90	42534.56
514.08	41942.40
514.25	42782.65
514.43	42721.80
514.60	42979.26
514.77	43040.11
514.95	43269.48
515.12	43250.76
515.29	43208.63
515.47	43538.65
515.64	43819.51
515.81	43400.55
515.99	43859.30
516.16	44184.63
516.33	44044.20
516.51	44067.61
516.68	43936.54
516.85	43922.49
517.03	44217.40
517.20	44191.65
517.37	44327.41
517.54	44823.60
517.72	44645.72
517.89	44650.40
518.06	44381.24
518.24	44610.61
518.41	44615.29
518.58	45027.23
518.75	44877.43
518.93	44999.14
519.10	44931.26
519.27	45516.40
519.45	45074.04
519.62	45216.81
519.79	45345.54
519.96	45221.49
520.14	45645.13
520.31	45584.27
520.48	45603.00
520.65	45998.55
520.83	46073.45
521.00	45642.79
521.17	46340.27
521.34	45853.44
521.52	46068.76
521.69	46213.88
521.86	46415.16
522.03	46724.11
522.20	46471.34
522.38	46876.25
522.55	46740.50
522.72	46899.65
522.89	47175.84
523.07	47821.83
523.24	46972.21
523.41	47054.13
523.58	46843.48
523.75	47349.04
523.92	47580.75
524.10	47194.56
524.27	47346.70
524.44	47662.67
524.61	47922.47
524.78	48182.27
524.96	47765.65
525.13	47639.26
525.30	48367.17
525.47	47929.49
525.64	47915.45
525.81	48107.37
525.98	48362.49
526.16	48411.64
526.33	48200.99
526.50	48371.85
526.67	48463.13
526.84	48533.35
527.01	48685.48
527.18	48617.61
527.36	48739.32
527.53	48601.22
527.70	49069.33
527.87	49392.33
528.04	49109.12
528.21	48933.58
528.38	48772.08
528.55	49228.49
528.72	48851.66
528.89	49514.03
529.07	49382.96
529.24	49102.10
529.41	49366.58
529.58	49483.61
529.75	49497.65
529.92	49680.21
530.09	49593.61
530.26	49773.83
530.43	49682.55
530.60	49666.17
530.77	50038.31
530.94	49680.21
531.11	49469.56
531.28	49689.57
531.46	50143.64
531.63	49916.61
531.80	50239.60
531.97	50141.30
532.14	50466.63
532.31	50057.04
532.48	50555.57
532.65	50253.64
532.82	50298.11
532.99	50377.69
533.16	50525.14
533.33	50459.61
533.50	50747.50
533.67	50614.08
533.84	50234.92
534.01	50806.01
534.18	50218.53
534.35	50808.35
534.52	50923.04
534.69	51119.64
534.86	51353.69
535.03	51182.84
535.20	50937.08
535.37	51199.22
535.54	51133.68
535.71	51044.74
535.88	51147.73
536.05	51047.08
536.22	51559.66
536.38	51746.90
536.55	51650.94
536.72	51859.25
536.89	51306.88
537.06	51276.46
537.23	51620.52
537.40	51475.40
537.57	51540.94
537.74	51613.49
537.91	52189.27
538.08	51730.52
538.25	51657.96
538.42	51875.63
538.59	52046.49
538.75	51295.18
538.92	51686.05
539.09	51889.68
539.26	52107.35
539.43	51812.44
539.60	52257.14
539.77	52039.47
539.94	52325.02
540.11	52067.56
540.28	52388.21
540.44	52186.92
540.61	52074.58
540.78	52287.57
540.95	52247.78
541.12	52573.11
541.29	52409.28
541.46	52596.52
541.62	52303.95
541.79	52601.20
541.96	52107.35
542.13	52645.67
542.30	52580.13
542.47	52673.76
542.63	52669.08
542.80	52996.75
542.97	52959.30
543.14	53251.87
543.31	53167.61
543.48	53008.45
543.64	53319.74
543.81	53551.46
543.98	53331.45
544.15	53593.59
544.32	53450.81
544.48	53560.82
544.65	53598.27
544.82	53291.66
544.99	53055.26
545.16	53242.51
545.32	53301.02
545.49	53724.66
545.66	53528.05
545.83	53719.98
546.00	53921.26
546.16	53724.66
546.33	53574.86
546.50	53298.68
546.67	53839.34
546.83	53251.87
547.00	53806.58
547.17	53661.46
547.34	53916.58
547.50	53893.18
547.67	53928.28
547.84	53804.24
548.00	54026.59
548.17	54007.86
548.34	54066.38
548.51	54401.07
548.67	54160.00
548.84	54145.95
549.01	54323.83
549.18	54003.18
549.34	54333.20
549.51	54138.93
549.68	54405.75
549.84	54054.67
550.01	54134.25
550.18	54049.99
550.34	54513.42
550.51	54703.00
550.68	54511.08
550.84	54197.44
551.01	54583.63
551.18	54225.53
551.34	54239.57
551.51	54424.48
551.68	54396.39
551.84	54546.18
552.01	54415.11
552.18	54602.36
552.34	54569.59
552.51	54681.94
552.68	54382.35
552.84	54656.19
553.01	54817.69
553.18	54838.75
553.34	54747.47
553.51	54810.67
553.67	54766.20
553.84	55100.89
554.01	54878.54
554.17	54960.46
554.34	54873.86
554.51	54756.83
554.67	55098.55
554.84	54983.86
555.00	55171.11
555.17	55084.51
555.33	55037.70
555.50	54937.05
555.67	55007.27
555.83	55264.73
556.00	54993.23
556.16	55365.37
556.33	54974.50
556.50	55133.66
556.66	55166.43
556.83	55077.49
556.99	55491.76
557.16	55173.45
557.32	55405.16
557.49	55304.52
557.65	55236.64
557.82	55164.09
557.98	55091.53
558.15	55203.88
558.32	55547.93
558.48	55419.20
558.65	55880.29
558.81	55400.48
558.98	55508.14
559.14	55686.03
559.31	55302.18
559.47	55201.53
559.64	55475.38
559.80	55503.46
559.97	55487.08
560.13	55800.71
560.30	55447.29
560.46	55569.00
560.63	55753.90
560.79	55550.27
560.96	55955.19
561.12	55391.12
561.29	55442.61
561.45	55597.09
561.61	55704.75
561.78	55840.50
561.94	55709.43
562.11	55592.40
562.27	55634.53
562.44	55636.87
562.60	55803.05
562.77	55737.52
562.93	55721.13
563.10	55800.71
563.26	55742.20
563.42	56116.68
563.59	55845.18
563.75	55812.41
563.92	55899.01
564.08	55781.99
564.24	55758.58
564.41	55791.35
564.57	55702.41
564.74	55707.09
564.90	55718.79
565.07	55887.31
565.23	55945.83
565.39	55739.86
565.56	56074.55
565.72	55899.01
565.88	55777.31
566.05	55950.51
566.21	55636.87
566.38	55962.21
566.54	55929.44
566.70	56294.56
566.87	56079.24
567.03	56025.40
567.19	56196.26
567.36	56177.54
567.52	56128.39
567.68	55863.91
567.85	55856.88
568.01	55973.91
568.17	55803.05
568.34	56135.41
568.50	56121.37
568.66	55980.93
568.83	56364.78
568.99	55957.53
569.15	55957.53
569.32	56193.92
569.48	55887.31
569.64	56339.04
569.81	56079.24
569.97	56112.00
570.13	56154.13
570.30	56002.00
570.46	56271.16
570.62	56048.81
570.78	56306.27
570.95	55969.23
571.11	56034.77
571.27	55913.06
571.43	55842.84
571.60	56088.60
571.76	56217.33
571.92	56282.86
572.09	56446.70
572.25	56149.45
572.41	56149.45
572.57	56191.58
572.74	56406.91
572.90	56334.35
573.06	55870.93
573.22	56226.69
573.38	56079.24
573.55	56280.52
573.71	56582.45
573.87	56259.46
574.03	56432.66
574.20	56427.98
574.36	56109.66
574.52	56395.21
574.68	56137.75
574.84	56245.41
575.01	56179.88
575.17	56175.20
575.33	56130.73
575.49	56329.67
575.65	56566.07
575.82	56552.02
575.98	56170.52
576.14	56294.56
576.30	56245.41
576.46	56261.80
576.62	56123.71
576.79	56240.73
576.95	56149.45
577.11	55992.64
577.27	56465.42
577.43	56339.04
577.59	56261.80
577.75	56177.54
577.92	56200.94
578.08	56231.37
578.24	56165.84
578.40	56126.05
578.56	56477.13
578.72	56210.31
578.88	56594.15
579.04	56591.81
579.21	56310.95
579.37	56437.34
579.53	56353.08
579.69	56243.07
579.85	56116.68
580.01	56399.89
580.17	56184.56
580.33	56182.22
580.49	56420.95
580.65	56507.55
580.82	56556.70
580.98	56147.11
581.14	56500.53
581.30	56523.94
581.46	56016.04
581.62	56392.87
581.78	56186.90
581.94	56411.59
582.10	56097.96
582.26	56271.16
582.42	56207.97
582.58	56725.22
582.74	56404.57
582.90	56411.59
583.06	56442.02
583.22	56151.79
583.38	56254.78
583.54	56308.61
583.70	56353.08
583.86	56467.76
584.02	56320.31
584.18	56521.60
584.34	56729.90
584.50	56842.25
584.66	56474.79
584.82	56353.08
584.98	56362.44
585.14	56222.01
585.30	56357.76
585.46	56589.47
585.62	56423.29
585.78	56643.30
585.94	56196.26
586.10	56528.62
586.26	56467.76
586.42	56411.59
586.58	56781.40
586.74	56348.40
586.90	56273.50
587.06	56329.67
587.22	56465.42
587.38	56418.61
587.54	56369.46
587.70	56671.39
587.86	56582.45
588.02	56463.08
588.18	56748.63
588.34	56442.02
588.49	56303.93
588.65	56484.15
588.81	56371.80
588.97	56481.81
589.13	56655.01
589.29	56444.36
589.45	56685.43
589.61	56474.79
