SpectraSuite Data File
++++++++++++++++++++++++++++++++++++
Date: Fri Oct 18 13:55:04 GMT-05:00 2013
User: bianchi
Dark Spectrum Present: No
Reference Spectrum Present: No
Number of Sampled Component Spectra: 1
Spectrometers: USB2+H05261
Integration Time (usec): 100000 (USB2+H05261)
Spectra Averaged: 1 (USB2+H05261)
Boxcar Smoothing: 0 (USB2+H05261)
Correct for Electrical Dark: No (USB2+H05261)
Strobe/Lamp Enabled: No (USB2+H05261)
Correct for Detector Non-linearity: No (USB2+H05261)
Correct for Stray Light: No (USB2+H05261)
Number of Pixels in Processed Spectrum: 2048
>>>>>Begin Processed Spectral Data<<<<<
365.73	0.00
365.92	0.00
366.12	0.00
366.32	0.00
366.52	0.00
366.72	0.00
366.91	0.00
367.11	0.00
367.31	0.00
367.51	0.00
367.70	0.00
367.90	0.00
368.10	0.00
368.30	0.00
368.49	0.00
368.69	0.00
368.89	0.00
369.09	0.00
369.28	0.00
369.48	0.00
369.68	0.00
369.87	0.00
370.07	0.00
370.27	0.00
370.47	0.00
370.66	262.14
370.86	259.80
371.06	320.65
371.25	372.15
371.45	280.86
371.65	402.57
371.84	341.72
372.04	381.51
372.24	414.27
372.44	315.97
372.63	411.93
372.83	477.47
373.03	404.91
373.22	400.23
373.42	425.98
373.62	454.06
373.81	505.56
374.01	491.51
374.21	496.19
374.40	498.53
374.60	486.83
374.79	437.68
374.99	430.66
375.19	463.43
375.38	550.03
375.58	514.92
375.78	631.94
375.97	510.24
376.17	540.66
376.37	517.26
376.56	547.69
376.76	550.03
376.95	594.50
377.15	507.90
377.35	468.11
377.54	503.22
377.74	613.22
377.93	557.05
378.13	575.77
378.33	557.05
378.52	650.67
378.72	624.92
378.91	638.97
379.11	657.69
379.31	594.50
379.50	624.92
379.70	594.50
379.89	622.58
380.09	645.99
380.28	657.69
380.48	624.92
380.68	699.82
380.87	624.92
381.07	716.20
381.26	758.33
381.46	615.56
381.65	688.12
381.85	624.92
382.04	697.48
382.24	727.91
382.43	723.23
382.63	657.69
382.83	777.06
383.02	835.57
383.22	784.08
383.41	678.76
383.61	802.80
383.80	912.81
384.00	737.27
384.19	777.06
384.39	667.05
384.58	704.50
384.78	770.04
384.97	833.23
385.17	903.45
385.36	781.74
385.56	800.46
385.75	880.04
385.95	844.93
386.14	830.89
386.34	826.21
386.53	795.78
386.72	828.55
386.92	987.71
387.11	901.11
387.31	858.98
387.50	849.61
387.70	889.40
387.89	917.49
388.09	922.17
388.28	990.05
388.48	873.02
388.67	950.26
388.86	983.02
389.06	1057.92
389.25	947.92
389.45	964.30
389.64	917.49
389.84	990.05
390.03	990.05
390.22	978.34
390.42	999.41
390.61	987.71
390.81	1034.52
391.00	1004.09
391.19	1088.35
391.39	898.77
391.58	1060.26
391.78	999.41
391.97	1011.11
392.16	1102.39
392.36	1086.01
392.55	1151.54
392.75	1151.54
392.94	1095.37
393.13	1128.14
393.33	1198.35
393.52	1153.88
393.71	1249.85
393.91	1226.44
394.10	1139.84
394.29	1294.32
394.49	1210.06
394.68	1207.72
394.88	1296.66
395.07	1277.93
395.26	1158.57
395.46	1217.08
395.65	1355.17
395.84	1242.82
396.04	1511.99
396.23	1284.95
396.42	1294.32
396.62	1355.17
396.81	1362.19
397.00	1444.11
397.19	1296.66
397.39	1352.83
397.58	1390.28
397.77	1511.99
397.97	1467.52
398.16	1401.98
398.35	1465.18
398.55	1411.34
398.74	1593.90
398.93	1528.37
399.12	1469.86
399.32	1490.92
399.51	1416.02
399.70	1671.14
399.90	1556.46
400.09	1678.16
400.28	1645.40
400.47	1523.69
400.67	1706.25
400.86	1610.29
401.05	1640.72
401.24	1596.25
401.44	1706.25
401.63	1582.20
401.82	1755.40
402.01	1673.48
402.21	1783.49
402.40	1743.70
402.59	1769.44
402.78	1757.74
402.97	1820.94
403.17	1902.86
403.36	1799.87
403.55	1898.17
403.74	1961.37
403.93	1830.30
404.13	1952.01
404.32	2106.48
404.51	1816.26
404.70	1963.71
404.89	1905.20
405.09	2008.18
405.28	2015.20
405.47	1959.03
405.66	2036.27
405.85	2181.38
406.05	2050.31
406.24	2146.27
406.43	2141.59
406.62	2195.42
406.81	2225.85
407.00	2249.25
407.20	2202.44
407.39	2113.50
407.58	2338.20
407.77	2221.17
407.96	2340.54
408.15	2356.92
408.34	2165.00
408.54	2373.30
408.73	2363.94
408.92	2356.92
409.11	2443.52
409.30	2466.92
409.49	2455.22
409.68	2544.16
409.87	2499.69
410.07	2614.38
410.26	2593.31
410.45	2689.28
410.64	2558.21
410.83	2679.91
411.02	2635.44
411.21	2731.41
411.40	2677.57
411.59	2745.45
411.78	2726.72
411.98	2782.90
412.17	2897.58
412.36	2874.18
412.55	2862.48
412.74	2904.60
412.93	2867.16
413.12	2977.16
413.31	3087.17
413.50	2988.86
413.69	3136.32
413.88	3155.04
414.07	3098.87
414.26	3009.93
414.45	3279.09
414.64	3361.01
414.83	3265.05
415.02	3342.28
415.22	3389.10
415.41	3496.76
415.60	3295.47
415.79	3487.40
415.98	3616.13
416.17	3653.58
416.36	3447.61
416.55	3627.83
416.74	3630.17
416.93	3503.78
417.12	3609.11
417.31	3751.88
417.50	3810.39
417.69	4009.34
417.88	3810.39
418.07	3840.82
418.26	3796.35
418.45	3918.06
418.64	4065.51
418.83	4028.06
419.02	3901.67
419.21	4208.28
419.39	4142.75
419.58	4058.49
419.77	3964.87
419.96	4093.60
420.15	4175.52
420.34	4243.39
420.53	4182.54
420.72	4308.93
420.91	4205.94
421.10	4325.31
421.29	4470.42
421.48	4257.43
421.67	4409.57
421.86	4416.59
422.05	4393.19
422.24	4465.74
422.43	4395.53
422.61	4437.66
422.80	4711.50
422.99	4615.54
423.18	4638.94
423.37	4568.73
423.56	4643.62
423.75	4589.79
423.94	4407.23
424.13	4145.09
424.32	4332.33
424.50	4568.73
424.69	4550.00
424.88	4683.41
425.07	4669.37
425.26	4369.78
425.45	4585.11
425.64	4620.22
425.83	4491.49
426.01	4753.63
426.20	4561.70
426.39	4463.40
426.58	4699.80
426.77	4615.54
426.96	4589.79
427.15	4688.09
427.33	4711.50
427.52	4821.50
427.71	4753.63
427.90	4891.72
428.09	4816.82
428.28	4933.85
428.46	4903.42
428.65	4793.42
428.84	5078.96
429.03	5191.31
429.22	4966.62
429.40	5034.49
429.59	5130.45
429.78	5004.07
429.97	4830.87
430.16	4999.38
430.34	5226.42
430.53	5228.76
430.72	5390.25
430.91	5195.99
431.10	5158.54
431.28	5277.91
431.47	5411.32
431.66	5467.49
431.85	5350.46
432.03	5383.23
432.22	5600.90
432.41	5481.53
432.60	5504.94
432.79	5444.09
432.97	5493.24
433.16	5586.86
433.35	5413.66
433.54	5554.09
433.72	5743.67
433.91	5694.52
434.10	5696.86
434.28	5645.37
434.47	5790.49
434.66	5734.31
434.85	5699.20
435.03	5647.71
435.22	5912.19
435.41	5963.68
435.59	5959.00
435.78	6017.52
435.97	6001.13
436.16	6076.03
436.34	6017.52
436.53	6097.10
436.72	6286.68
436.90	5987.09
437.09	6134.54
437.28	6148.59
437.46	6155.61
437.65	6326.47
437.84	6359.24
438.02	6132.20
438.21	6303.06
438.40	6211.78
438.58	6452.86
438.77	6574.56
438.96	6483.28
439.14	6602.65
439.33	6597.97
439.52	6670.53
439.70	6757.13
439.89	6789.89
440.08	6946.71
440.26	6937.35
440.45	6890.54
440.63	6906.92
440.82	7250.98
441.01	7136.29
441.19	7075.44
441.38	7049.69
441.57	7328.22
441.75	7124.59
441.94	7391.41
442.12	7332.90
442.31	7417.16
442.50	7307.15
442.68	7606.74
442.87	7529.50
443.05	7379.71
443.24	7721.43
443.43	7632.49
443.61	7489.71
443.80	7815.05
443.98	7379.71
444.17	7419.50
444.35	7819.73
444.54	7901.65
444.73	7550.57
444.91	7763.56
445.10	7681.64
445.28	7864.20
445.47	7733.13
445.65	7742.49
445.84	7885.26
446.02	8042.08
446.21	7960.16
446.39	7775.26
446.58	7857.18
446.77	7819.73
446.95	7620.78
447.14	7733.13
447.32	7866.54
447.51	7950.80
447.69	7873.56
447.88	8086.55
448.06	7878.24
448.25	7761.22
448.43	7978.89
448.62	7911.01
448.80	7906.33
448.99	8021.02
449.17	8023.36
449.36	7826.75
449.54	8301.88
449.73	8393.16
449.91	8390.82
450.10	8386.14
450.28	8334.65
450.46	8472.74
450.65	8627.21
450.83	8463.38
451.02	8596.79
451.20	8641.26
451.39	8344.01
451.57	8479.76
451.76	8435.29
451.94	8430.61
452.13	8732.54
452.31	8683.39
452.49	8587.43
452.68	8814.46
452.86	8676.37
453.05	8608.49
453.23	9006.38
453.42	8650.62
453.60	8571.04
453.78	8982.98
453.97	8662.32
454.15	8875.31
454.34	8683.39
454.52	9001.70
454.70	8985.32
454.89	9146.81
455.07	9268.52
455.26	9172.56
455.44	9114.05
455.62	9184.26
455.81	9418.32
455.99	9294.27
456.17	9322.35
456.36	9528.32
456.54	9570.45
456.73	9228.73
456.91	9867.70
457.09	9682.80
457.28	9802.16
457.46	9572.79
457.64	9912.17
457.83	9626.62
458.01	9591.52
458.19	9958.98
458.38	9912.17
458.56	10057.28
458.74	9785.78
458.93	9844.29
459.11	9863.02
459.29	9886.42
459.48	10059.62
459.66	10038.56
459.84	10139.20
460.03	9905.15
460.21	10200.05
460.39	10108.77
460.57	10284.31
460.76	10150.90
460.94	10478.58
461.12	10408.36
461.31	10431.77
461.49	10375.59
461.67	10246.87
461.85	10490.28
462.04	10541.77
462.22	10658.80
462.40	10647.10
462.59	10555.82
462.77	10764.12
462.95	10609.65
463.13	10939.66
463.32	10743.06
463.50	10946.69
463.68	10719.65
463.86	10993.50
464.05	10675.18
464.23	11007.54
464.41	11115.20
464.59	10925.62
464.78	11091.80
464.96	10920.94
465.14	10890.51
465.32	11255.64
465.50	11154.99
465.69	11094.14
465.87	11173.72
466.05	11304.79
466.23	11178.40
466.41	11297.77
466.60	11655.87
466.78	11187.76
466.96	11337.56
467.14	11316.49
467.32	11393.73
467.51	11887.58
467.69	11192.44
467.87	11412.45
468.05	11658.21
468.23	11485.01
468.41	11492.03
468.60	11489.69
468.78	11756.51
468.96	11669.91
469.14	11948.43
469.32	11756.51
469.50	11637.14
469.69	11988.22
469.87	12067.80
470.05	12329.94
470.23	11950.78
470.41	12191.85
470.59	12013.97
470.77	12304.20
470.95	12582.72
471.14	12531.23
471.32	12233.98
471.50	12538.25
471.68	12645.91
471.86	12704.43
472.04	12748.90
472.22	12734.85
472.40	12730.17
472.58	12718.47
472.77	12982.95
472.95	12835.50
473.13	13640.64
473.31	12943.16
473.49	13266.16
473.67	13294.24
473.85	12999.34
474.03	13462.76
474.21	13338.71
474.39	13530.64
474.57	13750.65
474.75	13811.50
474.93	13610.22
475.12	13855.97
475.30	14242.16
475.48	13806.82
475.66	14134.50
475.84	13965.98
476.02	14272.59
476.20	14120.45
476.38	14523.02
476.56	14684.52
476.74	14698.56
476.92	14473.87
477.10	14602.60
477.28	14937.30
477.46	14614.30
477.64	14984.11
477.82	15337.53
478.00	15536.48
478.18	15543.50
478.36	15648.82
478.54	15714.36
478.72	15953.09
478.90	15976.50
479.08	16231.62
479.26	16161.40
479.44	16491.41
479.62	16683.34
479.80	16688.02
479.98	16847.18
480.16	16849.52
480.34	17048.46
480.52	17011.01
480.70	17355.07
480.88	17071.87
481.06	17659.34
481.24	17277.83
481.41	17619.55
481.59	17933.18
481.77	17905.10
481.95	18108.72
482.13	18340.44
482.31	18031.49
482.49	18569.81
482.67	18366.18
482.85	19208.78
483.03	19091.75
483.21	19468.58
483.39	19400.70
483.57	19075.37
483.74	19632.41
483.92	19803.27
484.10	19510.71
484.28	19910.94
484.46	20264.36
484.64	20510.11
484.82	20311.17
485.00	20442.24
485.18	20751.19
485.35	21242.70
485.53	21006.31
485.71	21289.51
485.89	21755.28
486.07	21605.49
486.25	21568.04
486.43	21612.51
486.61	21869.97
486.78	22309.99
486.96	22438.72
487.14	22738.30
487.32	22965.34
487.50	22857.67
487.68	23058.96
487.85	23360.89
488.03	23517.70
488.21	23651.11
488.39	23630.05
488.57	24037.30
488.75	24203.48
488.92	24196.46
489.10	24341.57
489.28	24870.53
489.46	25088.20
489.64	25095.22
489.81	25261.40
489.99	25343.32
490.17	25401.83
490.35	26134.42
490.53	26265.49
490.70	26160.17
490.88	26291.24
491.06	26698.49
491.24	26459.76
491.41	26754.66
491.59	27318.73
491.77	27014.46
491.95	27206.39
492.13	27630.02
492.30	27365.54
492.48	28114.52
492.66	27704.92
492.84	28297.08
493.01	28229.20
493.19	28383.68
493.37	28730.08
493.54	28713.69
493.72	28828.38
493.90	28769.86
494.08	29158.39
494.25	29659.27
494.43	29663.95
494.61	29558.63
494.79	29956.52
494.96	30015.03
495.14	29996.31
495.32	30312.28
495.49	30508.88
495.67	30927.84
495.85	30675.06
496.02	31175.94
496.20	30714.85
496.38	31353.82
496.55	31747.03
496.73	32095.77
496.91	31894.48
497.09	32320.46
497.26	32165.98
497.44	32301.73
497.62	32708.99
497.79	33031.98
497.97	32598.98
498.14	33270.72
498.32	33013.26
498.50	33200.50
498.67	33865.21
498.85	33565.62
499.03	33853.51
499.20	33963.51
499.38	33762.23
499.56	34717.17
499.73	34316.93
499.91	34260.76
500.08	34431.62
500.26	34312.25
500.44	34038.41
500.61	35030.80
500.79	35079.95
500.97	35292.94
501.14	35791.47
501.32	35709.55
501.49	35536.35
501.67	35381.88
501.84	35693.17
502.02	35438.05
502.20	36025.53
502.37	35997.44
502.55	36339.16
502.72	36177.66
502.90	36533.42
503.07	36210.43
503.25	36699.60
503.43	36603.64
503.60	36882.16
503.78	36882.16
503.95	37125.58
504.13	36919.61
504.30	37104.51
504.48	37256.65
504.65	37036.64
504.83	37773.91
505.01	37708.37
505.18	37879.23
505.36	38066.47
505.53	37539.85
505.71	38160.09
505.88	38073.49
506.06	38047.75
506.23	38120.31
506.41	38583.73
506.58	38939.49
506.76	38501.81
506.93	38871.62
507.11	38234.99
507.28	39311.64
507.46	39068.22
507.63	39398.24
507.81	39749.32
507.98	39501.22
508.16	39721.23
508.33	39828.90
508.50	39955.29
508.68	39800.81
508.85	40140.19
509.03	39856.98
509.20	40252.53
509.38	40800.22
509.55	40889.16
509.73	40715.96
509.90	40559.14
510.08	41172.36
510.25	41134.92
510.42	41081.08
510.60	41619.41
510.77	41848.78
510.95	41467.27
511.12	41265.99
511.30	41495.36
511.47	41727.07
511.64	41876.86
511.82	41989.21
511.99	42213.90
512.17	42370.72
512.34	42153.05
512.51	42656.26
512.69	42728.82
512.86	42630.52
513.04	43035.43
513.21	43442.68
513.38	43407.58
513.56	43463.75
513.73	43220.33
513.90	43313.95
514.08	42787.33
514.25	43363.11
514.43	43569.07
514.60	43950.58
514.77	43594.82
514.95	44060.58
515.12	43981.01
515.29	43938.88
515.47	44315.70
515.64	43945.90
515.81	44322.72
515.99	44399.96
516.16	45244.90
516.33	44933.60
516.51	44875.09
516.68	44804.88
516.85	44676.15
517.03	45167.66
517.20	44987.44
517.37	45083.40
517.54	45090.42
517.72	45317.45
517.89	45343.20
518.06	45116.17
518.24	45287.03
518.41	45347.88
518.58	45567.89
518.75	45687.26
518.93	45886.20
519.10	45830.03
519.27	46195.15
519.45	46092.17
519.62	46094.51
519.79	45734.07
519.96	46445.59
520.14	46438.57
520.31	46415.16
520.48	46499.42
520.65	46335.59
520.83	46909.02
521.00	46663.26
521.17	46632.83
521.34	46738.16
521.52	46873.91
521.69	47459.04
521.86	47749.27
522.03	47442.66
522.20	47557.35
522.38	47552.66
522.55	47180.52
522.72	47753.95
522.89	47349.04
523.07	48067.58
523.24	47985.66
523.41	47955.24
523.58	47859.27
523.75	48062.90
523.92	47922.47
524.10	48444.41
524.27	48013.75
524.44	48428.02
524.61	48456.11
524.78	48584.84
524.96	48399.94
525.13	48425.68
525.30	48732.29
525.47	48411.64
525.64	48383.55
525.81	48683.14
525.98	49214.44
526.16	49045.93
526.33	49418.07
526.50	49350.20
526.67	49048.27
526.84	49045.93
527.01	49212.10
527.18	49165.29
527.36	49169.97
527.53	49918.95
527.70	49867.45
527.87	50080.44
528.04	49701.28
528.21	49797.24
528.38	49514.03
528.55	49902.56
528.72	49738.72
528.89	50361.31
529.07	50305.13
529.24	50344.92
529.41	50082.78
529.58	50251.30
529.75	50178.75
529.92	49895.54
530.09	50071.08
530.26	50134.28
530.43	50387.05
530.60	50234.92
530.77	50522.80
530.94	50527.48
531.11	50822.39
531.28	50543.87
531.46	50490.04
531.63	50724.09
531.80	50745.15
531.97	50908.99
532.14	51011.98
532.31	51105.60
532.48	50862.18
532.65	51215.60
532.82	50951.12
532.99	51271.78
533.16	50693.66
533.33	51351.35
533.50	51454.34
533.67	51377.10
533.84	51395.82
534.01	51133.68
534.18	51178.15
534.35	51508.17
534.52	51267.09
534.69	51552.64
534.86	51852.23
535.03	51510.51
535.20	51835.84
535.37	51739.88
535.54	51957.55
535.71	51646.26
535.88	51852.23
536.05	51826.48
536.22	52254.80
536.38	52308.63
536.55	52205.65
536.72	52289.91
536.89	51910.74
537.06	52060.54
537.23	52554.39
537.40	52011.38
537.57	52074.58
537.74	52292.25
537.91	52430.34
538.08	52500.56
538.25	52598.86
538.42	52743.97
538.59	52685.46
538.75	52198.63
538.92	52697.16
539.09	52940.58
539.26	52699.50
539.43	53015.47
539.60	52912.49
539.77	52783.76
539.94	53099.73
540.11	52877.38
540.28	53052.92
540.44	53064.63
540.61	52652.69
540.78	52839.93
540.95	53106.76
541.12	52963.98
541.29	53116.12
541.46	52980.37
541.62	53057.60
541.79	53088.03
541.96	52804.83
542.13	52856.32
542.30	53446.13
542.47	53750.40
542.63	53792.53
542.80	53656.78
542.97	53867.43
543.14	53722.32
543.31	53521.03
543.48	53570.18
543.64	54232.55
543.81	54117.87
543.98	54110.85
544.15	53965.73
544.32	54080.42
544.48	54267.66
544.65	53923.60
544.82	54017.22
544.99	53801.89
545.16	53890.83
545.32	54007.86
545.49	54609.38
545.66	54424.48
545.83	54468.95
546.00	54433.84
546.16	54190.42
546.33	54057.01
546.50	53787.85
546.67	54258.30
546.83	54094.46
547.00	54202.13
547.17	54192.76
547.34	54508.74
547.50	54625.76
547.67	54796.62
547.84	54553.21
548.00	54548.53
548.17	54672.57
548.34	54447.88
548.51	55065.78
548.67	54843.43
548.84	54822.37
549.01	54813.01
549.18	54581.29
549.34	54506.40
549.51	54431.50
549.68	54658.53
549.84	54784.92
550.01	54763.85
550.18	54880.88
550.34	55063.44
550.51	55140.68
550.68	54941.74
550.84	54777.90
551.01	54864.50
551.18	54897.27
551.34	54728.75
551.51	54838.75
551.68	55161.75
551.84	55264.73
552.01	55222.60
552.18	55398.14
552.34	55021.31
552.51	55309.20
552.68	54932.37
552.84	55269.41
553.01	55295.16
553.18	55327.92
553.34	55454.31
553.51	55351.33
553.67	55519.85
553.84	55781.99
554.01	55496.44
554.17	55318.56
554.34	55496.44
554.51	55430.91
554.67	55690.71
554.84	55573.68
555.00	55444.95
555.17	55222.60
555.33	55674.32
555.50	55583.04
555.67	55522.19
555.83	55779.65
556.00	55824.12
556.16	55826.46
556.33	55784.33
556.50	55966.89
556.66	55866.25
556.83	55845.18
556.99	56107.32
557.16	55955.19
557.32	56200.94
557.49	56002.00
557.65	55620.49
557.82	55669.64
557.98	55688.37
558.15	55938.80
558.32	56039.45
558.48	56046.47
558.65	56161.15
558.81	55821.78
558.98	56135.41
559.14	56041.79
559.31	55980.93
559.47	56027.74
559.64	56009.02
559.80	56109.66
559.97	56409.25
560.13	56079.24
560.30	55994.98
560.46	56016.04
560.63	56172.86
560.79	55915.40
560.96	56158.81
561.12	56264.14
561.29	55997.32
561.45	56193.92
561.61	56219.67
561.78	56320.31
561.94	56327.33
562.11	56479.47
562.27	56207.97
562.44	56275.84
562.60	56121.37
562.77	56133.07
562.93	56292.22
563.10	56327.33
563.26	56301.59
563.42	56601.18
563.59	56423.29
563.75	56306.27
563.92	56456.06
564.08	56322.65
564.24	56177.54
564.41	56353.08
564.57	56193.92
564.74	56172.86
564.90	56495.85
565.07	56317.97
565.23	56645.65
565.39	56554.36
565.56	56699.48
565.72	56310.95
565.88	56629.26
566.05	56708.84
566.21	56334.35
566.38	56406.91
566.54	56133.07
566.70	56612.88
566.87	56743.95
567.03	56587.13
567.19	56697.14
567.36	56788.42
567.52	56385.85
567.68	56772.03
567.85	56601.18
568.01	56807.14
568.17	56324.99
568.34	56741.61
568.50	56823.53
568.66	56444.36
568.83	57073.96
568.99	56612.88
569.15	56659.69
569.32	56568.41
569.48	56465.42
569.64	56807.14
569.81	56786.08
569.97	56631.60
570.13	56521.60
570.30	56685.43
570.46	56818.84
570.62	56545.00
570.78	56502.87
570.95	56402.23
571.11	56814.16
571.27	56545.00
571.43	56420.95
571.60	56687.78
571.76	56753.31
571.92	56556.70
572.09	56694.80
572.25	56823.53
572.41	56727.56
572.57	56973.32
572.74	56966.30
572.90	56718.20
573.06	56933.53
573.22	56507.55
573.38	56760.33
573.55	56849.27
573.71	57113.75
573.87	56870.34
574.03	56743.95
574.20	57001.41
574.36	56530.96
574.52	56839.91
574.68	56605.86
574.84	56942.89
575.01	56816.50
575.17	56802.46
575.33	56760.33
575.49	56882.04
575.65	57006.09
575.82	56987.36
575.98	56851.61
576.14	56931.19
576.30	56949.92
576.46	56736.93
576.62	56748.63
576.79	56816.50
576.95	56750.97
577.11	56605.86
577.27	56811.82
577.43	56863.32
577.59	56999.07
577.75	56942.89
577.92	56800.12
578.08	56903.10
578.24	56811.82
578.40	57062.26
578.56	56985.02
578.72	56921.83
578.88	57153.54
579.04	57106.73
579.21	57123.11
579.37	56978.00
579.53	57071.62
579.69	56729.90
579.85	56872.68
580.01	56940.55
580.17	56701.82
580.33	56907.79
580.49	56947.57
580.65	57024.81
580.82	57055.24
580.98	56933.53
581.14	56933.53
581.30	57090.35
581.46	56786.08
581.62	56776.72
581.78	56729.90
581.94	56942.89
582.10	56793.10
582.26	56935.87
582.42	56914.81
582.58	57020.13
582.74	57116.09
582.90	56978.00
583.06	57186.31
583.22	56963.96
583.38	56893.74
583.54	56851.61
583.70	56718.20
583.86	56942.89
584.02	56816.50
584.18	57251.84
584.34	56935.87
584.50	57048.22
584.66	57050.56
584.82	56914.81
584.98	57038.86
585.14	56938.21
585.30	56879.70
585.46	57020.13
585.62	56891.40
585.78	57134.82
585.94	56821.19
586.10	57083.33
586.26	57059.92
586.42	56975.66
586.58	57268.23
586.74	57148.86
586.90	57078.64
587.06	56781.40
587.22	56900.76
587.38	56818.84
587.54	57034.17
587.70	57230.78
587.86	57134.82
588.02	57102.05
588.18	57172.27
588.34	57080.98
588.49	56952.26
588.65	57048.22
588.81	56996.73
588.97	57099.71
589.13	56975.66
589.29	57022.47
589.45	57066.94
589.61	57396.96
