SpectraSuite Data File
++++++++++++++++++++++++++++++++++++
Date: Fri Oct 18 13:54:12 GMT-05:00 2013
User: bianchi
Dark Spectrum Present: No
Reference Spectrum Present: No
Number of Sampled Component Spectra: 1
Spectrometers: USB2+H05261
Integration Time (usec): 100000 (USB2+H05261)
Spectra Averaged: 1 (USB2+H05261)
Boxcar Smoothing: 0 (USB2+H05261)
Correct for Electrical Dark: No (USB2+H05261)
Strobe/Lamp Enabled: No (USB2+H05261)
Correct for Detector Non-linearity: No (USB2+H05261)
Correct for Stray Light: No (USB2+H05261)
Number of Pixels in Processed Spectrum: 2048
>>>>>Begin Processed Spectral Data<<<<<
365.73	0.00
365.92	0.00
366.12	0.00
366.32	0.00
366.52	0.00
366.72	0.00
366.91	0.00
367.11	0.00
367.31	0.00
367.51	0.00
367.70	0.00
367.90	0.00
368.10	0.00
368.30	0.00
368.49	0.00
368.69	0.00
368.89	0.00
369.09	0.00
369.28	0.00
369.48	0.00
369.68	0.00
369.87	0.00
370.07	0.00
370.27	0.00
370.47	0.00
370.66	292.57
370.86	311.29
371.06	358.10
371.25	395.55
371.45	325.33
371.65	369.80
371.84	367.46
372.04	365.12
372.24	372.15
372.44	395.55
372.63	507.90
372.83	458.74
373.03	372.15
373.22	430.66
373.42	367.46
373.62	482.15
373.81	468.11
374.01	552.37
374.21	447.04
374.40	543.00
374.60	550.03
374.79	571.09
374.99	550.03
375.19	533.64
375.38	550.03
375.58	564.07
375.78	535.98
375.97	482.15
376.17	662.37
376.37	580.45
376.56	456.40
376.76	526.62
376.95	533.64
377.15	601.52
377.35	599.18
377.54	608.54
377.74	608.54
377.93	543.00
378.13	564.07
378.33	575.77
378.52	629.60
378.72	505.56
378.91	671.73
379.11	561.73
379.31	571.09
379.50	540.66
379.70	594.50
379.89	641.31
380.09	622.58
380.28	657.69
380.48	690.46
380.68	561.73
380.87	599.18
381.07	599.18
381.26	671.73
381.46	627.26
381.65	662.37
381.85	662.37
382.04	753.65
382.24	737.27
382.43	634.29
382.63	711.52
382.83	746.63
383.02	732.59
383.22	716.20
383.41	678.76
383.61	781.74
383.80	793.44
384.00	802.80
384.19	741.95
384.39	779.40
384.58	739.61
384.78	770.04
384.97	835.57
385.17	734.93
385.36	807.48
385.56	781.74
385.75	741.95
385.95	779.40
386.14	777.06
386.34	828.55
386.53	821.53
386.72	861.32
386.92	861.32
387.11	954.94
387.31	903.45
387.50	891.74
387.70	903.45
387.89	1001.75
388.09	889.40
388.28	795.78
388.48	976.00
388.67	952.60
388.86	882.38
389.06	961.96
389.25	884.72
389.45	971.32
389.64	971.32
389.84	976.00
390.03	938.55
390.22	1013.45
390.42	983.02
390.61	1008.77
390.81	966.64
391.00	1011.11
391.19	1116.44
391.39	1097.71
391.58	1203.04
391.78	1046.22
391.97	1057.92
392.16	1067.28
392.36	1118.78
392.55	1055.58
392.75	1188.99
392.94	1163.25
393.13	1118.78
393.33	1268.57
393.52	1130.48
393.71	1207.72
393.91	1233.46
394.10	1200.69
394.29	1128.14
394.49	1200.69
394.68	1263.89
394.88	1170.27
395.07	1291.98
395.26	1273.25
395.46	1306.02
395.65	1294.32
395.84	1366.87
396.04	1462.83
396.23	1385.60
396.42	1289.64
396.62	1465.18
396.81	1341.13
397.00	1411.34
397.19	1411.34
397.39	1366.87
397.58	1446.45
397.77	1432.41
397.97	1451.13
398.16	1409.00
398.35	1509.65
398.55	1467.52
398.74	1474.54
398.93	1629.01
399.12	1493.26
399.32	1511.99
399.51	1493.26
399.70	1551.78
399.90	1575.18
400.09	1612.63
400.28	1617.31
400.47	1607.95
400.67	1668.80
400.86	1696.89
401.05	1624.33
401.24	1799.87
401.44	1675.82
401.63	1743.70
401.82	1736.68
402.01	1720.29
402.21	1736.68
402.40	1755.40
402.59	1785.83
402.78	1853.70
402.97	1753.06
403.17	1865.41
403.36	1895.83
403.55	1865.41
403.74	1870.09
403.93	1923.92
404.13	1984.77
404.32	1956.69
404.51	1916.90
404.70	2064.35
404.89	2012.86
405.09	2078.40
405.28	1987.11
405.47	1991.80
405.66	2012.86
405.85	2157.97
406.05	2211.81
406.24	2165.00
406.43	2200.10
406.62	2202.44
406.81	2218.83
407.00	2179.04
407.20	2230.53
407.39	2349.90
407.58	2401.39
407.77	2317.13
407.96	2436.50
408.15	2293.72
408.34	2284.36
408.54	2359.26
408.73	2385.01
408.92	2401.39
409.11	2289.04
409.30	2410.75
409.49	2518.42
409.68	2616.72
409.87	2555.86
410.07	2691.62
410.26	2544.16
410.45	2574.59
410.64	2597.99
410.83	2609.70
411.02	2668.21
411.21	2853.11
411.40	2696.30
411.59	2775.88
411.78	2787.58
411.98	2719.70
412.17	2780.56
412.36	2949.08
412.55	2995.89
412.74	2899.92
412.93	3012.27
413.12	2942.05
413.31	3176.11
413.50	3059.08
413.69	3033.33
413.88	3192.49
414.07	3124.62
414.26	3239.30
414.45	3248.66
414.64	3302.50
414.83	3405.48
415.02	3342.28
415.22	3452.29
415.41	3597.40
415.60	3302.50
415.79	3574.00
415.98	3597.40
416.17	3531.87
416.36	3627.83
416.55	3597.40
416.74	3698.05
416.93	3796.35
417.12	3723.79
417.31	3810.39
417.50	3805.71
417.69	3889.97
417.88	3939.12
418.07	3901.67
418.26	3866.56
418.45	4021.04
418.64	4053.81
418.83	4109.98
419.02	4081.89
419.21	4147.43
419.39	4091.26
419.58	4100.62
419.77	4086.58
419.96	4180.20
420.15	4142.75
420.34	4250.41
420.53	4276.16
420.72	4397.87
420.91	4205.94
421.10	4337.01
421.29	4524.26
421.48	4337.01
421.67	4322.97
421.86	4264.46
422.05	4507.87
422.24	4421.27
422.43	4510.21
422.61	4372.12
422.80	4425.95
422.99	4629.58
423.18	4566.39
423.37	4737.24
423.56	4561.70
423.75	4538.30
423.94	4498.51
424.13	4198.92
424.32	4519.57
424.50	4566.39
424.69	4627.24
424.88	4765.33
425.07	4615.54
425.26	4545.32
425.45	4463.40
425.64	4585.11
425.83	4676.39
426.01	4622.56
426.20	4627.24
426.39	4627.24
426.58	4685.75
426.77	4704.48
426.96	4535.96
427.15	4699.80
427.33	4734.90
427.52	4814.48
427.71	4784.06
427.90	4873.00
428.09	5008.75
428.28	4938.53
428.46	4966.62
428.65	5053.22
428.84	4966.62
429.03	5025.13
429.22	4997.04
429.40	5291.95
429.59	5165.56
429.78	4952.57
429.97	4938.53
430.16	5139.82
430.34	5170.24
430.53	5301.31
430.72	5191.31
430.91	5214.71
431.10	5163.22
431.28	5336.42
431.47	5544.73
431.66	5289.61
431.85	5338.76
432.03	5526.00
432.22	5643.03
432.41	5572.82
432.60	5701.54
432.79	5607.92
432.97	5612.60
433.16	5668.78
433.35	5474.51
433.54	5666.44
433.72	5668.78
433.91	5563.45
434.10	5781.12
434.28	5919.21
434.47	5818.57
434.66	5900.49
434.85	5785.80
435.03	5809.21
435.22	5776.44
435.41	6122.84
435.59	5937.94
435.78	6066.67
435.97	6005.81
436.16	6080.71
436.34	5902.83
436.53	6092.41
436.72	6267.95
436.90	5888.79
437.09	6104.12
437.28	6092.41
437.46	6232.85
437.65	6150.93
437.84	6312.42
438.02	6291.36
438.21	6106.46
438.40	6181.35
438.58	6640.10
438.77	6715.00
438.96	6539.46
439.14	6576.91
439.33	6490.31
439.52	6731.38
439.70	6740.74
439.89	6920.96
440.08	6855.43
440.26	6956.07
440.45	6810.96
440.63	7150.34
440.82	7185.44
441.01	7040.33
441.19	7164.38
441.38	7258.00
441.57	7080.12
441.75	7393.75
441.94	7407.80
442.12	7269.70
442.31	7602.06
442.50	7449.93
442.68	7466.31
442.87	7459.29
443.05	7639.51
443.24	7737.81
443.43	7651.21
443.61	7562.27
443.80	8161.45
443.98	7620.78
444.17	7377.37
444.35	7679.30
444.54	7845.48
444.73	7833.77
444.91	7983.57
445.10	7770.58
445.28	7735.47
445.47	7845.48
445.65	7899.31
445.84	7967.18
446.02	8039.74
446.21	7911.01
446.39	7929.74
446.58	8018.68
446.77	7845.48
446.95	7768.24
447.14	7964.84
447.32	7845.48
447.51	8011.65
447.69	8098.25
447.88	8105.28
448.06	8070.17
448.25	8077.19
448.43	8112.30
448.62	8124.00
448.80	7857.18
448.99	8301.88
449.17	8271.45
449.36	7868.88
449.54	8224.64
449.73	8138.04
449.91	8182.51
450.10	8369.76
450.28	8526.57
450.46	8231.66
450.65	8390.82
450.83	8510.19
451.02	8549.98
451.20	8730.20
451.39	8685.73
451.57	8765.31
451.76	8482.10
451.94	8585.08
452.13	8807.44
452.31	8758.28
452.49	8344.01
452.68	8814.46
452.86	8762.97
453.05	9011.06
453.23	8863.61
453.42	8725.52
453.60	8837.86
453.78	8779.35
453.97	8784.03
454.15	9081.28
454.34	8861.27
454.52	9142.13
454.70	8954.89
454.89	9142.13
455.07	9071.92
455.26	9186.60
455.44	9245.12
455.62	9327.03
455.81	9142.13
455.99	9097.66
456.17	9273.20
456.36	9282.56
456.54	9591.52
456.73	9682.80
456.91	9741.31
457.09	9577.47
457.28	9867.70
457.46	9582.15
457.64	9657.05
457.83	9781.10
458.01	9713.22
458.19	9949.62
458.38	9912.17
458.56	9998.77
458.74	10057.28
458.93	9928.55
459.11	9989.41
459.29	10164.95
459.48	10197.71
459.66	10146.22
459.84	10186.01
460.03	10471.56
460.21	10148.56
460.39	10429.43
460.57	10272.61
460.76	10427.09
460.94	10651.78
461.12	10518.37
461.31	10445.81
461.49	10359.21
461.67	10303.04
461.85	10778.17
462.04	10686.89
462.22	11250.96
462.40	10750.08
462.59	10640.08
462.77	10689.23
462.95	10796.89
463.13	10766.46
463.32	10848.38
463.50	10862.43
463.68	10677.52
463.86	11019.24
464.05	11112.86
464.23	10721.99
464.41	11150.31
464.59	10775.83
464.78	11131.59
464.96	11222.87
465.14	11180.74
465.32	11255.64
465.50	11454.58
465.69	11405.43
465.87	11330.53
466.05	11302.45
466.23	11227.55
466.41	11487.35
466.60	11747.15
466.78	11421.81
466.96	11311.81
467.14	11393.73
467.32	11763.53
467.51	11639.48
467.69	11620.76
467.87	11463.94
468.05	11620.76
468.23	11843.11
468.41	11473.31
468.60	11812.68
468.78	12081.85
468.96	11700.34
469.14	11929.71
469.32	12037.38
469.50	11793.96
469.69	12229.30
469.87	12365.05
470.05	12336.96
470.23	12149.72
470.41	12170.79
470.59	12386.12
470.77	12184.83
470.95	12461.01
471.14	12423.56
471.32	12194.19
471.50	12819.11
471.68	12844.86
471.86	12638.89
472.04	12711.45
472.22	12901.03
472.40	12819.11
472.58	12961.89
472.77	12929.12
472.95	13067.21
473.13	13448.72
473.31	13282.54
473.49	13085.94
473.67	13364.46
473.85	13296.58
474.03	13561.06
474.21	13502.55
474.39	13561.06
474.57	13837.25
474.75	14026.83
474.93	14061.94
475.12	13980.02
475.30	14143.86
475.48	14073.64
475.66	14408.34
475.84	14223.44
476.02	14221.10
476.20	14441.11
476.38	14604.94
476.56	14878.79
476.74	14501.96
476.92	14913.89
477.10	14693.88
477.28	15208.80
477.46	15042.62
477.64	15070.71
477.82	15552.86
478.00	15953.09
478.18	15953.09
478.36	15901.60
478.54	16032.67
478.72	16093.52
478.90	16149.70
479.08	16365.03
479.26	16116.93
479.44	16514.82
479.62	16594.40
479.80	16540.57
479.98	16947.82
480.16	17296.56
480.34	16947.82
480.52	17298.90
480.70	17652.32
480.88	17034.42
481.06	17570.40
481.24	17385.50
481.41	17874.67
481.59	18200.01
481.77	18139.15
481.95	18272.56
482.13	18684.50
482.31	18546.40
482.49	18789.82
482.67	18932.59
482.85	18597.90
483.03	18892.80
483.21	19496.66
483.39	19779.87
483.57	19424.11
483.74	19651.14
483.92	20081.80
484.10	19768.16
484.28	20367.34
484.46	20346.28
484.64	20531.18
484.82	20355.64
485.00	20788.64
485.18	21085.89
485.35	21392.50
485.53	21102.27
485.71	21628.89
485.89	21984.65
486.07	21797.41
486.25	21671.02
486.43	22302.96
486.61	22366.16
486.78	22607.23
486.96	22614.26
487.14	22862.35
487.32	22883.42
487.50	23044.91
487.68	23082.36
487.85	23508.34
488.03	23899.21
488.21	24484.34
488.39	24184.76
488.57	24215.18
488.75	24479.66
488.92	24608.39
489.10	24697.33
489.28	24758.19
489.46	25277.79
489.64	25610.14
489.81	25724.83
489.99	25434.60
490.17	25603.12
490.35	26209.32
490.53	26326.35
490.70	26352.09
490.88	26726.58
491.06	26602.53
491.24	26693.81
491.41	27124.47
491.59	27218.09
491.77	27108.08
491.95	27571.51
492.13	28009.19
492.30	27405.33
492.48	27686.20
492.66	27950.68
492.84	28144.94
493.01	28439.85
493.19	28723.05
493.37	28882.21
493.54	28854.12
493.72	29448.62
493.90	29130.31
494.08	29373.72
494.25	29593.73
494.43	29876.94
494.61	30174.19
494.79	30012.69
494.96	29890.98
495.14	30831.88
495.32	31276.58
495.49	30759.32
495.67	31028.48
495.85	31454.46
496.02	31601.91
496.20	31566.81
496.38	31735.32
496.55	31648.72
496.73	32357.91
496.91	32128.53
497.09	32531.11
497.26	32409.40
497.44	32566.21
497.62	32833.04
497.79	33029.64
497.97	33003.89
498.14	33490.73
498.32	33441.57
498.50	34080.54
498.67	33684.99
498.85	33897.98
499.03	33624.14
499.20	33944.79
499.38	34202.25
499.56	34361.40
499.73	34675.04
499.91	34707.80
500.08	35068.25
500.26	34616.52
500.44	34803.77
500.61	34925.47
500.79	35260.17
500.97	35360.81
501.14	36194.04
501.32	36086.38
501.49	35494.22
501.67	35882.75
501.84	36226.81
502.02	35892.12
502.20	36151.91
502.37	36636.41
502.55	36542.78
502.72	36493.63
502.90	36322.77
503.07	36566.19
503.25	36926.63
503.43	36825.99
503.60	37081.11
503.78	37141.96
503.95	37703.69
504.13	37614.75
504.30	37699.01
504.48	37361.97
504.65	37642.84
504.83	38305.21
505.01	38377.76
505.18	38157.75
505.36	38876.30
505.53	38220.95
505.71	38717.14
505.88	38803.74
506.06	38337.98
506.23	39580.80
506.41	38455.00
506.58	39152.48
506.76	39122.05
506.93	39133.76
507.11	39264.83
507.28	39618.25
507.46	39627.61
507.63	39716.55
507.81	40046.57
507.98	40100.40
508.16	39852.30
508.33	39889.75
508.50	40519.35
508.68	40652.76
508.85	40612.98
509.03	40643.40
509.20	40896.18
509.38	40961.72
509.55	41017.89
509.73	41074.06
509.90	41256.62
510.08	41181.73
510.25	40985.12
510.42	41858.14
510.60	41521.10
510.77	42277.10
510.95	42174.11
511.12	42036.02
511.30	41860.48
511.47	42167.09
511.64	42438.59
511.82	42548.60
511.99	42342.63
512.17	42422.21
512.34	42693.71
512.51	42689.03
512.69	42815.42
512.86	42902.02
513.04	43283.53
513.21	43100.97
513.38	43526.94
513.56	43445.02
513.73	43374.81
513.90	43409.92
514.08	43438.00
514.25	43999.73
514.43	44069.95
514.60	43810.15
514.77	44280.60
514.95	44439.75
515.12	44304.00
515.29	44112.08
515.47	44521.67
515.64	44446.77
515.81	44521.67
515.99	45015.52
516.16	45310.43
516.33	45254.26
516.51	45371.28
516.68	45104.46
516.85	45221.49
517.03	45195.74
517.20	45287.03
517.37	45081.06
517.54	45586.61
517.72	45687.26
517.89	45525.76
518.06	45701.30
518.24	45661.51
518.41	45741.09
518.58	46033.66
518.75	46429.21
518.93	46583.68
519.10	46361.33
519.27	46323.88
519.45	46131.96
519.62	46560.28
519.79	46483.04
519.96	46635.17
520.14	46665.60
520.31	47040.09
520.48	47007.32
520.65	47269.46
520.83	47138.39
521.00	47061.15
521.17	46564.96
521.34	47253.08
521.52	47660.33
521.69	47529.26
521.86	47550.32
522.03	47660.33
522.20	48009.07
522.38	47744.59
522.55	47826.51
522.72	47583.09
522.89	48215.04
523.07	48507.60
523.24	48020.77
523.41	48561.44
523.58	48334.40
523.75	48367.17
523.92	48662.08
524.10	48278.23
524.27	48633.99
524.44	48903.15
524.61	48868.05
524.78	49055.29
524.96	49165.29
525.13	49125.50
525.30	48783.79
525.47	49226.15
525.64	49074.01
525.81	49378.28
525.98	49184.02
526.16	49333.81
526.33	49492.97
526.50	49591.27
526.67	49258.91
526.84	49544.46
527.01	49357.22
527.18	49546.80
527.36	49830.01
527.53	50164.70
527.70	50560.25
527.87	50518.12
528.04	50164.70
528.21	50176.40
528.38	49745.75
528.55	50089.80
528.72	50026.61
528.89	50347.26
529.07	50354.29
529.24	50431.52
529.41	50794.31
529.58	50738.13
529.75	50417.48
529.92	50546.21
530.09	50707.71
530.26	50459.61
530.43	50712.39
530.60	50967.51
530.77	50806.01
530.94	51056.45
531.11	50782.60
531.28	51072.83
531.46	51082.19
531.63	50696.00
531.80	51306.88
531.97	51213.26
532.14	51643.92
532.31	51416.89
532.48	51550.30
532.65	51583.07
532.82	51217.94
532.99	51250.71
533.16	51199.22
533.33	51653.28
533.50	51924.78
533.67	52062.88
533.84	51681.37
534.01	51739.88
534.18	51632.22
534.35	51920.10
534.52	51955.21
534.69	51959.89
534.86	52088.62
535.03	52191.61
535.20	52200.97
535.37	52317.99
535.54	52245.44
535.71	51906.06
535.88	51929.47
536.05	52273.52
536.22	52411.62
536.38	52540.35
536.55	52828.23
536.72	52697.16
536.89	52357.78
537.06	52411.62
537.23	52533.32
537.40	52339.06
537.57	52561.41
537.74	52732.27
537.91	52884.40
538.08	53123.14
538.25	52692.48
538.42	52746.31
538.59	52669.08
538.75	52659.71
538.92	52861.00
539.09	53305.70
539.26	53125.48
539.43	53188.67
539.60	53312.72
539.77	53050.58
539.94	53476.56
540.11	53361.87
540.28	53558.48
540.44	53551.46
540.61	53263.57
540.78	53277.61
540.95	53478.90
541.12	53616.99
541.29	53418.05
541.46	53432.09
541.62	53607.63
541.79	53343.15
541.96	53226.12
542.13	53326.77
542.30	53537.41
542.47	53944.67
542.63	53673.16
542.80	54073.40
542.97	53911.90
543.14	53991.48
543.31	53942.33
543.48	53921.26
543.64	54445.54
543.81	54328.52
543.98	54152.97
544.15	54466.61
544.32	54164.68
544.48	54497.03
544.65	54057.01
544.82	54321.49
544.99	53949.35
545.16	54389.37
545.32	54398.73
545.49	54698.32
545.66	54745.13
545.83	54365.96
546.00	54815.35
546.16	54672.57
546.33	54485.33
546.50	54202.13
546.67	54506.40
546.83	54349.58
547.00	54766.20
547.17	54632.78
547.34	54817.69
547.50	54798.96
547.67	55231.96
547.84	54904.29
548.00	54920.67
548.17	55166.43
548.34	54967.48
548.51	55363.03
548.67	55075.15
548.84	55143.02
549.01	54925.35
549.18	55061.10
549.34	55021.31
549.51	54866.84
549.68	54820.03
549.84	55199.19
550.01	54997.91
550.18	55126.64
550.34	55395.80
550.51	55356.01
550.68	55512.83
550.84	54997.91
551.01	55370.05
551.18	55124.30
551.34	55126.64
551.51	55435.59
551.68	55529.21
551.84	55313.88
552.01	55545.59
552.18	55409.84
552.34	55763.26
552.51	55475.38
552.68	55400.48
552.84	55531.55
553.01	55735.18
553.18	55576.02
553.34	55618.15
553.51	55611.13
553.67	55594.74
553.84	56158.81
554.01	55625.17
554.17	55838.16
554.34	55901.36
554.51	55758.58
554.67	55814.76
554.84	55941.14
555.00	55781.99
555.17	55962.21
555.33	55873.27
555.50	55772.63
555.67	55770.28
555.83	56048.81
556.00	55948.17
556.16	56324.99
556.33	55994.98
556.50	56002.00
556.66	56086.26
556.83	56002.00
556.99	55992.64
557.16	56189.24
557.32	56385.85
557.49	56217.33
557.65	56151.79
557.82	56044.13
557.98	56121.37
558.15	56060.51
558.32	56718.20
558.48	56315.63
558.65	56495.85
558.81	56179.88
558.98	56266.48
559.14	56097.96
559.31	56182.22
559.47	56432.66
559.64	56498.19
559.80	56051.15
559.97	56446.70
560.13	56350.74
560.30	56596.49
560.46	56594.15
560.63	56294.56
560.79	56519.26
560.96	56533.30
561.12	56507.55
561.29	56207.97
561.45	56308.61
561.61	56549.68
561.78	56678.41
561.94	56797.78
562.11	56626.92
562.27	56516.92
562.44	56631.60
562.60	56509.89
562.77	56629.26
562.93	56498.19
563.10	56788.42
563.26	56755.65
563.42	57106.73
563.59	56882.04
563.75	56870.34
563.92	56774.37
564.08	56711.18
564.24	56666.71
564.41	56479.47
564.57	56472.45
564.74	56736.93
564.90	56554.36
565.07	56722.88
565.23	56938.21
565.39	56884.38
565.56	56856.29
565.72	56718.20
565.88	56858.63
566.05	56652.67
566.21	56568.41
566.38	56498.19
566.54	56643.30
566.70	57024.81
566.87	56966.30
567.03	56748.63
567.19	57092.69
567.36	56664.37
567.52	56797.78
567.68	57183.97
567.85	56947.57
568.01	56917.15
568.17	57052.90
568.34	56980.34
568.50	57006.09
568.66	56954.60
568.83	57183.97
568.99	57036.51
569.15	56825.87
569.32	57027.15
569.48	56769.69
569.64	56870.34
569.81	57057.58
569.97	56970.98
570.13	56961.62
570.30	56807.14
570.46	57155.88
570.62	57141.84
570.78	56970.98
570.95	56921.83
571.11	56900.76
571.27	56884.38
571.43	57034.17
571.60	57153.54
571.76	56921.83
571.92	57167.58
572.09	57174.61
572.25	57352.49
572.41	57120.77
572.57	57223.76
572.74	57099.71
572.90	56996.73
573.06	57212.06
573.22	56975.66
573.38	57097.37
573.55	57120.77
573.71	57298.65
573.87	57366.53
574.03	56889.06
574.20	57111.41
574.36	57080.98
574.52	57176.95
574.68	57027.15
574.84	57130.14
575.01	57111.41
575.17	57230.78
575.33	57289.29
575.49	57364.19
575.65	57319.72
575.82	57296.31
575.98	57361.85
576.14	57364.19
576.30	57172.27
576.46	57095.03
576.62	56973.32
576.79	57076.30
576.95	57062.26
577.11	57183.97
577.27	57162.90
577.43	57286.95
577.59	57036.51
577.75	57200.35
577.92	56999.07
578.08	57200.35
578.24	57083.33
578.40	56956.94
578.56	57116.09
578.72	57319.72
578.88	57382.91
579.04	57291.63
579.21	57219.08
579.37	57303.34
579.53	57511.64
579.69	57308.02
579.85	57017.79
580.01	57235.46
580.17	56985.02
580.33	57293.97
580.49	57048.22
580.65	57403.98
580.82	57240.14
580.98	57502.28
581.14	57230.78
581.30	57256.53
581.46	57050.56
581.62	57127.80
581.78	56982.68
581.94	57247.16
582.10	56966.30
582.26	57125.46
582.42	57186.31
582.58	57279.93
582.74	57188.65
582.90	57441.43
583.06	57401.64
583.22	57354.83
583.38	57333.76
583.54	57399.30
583.70	57090.35
583.86	57113.75
584.02	56970.98
584.18	57476.54
584.34	57343.12
584.50	57511.64
584.66	57343.12
584.82	57216.74
584.98	57165.24
585.14	57066.94
585.30	57165.24
585.46	57293.97
585.62	57034.17
585.78	57254.18
585.94	57132.48
586.10	57181.63
586.26	57389.94
586.42	57528.03
586.58	57399.30
586.74	57329.08
586.90	57450.79
587.06	57291.63
587.22	57268.23
587.38	57272.91
587.54	57394.62
587.70	57572.50
587.86	57570.16
588.02	57549.09
588.18	57371.21
588.34	57305.68
588.49	57453.13
588.65	57418.02
588.81	57378.23
588.97	57513.98
589.13	57272.91
589.29	57382.91
589.45	57551.43
589.61	57556.11
