SpectraSuite Data File
++++++++++++++++++++++++++++++++++++
Date: Fri Oct 18 13:55:46 GMT-05:00 2013
User: bianchi
Dark Spectrum Present: No
Reference Spectrum Present: No
Number of Sampled Component Spectra: 1
Spectrometers: USB2+H05261
Integration Time (usec): 100000 (USB2+H05261)
Spectra Averaged: 1 (USB2+H05261)
Boxcar Smoothing: 0 (USB2+H05261)
Correct for Electrical Dark: No (USB2+H05261)
Strobe/Lamp Enabled: No (USB2+H05261)
Correct for Detector Non-linearity: No (USB2+H05261)
Correct for Stray Light: No (USB2+H05261)
Number of Pixels in Processed Spectrum: 2048
>>>>>Begin Processed Spectral Data<<<<<
365.73	0.00
365.92	0.00
366.12	0.00
366.32	0.00
366.52	0.00
366.72	0.00
366.91	0.00
367.11	0.00
367.31	0.00
367.51	0.00
367.70	0.00
367.90	0.00
368.10	0.00
368.30	0.00
368.49	0.00
368.69	0.00
368.89	0.00
369.09	0.00
369.28	0.00
369.48	0.00
369.68	0.00
369.87	0.00
370.07	0.00
370.27	0.00
370.47	0.00
370.66	184.90
370.86	259.80
371.06	313.63
371.25	290.23
371.45	236.39
371.65	308.95
371.84	313.63
372.04	313.63
372.24	353.42
372.44	351.08
372.63	407.25
372.83	376.83
373.03	397.89
373.22	379.17
373.42	409.59
373.62	397.89
373.81	435.34
374.01	444.70
374.21	346.40
374.40	451.72
374.60	528.96
374.79	402.57
374.99	381.51
375.19	430.66
375.38	454.06
375.58	430.66
375.78	486.83
375.97	505.56
376.17	512.58
376.37	482.15
376.56	444.70
376.76	500.87
376.95	470.45
377.15	491.51
377.35	458.74
377.54	575.77
377.74	514.92
377.93	447.04
378.13	503.22
378.33	519.60
378.52	517.26
378.72	573.43
378.91	535.98
379.11	472.79
379.31	524.28
379.50	535.98
379.70	486.83
379.89	592.16
380.09	547.69
380.28	592.16
380.48	519.60
380.68	528.96
380.87	580.45
381.07	552.37
381.26	601.52
381.46	599.18
381.65	575.77
381.85	573.43
382.04	561.73
382.24	571.09
382.43	627.26
382.63	564.07
382.83	564.07
383.02	608.54
383.22	622.58
383.41	603.86
383.61	631.94
383.80	706.84
384.00	734.93
384.19	681.10
384.39	681.10
384.58	681.10
384.78	657.69
384.97	718.54
385.17	671.73
385.36	727.91
385.56	650.67
385.75	653.01
385.95	765.36
386.14	730.25
386.34	718.54
386.53	802.80
386.72	685.78
386.92	711.52
387.11	758.33
387.31	870.68
387.50	791.10
387.70	720.88
387.89	765.36
388.09	777.06
388.28	791.10
388.48	807.48
388.67	788.76
388.86	809.83
389.06	765.36
389.25	880.04
389.45	875.36
389.64	730.25
389.84	894.08
390.03	873.02
390.22	873.02
390.42	901.11
390.61	812.17
390.81	751.31
391.00	821.53
391.19	1001.75
391.39	889.40
391.58	931.53
391.78	908.13
391.97	950.26
392.16	997.07
392.36	997.07
392.55	987.71
392.75	1015.79
392.94	943.24
393.13	997.07
393.33	983.02
393.52	1015.79
393.71	1036.86
393.91	1062.60
394.10	976.00
394.29	1039.20
394.49	1090.69
394.68	1046.22
394.88	1076.65
395.07	1046.22
395.26	1071.97
395.46	1144.52
395.65	1109.41
395.84	1231.12
396.04	1221.76
396.23	1100.05
396.42	1151.54
396.62	1086.01
396.81	1266.23
397.00	1095.37
397.19	1186.65
397.39	1196.01
397.58	1261.55
397.77	1238.14
397.97	1362.19
398.16	1380.92
398.35	1369.21
398.55	1224.10
398.74	1383.26
398.93	1254.53
399.12	1331.76
399.32	1294.32
399.51	1275.59
399.70	1355.17
399.90	1310.70
400.09	1362.19
400.28	1458.15
400.47	1451.13
400.67	1418.36
400.86	1411.34
401.05	1462.83
401.24	1476.88
401.44	1476.88
401.63	1486.24
401.82	1502.62
402.01	1502.62
402.21	1572.84
402.40	1582.20
402.59	1514.33
402.78	1481.56
402.97	1568.16
403.17	1664.12
403.36	1586.88
403.55	1666.46
403.74	1645.40
403.93	1710.93
404.13	1729.66
404.32	1654.76
404.51	1699.23
404.70	1783.49
404.89	1748.38
405.09	1755.40
405.28	1682.85
405.47	1764.76
405.66	1856.04
405.85	1900.52
406.05	1839.66
406.24	1863.07
406.43	1825.62
406.62	1830.30
406.81	2022.22
407.00	1884.13
407.20	1839.66
407.39	1907.54
407.58	1874.77
407.77	2003.50
407.96	2125.21
408.15	1961.37
408.34	2122.87
408.54	2169.68
408.73	2186.06
408.92	2183.72
409.11	2150.95
409.30	2127.55
409.49	2172.02
409.68	2118.18
409.87	2235.21
410.07	2125.21
410.26	2333.51
410.45	2324.15
410.64	2408.41
410.83	2181.38
411.02	2328.83
411.21	2438.84
411.40	2469.27
411.59	2499.69
411.78	2459.90
411.98	2410.75
412.17	2569.91
412.36	2546.50
412.55	2597.99
412.74	2626.08
412.93	2679.91
413.12	2642.46
413.31	2827.37
413.50	2644.81
413.69	2754.81
413.88	2771.19
414.07	2794.60
414.26	2904.60
414.45	2832.05
414.64	2839.07
414.83	3059.08
415.02	3105.89
415.22	3096.53
415.41	3047.38
415.60	2984.18
415.79	3091.85
415.98	3302.50
416.17	3204.19
416.36	3164.40
416.55	3255.69
416.74	3215.90
416.93	3155.04
417.12	3276.75
417.31	3314.20
417.50	3452.29
417.69	3557.61
417.88	3433.57
418.07	3522.51
418.26	3517.83
418.45	3534.21
418.64	3705.07
418.83	3597.40
419.02	3616.13
419.21	3705.07
419.39	3775.28
419.58	3531.87
419.77	3721.45
419.96	3693.37
420.15	3749.54
420.34	3728.47
420.53	3777.62
420.72	3786.99
420.91	3908.69
421.10	3904.01
421.29	3941.46
421.48	3761.24
421.67	3957.85
421.86	3801.03
422.05	3971.89
422.24	4046.79
422.43	3705.07
422.61	4109.98
422.80	3983.59
422.99	3978.91
423.18	4056.15
423.37	3967.21
423.56	4067.85
423.75	4030.40
423.94	4037.42
424.13	3728.47
424.32	3887.63
424.50	4201.26
424.69	4053.81
424.88	4140.41
425.07	4070.19
425.26	3974.23
425.45	4044.45
425.64	4084.23
425.83	4243.39
426.01	4210.62
426.20	4154.45
426.39	4119.34
426.58	4241.05
426.77	4252.75
426.96	4084.23
427.15	4315.95
427.33	4229.35
427.52	4395.53
427.71	4306.59
427.90	4313.61
428.09	4325.31
428.28	4500.85
428.46	4512.55
428.65	4564.04
428.84	4550.00
429.03	4566.39
429.22	4477.44
429.40	4545.32
429.59	4596.81
429.78	4383.82
429.97	4367.44
430.16	4341.69
430.34	4652.98
430.53	4741.93
430.72	4709.16
430.91	4664.69
431.10	4634.26
431.28	4802.78
431.47	4748.95
431.66	4844.91
431.85	4793.42
432.03	4854.27
432.22	5027.47
432.41	4959.60
432.60	4889.38
432.79	4898.74
432.97	5041.51
433.16	4938.53
433.35	4945.55
433.54	5212.37
433.72	5071.94
433.91	5001.72
434.10	5121.09
434.28	5041.51
434.47	5139.82
434.66	5121.09
434.85	5369.19
435.03	5359.83
435.22	5078.96
435.41	5345.78
435.59	5261.52
435.78	5280.25
435.97	5233.44
436.16	5331.74
436.34	5352.81
436.53	5465.15
436.72	5647.71
436.90	5500.26
437.09	5509.62
437.28	5486.22
437.46	5467.49
437.65	5446.43
437.84	5708.57
438.02	5605.58
438.21	5575.16
438.40	5661.76
438.58	5834.96
438.77	5987.09
438.96	5844.32
439.14	5996.45
439.33	5886.45
439.52	5998.79
439.70	5912.19
439.89	6059.65
440.08	6003.47
440.26	6265.61
440.45	6104.12
440.63	6029.22
440.82	6415.41
441.01	6282.00
441.19	6333.49
441.38	6417.75
441.57	6366.26
441.75	6509.03
441.94	6544.14
442.12	6551.16
442.31	6715.00
442.50	6530.09
442.68	6513.71
442.87	6729.04
443.05	6672.87
443.24	6792.23
443.43	6883.52
443.61	6862.45
443.80	6951.39
443.98	6677.55
444.17	6441.15
444.35	6759.47
444.54	7002.88
444.73	6995.86
444.91	7066.08
445.10	6930.33
445.28	6832.02
445.47	6965.43
445.65	6970.12
445.84	6937.35
446.02	7190.13
446.21	7155.02
446.39	6923.30
446.58	7108.21
446.77	7220.55
446.95	6916.28
447.14	6991.18
447.32	7159.70
447.51	7124.59
447.69	7232.26
447.88	7094.16
448.06	7054.37
448.25	6909.26
448.43	7016.93
448.62	7171.40
448.80	7045.01
448.99	7342.26
449.17	7272.04
449.36	7206.51
449.54	7449.93
449.73	7314.17
449.91	7595.04
450.10	7595.04
450.28	7669.94
450.46	7585.68
450.65	7452.27
450.83	7604.40
451.02	7658.23
451.20	7801.01
451.39	7791.64
451.57	7630.15
451.76	7494.40
451.94	7681.64
452.13	7927.39
452.31	7606.74
452.49	7566.95
452.68	7566.95
452.86	7784.62
453.05	7782.28
453.23	7932.08
453.42	7815.05
453.60	7548.23
453.78	7911.01
453.97	7693.34
454.15	7894.63
454.34	7922.71
454.52	7948.46
454.70	8191.88
454.89	8187.19
455.07	8140.38
455.26	8280.82
455.44	8290.18
455.62	8234.00
455.81	8224.64
455.99	8273.79
456.17	8259.75
456.36	8264.43
456.54	8236.35
456.73	8430.61
456.91	8727.86
457.09	8706.79
457.28	8769.99
457.46	8545.30
457.64	8725.52
457.83	8608.49
458.01	8491.46
458.19	8931.48
458.38	8910.42
458.56	9069.58
458.74	8861.27
458.93	8786.37
459.11	8992.34
459.29	8727.86
459.48	9123.41
459.66	9064.89
459.84	9029.79
460.03	9322.35
460.21	9078.94
460.39	9128.09
460.57	9085.96
460.76	9036.81
460.94	9221.71
461.12	9090.64
461.31	9390.23
461.49	9380.87
461.67	9343.42
461.85	9423.00
462.04	9322.35
462.22	9921.53
462.40	9694.50
462.59	9310.65
462.77	9607.90
462.95	9664.07
463.13	9624.28
463.32	9736.63
463.50	9792.80
463.68	10026.86
463.86	9703.86
464.05	9696.84
464.23	9689.82
464.41	9893.44
464.59	9502.58
464.78	9804.50
464.96	9813.87
465.14	9804.50
465.32	9713.22
465.50	10279.63
465.69	10059.62
465.87	9963.66
466.05	9940.26
466.23	10286.65
466.41	10045.58
466.60	10366.23
466.78	9930.89
466.96	9942.60
467.14	10148.56
467.32	10253.89
467.51	10441.13
467.69	9919.19
467.87	10115.80
468.05	10534.75
468.23	10178.99
468.41	10317.08
468.60	10399.00
468.78	10516.03
468.96	10160.27
469.14	10511.35
469.32	10810.93
469.50	10410.70
469.69	10775.83
469.87	10705.61
470.05	10876.47
470.23	10810.93
470.41	10890.51
470.59	10684.55
470.77	10848.38
470.95	10899.87
471.14	11091.80
471.32	10841.36
471.50	11187.76
471.68	11222.87
471.86	11052.01
472.04	11269.68
472.22	11576.29
472.40	11407.77
472.58	11213.51
472.77	11625.44
472.95	11590.33
473.13	11889.92
473.31	11543.52
473.49	11573.95
473.67	11566.93
473.85	11681.61
474.03	12032.69
474.21	11969.50
474.39	11955.46
474.57	12142.70
474.75	12189.51
474.93	12098.23
475.12	12182.49
475.30	12341.64
475.48	12470.37
475.66	12556.97
475.84	12332.28
476.02	12578.04
476.20	12734.85
476.38	12793.37
476.56	13069.55
476.74	13228.71
476.92	12987.63
477.10	13198.28
477.28	13460.42
477.46	13071.89
477.64	13551.70
477.82	13598.51
478.00	13809.16
478.18	13823.20
478.36	13898.10
478.54	14061.94
478.72	14181.31
478.90	14265.57
479.08	14157.90
479.26	14450.47
479.44	14415.36
479.62	14684.52
479.80	14618.99
479.98	14960.70
480.16	15276.68
480.34	14946.66
480.52	15152.63
480.70	15208.80
480.88	15311.78
481.06	15328.17
481.24	15374.98
481.41	15571.58
481.59	16037.35
481.77	16030.33
481.95	16025.65
482.13	16065.44
482.31	16121.61
482.49	16446.94
482.67	16365.03
482.85	16732.49
483.03	16823.77
483.21	16891.65
483.39	17228.68
483.57	17261.45
483.74	17247.41
483.92	17392.52
484.10	17394.86
484.28	17907.44
484.46	18118.09
484.64	18022.12
484.82	17987.02
485.00	18338.10
485.18	18562.79
485.35	18782.80
485.53	18654.07
485.71	18616.62
485.89	18977.06
486.07	18850.67
486.25	19286.01
486.43	19403.04
486.61	19398.36
486.78	19868.81
486.96	20116.90
487.14	20100.52
487.32	20177.76
487.50	20224.57
487.68	20409.47
487.85	20767.57
488.03	20900.98
488.21	21322.28
488.39	20980.56
488.57	21303.56
488.75	21043.76
488.92	21666.34
489.10	21914.44
489.28	22099.34
489.46	22080.61
489.64	22207.00
489.81	22609.58
489.99	22387.22
490.17	22499.57
490.35	23080.02
490.53	22883.42
490.70	23199.39
490.88	23403.02
491.06	23419.40
491.24	23632.39
491.41	23777.50
491.59	23931.98
491.77	24123.90
491.95	24259.65
492.13	24535.84
492.30	24280.72
492.48	24484.34
492.66	24659.88
492.84	24776.91
493.01	25207.57
493.19	25027.35
493.37	25560.99
493.54	25387.79
493.72	26101.65
493.90	25956.54
494.08	26019.74
494.25	25797.38
494.43	25949.52
494.61	26890.41
494.79	26726.58
494.96	26806.16
495.14	26785.09
495.32	26927.86
495.49	26838.92
495.67	27164.26
495.85	27527.04
496.02	27686.20
496.20	27674.49
496.38	27618.32
496.55	27711.94
496.73	28350.91
496.91	27917.91
497.09	28236.22
497.26	28383.68
497.44	28194.09
497.62	28432.83
497.79	29046.05
497.97	29085.84
498.14	29380.74
498.32	29549.26
498.50	29818.42
498.67	29986.94
498.85	29560.97
499.03	29963.54
499.20	29785.66
499.38	29862.90
499.56	30099.29
499.73	30579.10
499.91	30586.12
500.08	30668.04
500.26	30211.64
500.44	30504.20
500.61	30693.79
500.79	31037.84
500.97	31232.11
501.14	31409.99
501.32	31295.30
501.49	31445.10
501.67	31222.75
501.84	31700.22
502.02	31737.66
502.20	31735.32
502.37	32123.85
502.55	32390.67
502.72	31817.24
502.90	32236.20
503.07	31674.47
503.25	32460.89
503.43	32474.93
503.60	32369.61
503.78	32369.61
503.95	33118.58
504.13	33205.18
504.30	32811.97
504.48	32800.27
504.65	33188.80
504.83	33474.34
505.01	33558.60
505.18	33479.02
505.36	34017.35
505.53	33713.08
505.71	33933.09
505.88	33874.57
506.06	33586.69
506.23	34150.76
506.41	34103.95
506.58	34455.03
506.76	34478.43
506.93	34813.13
507.11	34300.55
507.28	34705.46
507.46	34705.46
507.63	35056.54
507.81	35208.68
507.98	35115.06
508.16	34962.92
508.33	35393.58
508.50	35531.67
508.68	35503.59
508.85	35864.03
509.03	36074.68
509.20	35625.29
509.38	36135.53
509.55	36432.78
509.73	36210.43
509.90	36458.52
510.08	36093.40
510.25	36601.30
510.42	36360.22
510.60	36725.35
510.77	36933.65
510.95	37057.70
511.12	36666.83
511.30	36610.66
511.47	37038.98
511.64	37345.59
511.82	37799.65
511.99	37268.35
512.17	37570.28
512.34	37139.62
512.51	37919.02
512.69	37680.28
512.86	37757.52
513.04	38242.01
513.21	38134.35
513.38	38078.18
513.56	38206.90
513.73	38536.92
513.90	38408.19
514.08	38078.18
514.25	38579.05
514.43	38518.20
514.60	38579.05
514.77	38958.22
514.95	38993.32
515.12	39042.48
515.29	38485.43
515.47	39171.21
515.64	39398.24
515.81	39086.95
515.99	39629.95
516.16	39915.50
516.33	40023.16
516.51	40058.27
516.68	39517.60
516.85	40149.55
517.03	40215.08
517.20	40093.38
517.37	40453.82
517.54	40362.54
517.72	40364.88
517.89	40418.71
518.06	40205.72
518.24	40561.48
518.41	40399.99
518.58	40636.38
518.75	40641.06
518.93	40928.95
519.10	40767.45
519.27	41055.34
519.45	40861.07
519.62	41273.01
519.79	40858.73
519.96	41085.76
520.14	41879.21
520.31	41532.81
520.48	41584.30
520.65	41525.78
520.83	41706.01
521.00	41787.92
521.17	41640.47
521.34	41537.49
521.52	42239.65
521.69	42087.51
521.86	42120.28
522.03	42270.08
522.20	42359.02
522.38	42337.95
522.55	42476.04
522.72	42316.89
522.89	43065.86
523.07	43503.54
523.24	42904.36
523.41	42934.79
523.58	42983.94
523.75	43564.39
523.92	42909.04
524.10	43363.11
524.27	43206.29
524.44	43379.49
524.61	43442.68
524.78	43711.84
524.96	43765.68
525.13	43330.34
525.30	44002.07
525.47	43604.18
525.64	43641.63
525.81	44491.24
525.98	44425.71
526.16	43997.39
526.33	44240.81
526.50	44577.84
526.67	44102.71
526.84	44222.08
527.01	44055.90
527.18	44472.52
527.36	44456.14
527.53	44561.46
527.70	45179.36
527.87	44973.39
528.04	44870.41
528.21	44751.04
528.38	44753.38
528.55	44935.95
528.72	45284.68
528.89	45137.23
529.07	44975.73
529.24	44729.98
529.41	45411.07
529.58	44811.90
529.75	45560.87
529.92	45102.12
530.09	45221.49
530.26	45614.70
530.43	45689.60
530.60	45755.13
530.77	45680.24
530.94	45361.92
531.11	45495.33
531.28	45799.60
531.46	46000.89
531.63	46321.54
531.80	46080.47
531.97	46309.84
532.14	46440.91
532.31	45736.41
532.48	46375.37
532.65	46674.96
532.82	45923.65
532.99	46176.43
533.16	46660.92
533.33	46635.17
533.50	47220.31
533.67	46663.26
533.84	46185.79
534.01	46216.22
534.18	46244.30
534.35	46988.60
534.52	46738.16
534.69	46948.81
534.86	46955.83
535.03	46843.48
535.20	46934.76
535.37	47608.84
535.54	47255.42
535.71	47075.19
535.88	47079.88
536.05	47297.55
536.22	47302.23
536.38	47468.40
536.55	47442.66
536.72	47819.49
536.89	47405.21
537.06	47533.94
537.23	47494.15
537.40	47292.86
537.57	47543.30
537.74	47739.91
537.91	48140.14
538.08	48016.09
538.25	47714.16
538.42	47990.34
538.59	48020.77
538.75	47796.08
538.92	48016.09
539.09	48383.55
539.26	48158.86
539.43	48062.90
539.60	48254.82
539.77	48275.89
539.94	48409.30
540.11	48308.66
540.28	48395.26
540.44	48374.19
540.61	48392.92
540.78	48250.14
540.95	48872.73
541.12	48519.31
541.29	48788.47
541.46	48495.90
541.62	48460.79
541.79	48825.92
541.96	48325.04
542.13	48299.30
542.30	48802.51
542.47	49214.44
542.63	49008.48
542.80	49064.65
542.97	49495.31
543.14	49757.45
543.31	49485.95
543.48	49134.87
543.64	49516.37
543.81	49450.84
543.98	49778.51
544.15	49659.15
544.32	49645.10
544.48	50099.17
544.65	49851.07
544.82	49965.76
544.99	49441.48
545.16	49481.27
545.32	49846.39
545.49	50438.54
545.66	50473.65
545.83	50071.08
546.00	50328.54
546.16	50195.13
546.33	50005.55
546.50	49684.89
546.67	49958.73
546.83	49614.68
547.00	49975.12
547.17	49993.84
547.34	49923.63
547.50	50651.53
547.67	50504.08
547.84	50546.21
548.00	50344.92
548.17	50412.80
548.34	50263.00
548.51	50284.07
548.67	50857.50
548.84	50700.68
549.01	50616.43
549.18	50220.87
549.34	50578.98
549.51	50377.69
549.68	50667.92
549.84	50272.37
550.01	50808.35
550.18	50803.67
550.34	50892.61
550.51	50796.65
550.68	51168.79
550.84	50759.20
551.01	50677.28
551.18	50658.56
551.34	50436.20
551.51	50728.77
551.68	50911.33
551.84	50904.31
552.01	51264.75
552.18	50962.82
552.34	51040.06
552.51	51086.87
552.68	50927.72
552.84	51187.52
553.01	51297.52
553.18	51082.19
553.34	51386.46
553.51	51585.41
553.67	51641.58
553.84	51227.31
554.01	51496.47
554.17	51536.26
554.34	51428.59
554.51	51210.92
554.67	51409.87
554.84	51608.81
555.00	51604.13
555.17	51620.52
555.33	51512.85
555.50	51564.34
555.67	51636.90
555.83	51547.96
556.00	51566.68
556.16	51728.18
556.33	51554.98
556.50	51716.48
556.66	51952.87
556.83	51550.30
556.99	51945.85
557.16	52032.45
557.32	51796.06
557.49	52034.79
557.65	51599.45
557.82	51721.16
557.98	51807.76
558.15	51973.94
558.32	51992.66
558.48	51978.62
558.65	52158.84
558.81	51796.06
558.98	51889.68
559.14	51903.72
559.31	52004.36
559.47	52013.73
559.64	52053.51
559.80	52076.92
559.97	52100.32
560.13	51849.89
560.30	52093.30
560.46	51798.40
560.63	52257.14
560.79	51962.23
560.96	52287.57
561.12	52027.77
561.29	52081.60
561.45	52011.38
561.61	51894.36
561.78	52170.54
561.94	52154.16
562.11	52289.91
562.27	52212.67
562.44	52177.56
562.60	52285.23
562.77	51966.91
562.93	51903.72
563.10	52446.72
563.26	52397.57
563.42	52463.11
563.59	52479.49
563.75	52451.41
563.92	52650.35
564.08	52308.63
564.24	52367.15
564.41	52294.59
564.57	51716.48
564.74	52247.78
564.90	52339.06
565.07	52390.55
565.23	52299.27
565.39	52346.08
565.56	52720.57
565.72	52748.65
565.88	52467.79
566.05	52521.62
566.21	52458.43
566.38	52491.19
566.54	52381.19
566.70	52633.97
566.87	52800.15
567.03	52563.75
567.19	52865.68
567.36	52699.50
567.52	52449.06
567.68	52678.44
567.85	52395.23
568.01	52673.76
568.17	52378.85
568.34	52926.53
568.50	52683.12
568.66	52662.05
568.83	52678.44
568.99	52460.77
569.15	52453.75
569.32	52409.28
569.48	52692.48
569.64	52477.15
569.81	52591.84
569.97	52772.06
570.13	52505.24
570.30	52851.64
570.46	52790.78
570.62	52669.08
570.78	52552.05
570.95	52376.51
571.11	52800.15
571.27	52226.71
571.43	52418.64
571.60	52699.50
571.76	52491.19
571.92	52573.11
572.09	52875.04
572.25	53020.16
572.41	52645.67
572.57	52657.37
572.74	52900.79
572.90	52495.88
573.06	52692.48
573.22	52734.61
573.38	52711.20
573.55	52830.57
573.71	52980.37
573.87	53031.86
574.03	52926.53
574.20	52786.10
574.36	52683.12
574.52	52713.55
574.68	52814.19
574.84	52704.18
575.01	53003.77
575.17	52437.36
575.33	52839.93
575.49	52823.55
575.65	52996.75
575.82	52743.97
575.98	52856.32
576.14	53165.27
576.30	52776.74
576.46	52619.92
576.62	52509.92
576.79	52587.16
576.95	52622.26
577.11	52872.70
577.27	52879.72
577.43	52879.72
577.59	52776.74
577.75	53020.16
577.92	52601.20
578.08	52903.13
578.24	52809.51
578.40	52765.04
578.56	52786.10
578.72	52856.32
578.88	52987.39
579.04	52891.43
579.21	52935.90
579.37	52711.20
579.53	52680.78
579.69	52765.04
579.85	52530.98
580.01	52374.17
580.17	52746.31
580.33	52769.72
580.49	52882.06
580.65	52882.06
580.82	53015.47
580.98	53029.52
581.14	52900.79
581.30	53174.63
581.46	52788.44
581.62	52388.21
581.78	52568.43
581.94	52846.96
582.10	52598.86
582.26	52886.74
582.42	52863.34
582.58	52776.74
582.74	52814.19
582.90	52940.58
583.06	53139.52
583.22	52673.76
583.38	52800.15
583.54	52872.70
583.70	52662.05
583.86	52844.62
584.02	52729.93
584.18	52926.53
584.34	52905.47
584.50	53209.74
584.66	52631.63
584.82	52603.54
584.98	52797.80
585.14	52877.38
585.30	52671.42
585.46	52809.51
585.62	52767.38
585.78	52935.90
585.94	52552.05
586.10	52961.64
586.26	52615.24
586.42	53006.11
586.58	53097.39
586.74	53073.99
586.90	52542.69
587.06	52858.66
587.22	52648.01
587.38	52839.93
587.54	53207.40
587.70	53188.67
587.86	53329.11
588.02	53085.69
588.18	53361.87
588.34	52992.07
588.49	53013.13
588.65	52928.87
588.81	52893.77
588.97	52938.24
589.13	52938.24
589.29	52706.52
589.45	53228.46
589.61	53202.72
589.77	53221.44
589.93	53069.31
590.08	53198.04
