SpectraSuite Data File
++++++++++++++++++++++++++++++++++++
Date: Fri Oct 18 13:55:49 GMT-05:00 2013
User: bianchi
Dark Spectrum Present: No
Reference Spectrum Present: No
Number of Sampled Component Spectra: 1
Spectrometers: USB2+H05261
Integration Time (usec): 100000 (USB2+H05261)
Spectra Averaged: 1 (USB2+H05261)
Boxcar Smoothing: 0 (USB2+H05261)
Correct for Electrical Dark: No (USB2+H05261)
Strobe/Lamp Enabled: No (USB2+H05261)
Correct for Detector Non-linearity: No (USB2+H05261)
Correct for Stray Light: No (USB2+H05261)
Number of Pixels in Processed Spectrum: 2048
>>>>>Begin Processed Spectral Data<<<<<
365.73	0.00
365.92	0.00
366.12	0.00
366.32	0.00
366.52	0.00
366.72	0.00
366.91	0.00
367.11	0.00
367.31	0.00
367.51	0.00
367.70	0.00
367.90	0.00
368.10	0.00
368.30	0.00
368.49	0.00
368.69	0.00
368.89	0.00
369.09	0.00
369.28	0.00
369.48	0.00
369.68	0.00
369.87	0.00
370.07	0.00
370.27	0.00
370.47	28.09
370.66	175.54
370.86	278.52
371.06	341.72
371.25	294.91
371.45	220.01
371.65	344.06
371.84	297.25
372.04	308.95
372.24	304.27
372.44	365.12
372.63	376.83
372.83	423.64
373.03	339.38
373.22	308.95
373.42	308.95
373.62	360.44
373.81	386.19
374.01	496.19
374.21	386.19
374.40	421.30
374.60	383.85
374.79	449.38
374.99	414.27
375.19	493.85
375.38	479.81
375.58	496.19
375.78	442.36
375.97	442.36
376.17	486.83
376.37	503.22
376.56	449.38
376.76	409.59
376.95	409.59
377.15	458.74
377.35	510.24
377.54	517.26
377.74	503.22
377.93	496.19
378.13	521.94
378.33	552.37
378.52	592.16
378.72	512.58
378.91	599.18
379.11	580.45
379.31	528.96
379.50	418.96
379.70	601.52
379.89	550.03
380.09	580.45
380.28	543.00
380.48	496.19
380.68	547.69
380.87	568.75
381.07	617.90
381.26	589.82
381.46	566.41
381.65	575.77
381.85	578.11
382.04	685.78
382.24	603.86
382.43	641.31
382.63	624.92
382.83	667.05
383.02	631.94
383.22	627.26
383.41	655.35
383.61	585.13
383.80	653.01
384.00	699.82
384.19	641.31
384.39	624.92
384.58	725.57
384.78	704.50
384.97	730.25
385.17	582.79
385.36	697.48
385.56	627.26
385.75	683.44
385.95	730.25
386.14	751.31
386.34	704.50
386.53	643.65
386.72	744.29
386.92	908.13
387.11	709.18
387.31	716.20
387.50	758.33
387.70	674.07
387.89	772.38
388.09	863.66
388.28	685.78
388.48	849.61
388.67	812.17
388.86	720.88
389.06	828.55
389.25	767.70
389.45	784.08
389.64	786.42
389.84	833.23
390.03	856.64
390.22	837.91
390.42	873.02
390.61	851.96
390.81	828.55
391.00	910.47
391.19	980.68
391.39	917.49
391.58	908.13
391.78	875.36
391.97	894.08
392.16	957.28
392.36	978.34
392.55	919.83
392.75	987.71
392.94	877.70
393.13	922.17
393.33	980.68
393.52	990.05
393.71	1046.22
393.91	1011.11
394.10	1057.92
394.29	1067.28
394.49	1025.15
394.68	1041.54
394.88	1074.31
395.07	1062.60
395.26	1144.52
395.46	1100.05
395.65	1121.12
395.84	1100.05
396.04	1224.10
396.23	1158.57
396.42	1172.61
396.62	1203.04
396.81	1170.27
397.00	1193.67
397.19	1205.38
397.39	1214.74
397.58	1217.08
397.77	1228.78
397.97	1235.80
398.16	1221.76
398.35	1338.79
398.55	1177.29
398.74	1238.14
398.93	1359.85
399.12	1275.59
399.32	1242.82
399.51	1378.58
399.70	1350.49
399.90	1369.21
400.09	1345.81
400.28	1376.24
400.47	1427.73
400.67	1411.34
400.86	1430.07
401.05	1490.92
401.24	1486.24
401.44	1523.69
401.63	1488.58
401.82	1448.79
402.01	1479.22
402.21	1528.37
402.40	1561.14
402.59	1558.80
402.78	1572.84
402.97	1624.33
403.17	1497.94
403.36	1582.20
403.55	1650.08
403.74	1757.74
403.93	1771.79
404.13	1753.06
404.32	1685.19
404.51	1664.12
404.70	1724.97
404.89	1661.78
405.09	1860.73
405.28	1837.32
405.47	1748.38
405.66	1830.30
405.85	1851.36
406.05	1926.26
406.24	1839.66
406.43	1832.64
406.62	1963.71
406.81	2022.22
407.00	1870.09
407.20	1760.08
407.39	1975.41
407.58	2022.22
407.77	1928.60
407.96	2101.80
408.15	2010.52
408.34	2052.65
408.54	2026.90
408.73	2118.18
408.92	2092.44
409.11	2169.68
409.30	2298.41
409.49	2174.36
409.68	2125.21
409.87	2260.96
410.07	2193.08
410.26	2286.70
410.45	2277.34
410.64	2232.87
410.83	2331.17
411.02	2410.75
411.21	2408.41
411.40	2443.52
411.59	2511.39
411.78	2434.16
411.98	2387.35
412.17	2640.12
412.36	2513.74
412.55	2605.02
412.74	2792.26
412.93	2712.68
413.12	2495.01
413.31	2724.38
413.50	2710.34
413.69	2780.56
413.88	2810.98
414.07	2736.09
414.26	2771.19
414.45	2890.56
414.64	2855.45
414.83	2920.99
415.02	3009.93
415.22	2988.86
415.41	3187.81
415.60	3103.55
415.79	2972.48
415.98	3180.79
416.17	3164.40
416.36	3178.45
416.55	3260.37
416.74	3283.77
416.93	3300.16
417.12	3325.90
417.31	3300.16
417.50	3342.28
417.69	3494.42
417.88	3478.04
418.07	3531.87
418.26	3531.87
418.45	3574.00
418.64	3698.05
418.83	3545.91
419.02	3517.83
419.21	3641.87
419.39	3667.62
419.58	3681.66
419.77	3630.17
419.96	3620.81
420.15	3676.98
420.34	3548.25
420.53	3733.15
420.72	3955.51
420.91	3964.87
421.10	3971.89
421.29	3974.23
421.48	3904.01
421.67	3777.62
421.86	3861.88
422.05	4147.43
422.24	3999.98
422.43	4037.42
422.61	3934.44
422.80	4056.15
422.99	4184.88
423.18	4053.81
423.37	4051.47
423.56	4035.08
423.75	4121.68
423.94	3939.12
424.13	3796.35
424.32	3983.59
424.50	4112.32
424.69	4236.37
424.88	4154.45
425.07	4112.32
425.26	4109.98
425.45	4182.54
425.64	4175.52
425.83	4002.32
426.01	4301.90
426.20	4072.53
426.39	4196.58
426.58	4147.43
426.77	4273.82
426.96	4290.20
427.15	4112.32
427.33	4308.93
427.52	4304.25
427.71	4325.31
427.90	4423.61
428.09	4367.44
428.28	4383.82
428.46	4276.16
428.65	4388.50
428.84	4465.74
429.03	4615.54
429.22	4416.59
429.40	4505.53
429.59	4596.81
429.78	4339.35
429.97	4273.82
430.16	4470.42
430.34	4603.83
430.53	4781.71
430.72	4788.74
430.91	4610.86
431.10	4727.88
431.28	4746.61
431.47	4741.93
431.66	4961.94
431.85	4823.84
432.03	4908.10
432.22	5020.45
432.41	5039.17
432.60	5053.22
432.79	4961.94
432.97	5011.09
433.16	4880.02
433.35	5034.49
433.54	5123.43
433.72	5174.92
433.91	5013.43
434.10	5085.98
434.28	5027.47
434.47	5025.13
434.66	5048.54
434.85	5174.92
435.03	5301.31
435.22	5324.72
435.41	5523.66
435.59	5228.76
435.78	5467.49
435.97	5287.27
436.16	5479.19
436.34	5268.55
436.53	5376.21
436.72	5652.39
436.90	5313.02
437.09	5338.76
437.28	5467.49
437.46	5582.18
437.65	5558.77
437.84	5678.14
438.02	5645.37
438.21	5628.99
438.40	5612.60
438.58	5841.98
438.77	5797.51
438.96	5879.43
439.14	5973.05
439.33	6038.58
439.52	6078.37
439.70	6207.10
439.89	6148.59
440.08	5980.07
440.26	6286.68
440.45	6076.03
440.63	6080.71
440.82	6349.87
441.01	6251.57
441.19	6270.30
441.38	6703.29
441.57	6436.47
441.75	6710.32
441.94	6485.62
442.12	6560.52
442.31	6703.29
442.50	6684.57
442.68	6736.06
442.87	6633.08
443.05	6644.78
443.24	6885.86
443.43	6764.15
443.61	6867.13
443.80	7241.62
443.98	6848.41
444.17	6663.51
444.35	6993.52
444.54	6977.14
444.73	7061.40
444.91	6829.68
445.10	6860.11
445.28	6911.60
445.47	7045.01
445.65	6942.03
445.84	7110.55
446.02	7112.89
446.21	6981.82
446.39	6963.09
446.58	7300.13
446.77	7068.42
446.95	6974.80
447.14	7091.82
447.32	7136.29
447.51	7012.24
447.69	7042.67
447.88	7157.36
448.06	7077.78
448.25	7148.00
448.43	7052.03
448.62	7227.57
448.80	7014.59
448.99	7241.62
449.17	7335.24
449.36	7211.19
449.54	7332.90
449.73	7407.80
449.91	7428.86
450.10	7480.35
450.28	7524.82
450.46	7513.12
450.65	7531.84
450.83	7545.89
451.02	7452.27
451.20	7592.70
451.39	7777.60
451.57	7602.06
451.76	7489.71
451.94	7688.66
452.13	7786.96
452.31	7744.83
452.49	7756.54
452.68	7803.35
452.86	7793.98
453.05	7939.10
453.23	8018.68
453.42	7950.80
453.60	7779.94
453.78	7969.52
453.97	7833.77
454.15	8088.89
454.34	7967.18
454.52	8145.06
454.70	8161.45
454.89	8079.53
455.07	8234.00
455.26	8051.44
455.44	8259.75
455.62	8318.26
455.81	8116.98
455.99	8334.65
456.17	8493.80
456.36	8524.23
456.54	8329.97
456.73	8493.80
456.91	8620.19
457.09	8627.21
457.28	8800.41
457.46	8568.70
457.64	8788.71
457.83	8723.18
458.01	8734.88
458.19	8905.74
458.38	8901.06
458.56	9029.79
458.74	8830.84
458.93	8884.67
459.11	9006.38
459.29	9085.96
459.48	8922.12
459.66	9013.40
459.84	9107.02
460.03	9387.89
460.21	9071.92
460.39	9156.18
460.57	9181.92
460.76	9317.67
460.94	9261.50
461.12	9085.96
461.31	9214.69
461.49	9298.95
461.67	9221.71
461.85	9460.45
462.04	9289.59
462.22	10057.28
462.40	9554.07
462.59	9530.66
462.77	9373.85
462.95	9778.76
463.13	9509.60
463.32	9516.62
463.50	9905.15
463.68	9715.56
463.86	9778.76
464.05	9675.77
464.23	9856.00
464.41	9856.00
464.59	9671.09
464.78	10031.54
464.96	9865.36
465.14	10087.71
465.32	9900.47
465.50	10076.01
465.69	10120.48
465.87	9853.66
466.05	9980.04
466.23	9982.38
466.41	10134.52
466.60	10260.91
466.78	9989.41
466.96	9935.57
467.14	10338.15
467.32	10026.86
467.51	10394.32
467.69	10064.30
467.87	10279.63
468.05	10452.83
468.23	10150.90
468.41	10150.90
468.60	10509.01
468.78	10665.82
468.96	10366.23
469.14	10548.79
469.32	10619.01
469.50	10296.02
469.69	10839.02
469.87	10693.91
470.05	10942.00
470.23	10855.40
470.41	10834.34
470.59	10801.57
470.77	10932.64
470.95	11063.71
471.14	11194.78
471.32	10832.00
471.50	11164.36
471.68	11227.55
471.86	11276.70
472.04	11180.74
472.22	11435.86
472.40	11353.94
472.58	11400.75
472.77	11468.62
472.95	11494.37
473.13	12095.89
473.31	11580.97
473.49	11522.46
473.67	11812.68
473.85	11915.67
474.03	12212.92
474.21	12011.63
474.39	12194.19
474.57	12175.47
474.75	12189.51
474.93	12472.71
475.12	12159.08
475.30	12140.36
475.48	12390.80
475.66	12472.71
475.84	12397.82
476.02	12573.36
476.20	12578.04
476.38	12901.03
476.56	13055.51
476.74	13160.83
476.92	13125.72
477.10	13270.84
477.28	13231.05
477.46	13472.12
477.64	13390.20
477.82	13509.57
478.00	13893.42
478.18	13834.91
478.36	13973.00
478.54	14108.75
478.72	13970.66
478.90	14420.04
479.08	13998.74
479.26	14555.79
479.44	14677.50
479.62	14558.13
479.80	15269.66
479.98	14920.92
480.16	15169.01
480.34	15026.24
480.52	15365.62
480.70	15257.95
480.88	15311.78
481.06	15382.00
481.24	15566.90
481.41	15541.16
481.59	16173.10
481.77	16049.05
481.95	16252.68
482.13	16243.32
482.31	16285.45
482.49	16477.37
482.67	16400.13
482.85	16863.56
483.03	16978.25
483.21	17041.44
483.39	17305.92
483.57	16985.27
483.74	17301.24
483.92	17497.84
484.10	17287.20
484.28	17902.76
484.46	18403.63
484.64	18607.26
484.82	18054.89
485.00	18298.31
485.18	18747.69
485.35	18869.40
485.53	18780.46
485.71	18951.32
485.89	19173.67
486.07	19281.33
486.25	19353.89
486.43	19356.23
486.61	19330.48
486.78	19674.54
486.96	19882.85
487.14	20334.57
487.32	20149.67
487.50	20533.52
487.68	20769.91
487.85	20500.75
488.03	21027.37
488.21	21312.92
488.39	21355.05
488.57	21488.46
488.75	21312.92
488.92	21776.34
489.10	21954.22
489.28	22087.64
489.46	22031.46
489.64	22354.46
489.81	22855.33
489.99	22588.51
490.17	22649.36
490.35	23068.32
490.53	23084.70
490.70	23218.11
490.88	23150.24
491.06	23658.14
491.24	23431.10
491.41	23812.61
491.59	23796.23
491.77	23831.33
491.95	24446.90
492.13	24264.33
492.30	24397.74
492.48	24484.34
492.66	24634.14
492.84	24465.62
493.01	25303.53
493.19	25046.07
493.37	25188.85
493.54	25652.27
493.72	25818.45
493.90	25813.77
494.08	26120.38
494.25	26050.16
494.43	26284.22
494.61	26450.39
494.79	26689.13
494.96	26345.07
495.14	26719.56
495.32	26939.57
495.49	27040.21
495.67	27098.72
495.85	27112.77
496.02	27601.94
496.20	27866.42
496.38	27861.74
496.55	28137.92
496.73	28439.85
496.91	27981.10
497.09	28229.20
497.26	28570.92
497.44	28465.60
497.62	28753.48
497.79	28926.68
497.97	29076.48
498.14	29252.02
498.32	29385.43
498.50	29834.81
498.67	29968.22
498.85	29692.04
499.03	30118.01
499.20	30066.52
499.38	29706.08
499.56	30293.55
499.73	30462.07
499.91	30698.47
500.08	30965.29
500.26	31040.18
500.44	31178.28
500.61	30712.51
500.79	31110.40
500.97	30883.37
501.14	31688.51
501.32	31051.89
501.49	31512.97
501.67	31321.05
501.84	31644.04
502.02	31852.35
502.20	31711.92
502.37	32294.71
502.55	32460.89
502.72	32596.64
502.90	32460.89
503.07	32250.24
503.25	32514.72
503.43	32371.95
503.60	32636.43
503.78	32875.16
503.95	32985.17
504.13	33259.01
504.30	32886.87
504.48	32624.73
504.65	33303.48
504.83	33825.42
505.01	33322.21
505.18	33151.35
505.36	33923.72
505.53	33439.23
505.71	34155.44
505.88	33970.54
506.06	33858.19
506.23	34113.31
506.41	33923.72
506.58	34534.60
506.76	34007.98
506.93	34419.92
507.11	34515.88
507.28	34995.69
507.46	34480.77
507.63	35028.46
507.81	35234.42
507.98	34838.87
508.16	35056.54
508.33	35426.35
508.50	34866.96
508.68	35529.33
508.85	35793.81
509.03	35761.05
509.20	35695.51
509.38	36432.78
509.55	36364.90
509.73	36535.76
509.90	35929.56
510.08	36053.61
510.25	36385.97
510.42	36715.98
510.60	37020.25
510.77	36715.98
510.95	36973.44
511.12	36503.00
511.30	36914.93
511.47	36432.78
511.64	37331.54
511.82	37654.54
511.99	37511.77
512.17	37804.33
512.34	37511.77
512.51	37694.33
512.69	37926.04
512.86	37853.48
513.04	38206.90
513.21	38256.06
513.38	38731.18
513.56	38192.86
513.73	38134.35
513.90	38890.34
514.08	38302.87
514.25	38326.27
514.43	38761.61
514.60	38747.57
514.77	39161.84
514.95	38927.79
515.12	38859.91
515.29	39239.08
515.47	39335.04
515.64	39470.79
515.81	39576.12
515.99	39782.09
516.16	39849.96
516.33	39854.64
516.51	39922.52
516.68	39913.16
516.85	39777.40
517.03	39913.16
517.20	40175.30
517.37	40545.10
517.54	40711.28
517.72	40552.12
517.89	40318.07
518.06	40149.55
518.24	40840.01
518.41	40720.64
518.58	40701.92
518.75	41062.36
518.93	41153.64
519.10	40893.84
519.27	41244.92
519.45	41254.28
519.62	41240.24
519.79	41305.77
519.96	41471.95
520.14	41354.93
520.31	41703.67
520.48	41411.10
520.65	42300.50
520.83	41698.98
521.00	42117.94
521.17	41696.64
521.34	41954.10
521.52	42094.53
521.69	41991.55
521.86	42335.61
522.03	42813.08
522.20	42389.44
522.38	42426.89
522.55	42579.03
522.72	42616.47
522.89	42614.13
523.07	42967.55
523.24	42801.38
523.41	43079.90
523.58	43175.86
523.75	42653.92
523.92	43089.26
524.10	42986.28
524.27	43150.12
524.44	43662.69
524.61	43578.43
524.78	43662.69
524.96	43587.80
525.13	43791.42
525.30	44147.18
525.47	43793.76
525.64	43791.42
525.81	43973.98
525.98	44266.55
526.16	44430.39
526.33	44430.39
526.50	44432.73
526.67	43908.45
526.84	44245.49
527.01	44411.67
527.18	44224.42
527.36	44865.73
527.53	45092.76
527.70	45003.82
527.87	45134.89
528.04	44992.12
528.21	44975.73
528.38	44886.79
528.55	45064.67
528.72	45097.44
528.89	45249.58
529.07	44828.28
529.24	45277.66
529.41	45413.41
529.58	45305.75
529.75	45329.16
529.92	45439.16
530.09	45537.46
530.26	45654.49
530.43	46150.68
530.60	45184.04
530.77	45593.64
530.94	46059.40
531.11	45537.46
531.28	45549.17
531.46	45909.61
531.63	46223.24
531.80	46263.03
531.97	46389.42
532.14	46511.13
532.31	46021.95
532.48	46597.73
532.65	46536.87
532.82	46153.02
532.99	46560.28
533.16	46405.80
533.33	46745.18
533.50	46637.51
533.67	47089.24
533.84	47208.61
534.01	46703.05
534.18	46763.90
534.35	47306.91
534.52	46689.01
534.69	47409.89
534.86	47339.68
535.03	46724.11
535.20	47112.64
535.37	47412.23
535.54	47227.33
535.71	46976.89
535.88	47515.22
536.05	47173.50
536.22	47777.36
536.38	47725.86
536.55	47943.53
536.72	47730.54
536.89	47440.32
537.06	47601.82
537.23	47643.94
537.40	47838.21
537.57	47608.84
537.74	48142.48
537.91	48217.38
538.08	48254.82
538.25	48067.58
538.42	48170.57
538.59	48481.86
538.75	47922.47
538.92	48229.08
539.09	48254.82
539.26	48116.73
539.43	48683.14
539.60	48652.72
539.77	48444.41
539.94	48413.98
540.11	48519.31
540.28	48453.77
540.44	48313.34
540.61	48451.43
540.78	48428.02
540.95	48633.99
541.12	48809.53
541.29	48308.66
541.46	48655.06
541.62	48346.11
541.79	48655.06
541.96	48229.08
542.13	48657.40
542.30	48685.48
542.47	49165.29
542.63	49158.27
542.80	49013.16
542.97	49317.43
543.14	49455.52
543.31	49078.69
543.48	49427.43
543.64	49834.69
543.81	49970.44
543.98	49762.13
544.15	49251.89
544.32	49663.83
544.48	49853.41
544.65	49675.53
544.82	49848.73
544.99	49469.56
545.16	49633.40
545.32	49614.68
545.49	50110.87
545.66	50160.02
545.83	49881.50
546.00	50473.65
546.16	49890.86
546.33	50021.93
546.50	49766.81
546.67	49972.78
546.83	49682.55
547.00	50255.98
547.17	50134.28
547.34	50028.95
547.50	50628.13
547.67	50534.51
547.84	50333.22
548.00	50258.32
548.17	50822.39
548.34	50358.97
548.51	50913.67
548.67	50461.95
548.84	50773.24
549.01	50454.93
549.18	50426.84
549.34	50756.86
549.51	50522.80
549.68	50492.38
549.84	50251.30
550.01	50637.49
550.18	50515.78
550.34	50845.80
550.51	50972.19
550.68	50794.31
550.84	50672.60
551.01	51014.32
551.18	50370.67
551.34	50497.06
551.51	50719.41
551.68	50710.05
551.84	51157.09
552.01	51161.77
552.18	51063.47
552.34	50890.27
552.51	51386.46
552.68	50677.28
552.84	50969.85
553.01	51318.59
553.18	51192.20
553.34	51363.06
553.51	51583.07
553.67	51578.39
553.84	51786.69
554.01	51374.76
554.17	51274.12
554.34	51508.17
554.51	51426.25
554.67	51503.49
554.84	51292.84
555.00	51606.47
555.17	51316.25
555.33	51543.28
555.50	51217.94
555.67	51592.43
555.83	51765.63
556.00	51585.41
556.16	51924.78
556.33	51784.35
556.50	51901.38
556.66	51643.92
556.83	51559.66
556.99	51826.48
557.16	52334.38
557.32	51896.70
557.49	52119.05
557.65	51849.89
557.82	51821.80
557.98	51632.22
558.15	51941.17
558.32	52123.73
558.48	51744.56
558.65	52093.30
558.81	52189.27
558.98	52224.37
559.14	52046.49
559.31	51718.82
559.47	52107.35
559.64	52027.77
559.80	52009.04
559.97	51950.53
560.13	52154.16
560.30	51798.40
560.46	52273.52
560.63	52259.48
560.79	52002.02
560.96	52385.87
561.12	52079.26
561.29	52474.81
561.45	52519.28
561.61	52418.64
561.78	52566.09
561.94	52357.78
562.11	52121.39
562.27	52219.69
562.44	52140.11
562.60	52327.36
562.77	52315.65
562.93	52189.27
563.10	52507.58
563.26	52332.04
563.42	52790.78
563.59	52449.06
563.75	52402.25
563.92	52673.76
564.08	52449.06
564.24	52388.21
564.41	52252.46
564.57	52172.88
564.74	52533.32
564.90	52664.39
565.07	52315.65
565.23	52617.58
565.39	52577.79
565.56	52589.50
565.72	52334.38
565.88	52563.75
566.05	52486.51
566.21	52446.72
566.38	52533.32
566.54	52317.99
566.70	52935.90
566.87	52781.42
567.03	52481.83
567.19	53048.24
567.36	52516.94
567.52	52781.42
567.68	52460.77
567.85	52072.24
568.01	52629.29
568.17	52523.96
568.34	52472.47
568.50	52598.86
568.66	53029.52
568.83	52720.57
568.99	52200.97
569.15	52743.97
569.32	52540.35
569.48	52364.81
569.64	52697.16
569.81	52507.58
569.97	52690.14
570.13	53029.52
570.30	52645.67
570.46	52978.03
570.62	52837.59
570.78	52664.39
570.95	52390.55
571.11	52849.30
571.27	52435.02
571.43	52856.32
571.60	52484.17
571.76	52999.09
571.92	53020.16
572.09	52835.25
572.25	52783.76
572.41	52926.53
572.57	52851.64
572.74	52968.66
572.90	52680.78
573.06	52938.24
573.22	52622.26
573.38	52856.32
573.55	53141.86
573.71	53305.70
573.87	53052.92
574.03	52931.22
574.20	52853.98
574.36	53006.11
574.52	52966.32
574.68	52765.04
574.84	52743.97
575.01	52954.62
575.17	52917.17
575.33	52856.32
575.49	52636.31
575.65	52924.19
575.82	53006.11
575.98	52961.64
576.14	53188.67
576.30	52921.85
576.46	52748.65
576.62	52779.08
576.79	52980.37
576.95	52966.32
577.11	53186.33
577.27	52856.32
577.43	52659.71
577.59	52968.66
577.75	52884.40
577.92	52673.76
578.08	52699.50
578.24	52669.08
578.40	53055.26
578.56	52959.30
578.72	52821.21
578.88	53127.82
579.04	53275.27
579.21	52933.56
579.37	53205.06
579.53	52814.19
579.69	52816.53
579.85	52926.53
580.01	52790.78
580.17	52753.33
580.33	52807.17
580.49	52673.76
580.65	53078.67
580.82	53006.11
580.98	52933.56
581.14	52715.89
581.30	53322.08
581.46	52739.29
581.62	52804.83
581.78	52666.73
581.94	53036.54
582.10	52509.92
582.26	53071.65
582.42	53125.48
582.58	53081.01
582.74	52924.19
582.90	53298.68
583.06	53085.69
583.22	52619.92
583.38	52872.70
583.54	52786.10
583.70	53085.69
583.86	53045.90
584.02	52767.38
584.18	53059.94
584.34	52968.66
584.50	53261.23
584.66	52891.43
584.82	52711.20
584.98	52985.05
585.14	52980.37
585.30	52662.05
585.46	53083.35
585.62	52697.16
585.78	52825.89
585.94	52725.25
586.10	52931.22
586.26	53174.63
586.42	53237.83
586.58	53350.17
586.74	52952.28
586.90	52631.63
587.06	52783.76
587.22	52830.57
587.38	52816.53
587.54	53478.90
587.70	53022.50
587.86	53081.01
588.02	52839.93
588.18	53263.57
588.34	53123.14
588.49	53071.65
588.65	53038.88
588.81	52863.34
588.97	53209.74
589.13	52708.86
589.29	53158.25
589.45	53188.67
589.61	53521.03
589.77	53408.68
589.93	53282.30
590.08	53366.55
