SpectraSuite Data File
++++++++++++++++++++++++++++++++++++
Date: Fri Oct 18 13:54:16 GMT-05:00 2013
User: bianchi
Dark Spectrum Present: No
Reference Spectrum Present: No
Number of Sampled Component Spectra: 1
Spectrometers: USB2+H05261
Integration Time (usec): 100000 (USB2+H05261)
Spectra Averaged: 1 (USB2+H05261)
Boxcar Smoothing: 0 (USB2+H05261)
Correct for Electrical Dark: No (USB2+H05261)
Strobe/Lamp Enabled: No (USB2+H05261)
Correct for Detector Non-linearity: No (USB2+H05261)
Correct for Stray Light: No (USB2+H05261)
Number of Pixels in Processed Spectrum: 2048
>>>>>Begin Processed Spectral Data<<<<<
365.73	0.00
365.92	0.00
366.12	0.00
366.32	0.00
366.52	0.00
366.72	0.00
366.91	0.00
367.11	0.00
367.31	0.00
367.51	0.00
367.70	0.00
367.90	0.00
368.10	0.00
368.30	0.00
368.49	0.00
368.69	0.00
368.89	0.00
369.09	0.00
369.28	0.00
369.48	0.00
369.68	0.00
369.87	0.00
370.07	0.00
370.27	23.41
370.47	4.68
370.66	294.91
370.86	280.86
371.06	341.72
371.25	365.12
371.45	315.97
371.65	423.64
371.84	271.50
372.04	421.30
372.24	393.21
372.44	369.80
372.63	440.02
372.83	496.19
373.03	369.80
373.22	322.99
373.42	414.27
373.62	440.02
373.81	407.25
374.01	463.43
374.21	442.36
374.40	442.36
374.60	503.22
374.79	503.22
374.99	475.13
375.19	498.53
375.38	533.64
375.58	582.79
375.78	592.16
375.97	458.74
376.17	545.34
376.37	531.30
376.56	578.11
376.76	479.81
376.95	519.60
377.15	521.94
377.35	624.92
377.54	554.71
377.74	498.53
377.93	596.84
378.13	507.90
378.33	573.43
378.52	519.60
378.72	674.07
378.91	601.52
379.11	662.37
379.31	645.99
379.50	613.22
379.70	606.20
379.89	615.56
380.09	620.24
380.28	603.86
380.48	561.73
380.68	620.24
380.87	620.24
381.07	613.22
381.26	638.97
381.46	741.95
381.65	662.37
381.85	566.41
382.04	671.73
382.24	737.27
382.43	608.54
382.63	725.57
382.83	688.12
383.02	723.23
383.22	781.74
383.41	730.25
383.61	748.97
383.80	739.61
384.00	723.23
384.19	763.01
384.39	798.12
384.58	770.04
384.78	800.46
384.97	746.63
385.17	758.33
385.36	847.27
385.56	830.89
385.75	755.99
385.95	751.31
386.14	856.64
386.34	767.70
386.53	849.61
386.72	795.78
386.92	814.51
387.11	770.04
387.31	830.89
387.50	786.42
387.70	894.08
387.89	943.24
388.09	870.68
388.28	952.60
388.48	917.49
388.67	837.91
388.86	933.87
389.06	884.72
389.25	947.92
389.45	1025.15
389.64	887.06
389.84	964.30
390.03	954.94
390.22	1008.77
390.42	947.92
390.61	1001.75
390.81	976.00
391.00	945.58
391.19	938.55
391.39	1032.18
391.58	1100.05
391.78	1074.31
391.97	1128.14
392.16	1060.26
392.36	1149.20
392.55	1135.16
392.75	1151.54
392.94	1196.01
393.13	1146.86
393.33	1210.06
393.52	1186.65
393.71	1327.08
393.91	1198.35
394.10	1284.95
394.29	1158.57
394.49	1238.14
394.68	1275.59
394.88	1231.12
395.07	1289.64
395.26	1219.42
395.46	1299.00
395.65	1343.47
395.84	1336.45
396.04	1413.68
396.23	1284.95
396.42	1425.39
396.62	1383.26
396.81	1322.40
397.00	1362.19
397.19	1399.64
397.39	1444.11
397.58	1479.22
397.77	1401.98
397.97	1390.28
398.16	1366.87
398.35	1434.75
398.55	1507.30
398.74	1502.62
398.93	1554.12
399.12	1528.37
399.32	1488.58
399.51	1514.33
399.70	1650.08
399.90	1596.25
400.09	1526.03
400.28	1600.93
400.47	1673.48
400.67	1643.06
400.86	1636.03
401.05	1582.20
401.24	1689.87
401.44	1720.29
401.63	1743.70
401.82	1762.42
402.01	1694.55
402.21	1713.27
402.40	1755.40
402.59	1778.81
402.78	1799.87
402.97	1804.55
403.17	1856.04
403.36	1813.92
403.55	1858.39
403.74	2001.16
403.93	1982.43
404.13	1928.60
404.32	1888.81
404.51	1902.86
404.70	2052.65
404.89	2090.10
405.09	2139.25
405.28	1994.14
405.47	2190.74
405.66	2029.24
405.85	2010.52
406.05	2162.66
406.24	2202.44
406.43	2216.49
406.62	2249.25
406.81	2209.47
407.00	2179.04
407.20	2073.71
407.39	2202.44
407.58	2361.60
407.77	2424.80
407.96	2356.92
408.15	2298.41
408.34	2300.75
408.54	2352.24
408.73	2359.26
408.92	2410.75
409.11	2476.29
409.30	2537.14
409.49	2492.67
409.68	2434.16
409.87	2562.89
410.07	2537.14
410.26	2534.80
410.45	2588.63
410.64	2590.97
410.83	2700.98
411.02	2771.19
411.21	2712.68
411.40	2747.79
411.59	2736.09
411.78	2832.05
411.98	2822.69
412.17	2885.88
412.36	2778.22
412.55	2869.50
412.74	3056.74
412.93	3112.91
413.12	3049.72
413.31	3213.56
413.50	3045.04
413.69	3049.72
413.88	3201.85
414.07	3110.57
414.26	3199.51
414.45	3342.28
414.64	3283.77
414.83	3300.16
415.02	3269.73
415.22	3351.65
415.41	3368.03
415.60	3379.73
415.79	3534.21
415.98	3482.72
416.17	3651.24
416.36	3576.34
416.55	3665.28
416.74	3588.04
416.93	3688.68
417.12	3815.07
417.31	3786.99
417.50	3847.84
417.69	3908.69
417.88	3838.48
418.07	3857.20
418.26	3880.61
418.45	4065.51
418.64	4009.34
418.83	4117.00
419.02	3936.78
419.21	4060.83
419.39	3967.21
419.58	4100.62
419.77	4098.28
419.96	4032.74
420.15	4234.03
420.34	3976.57
420.53	4222.33
420.72	4297.22
420.91	4351.06
421.10	4252.75
421.29	4418.93
421.48	4236.37
421.67	4334.67
421.86	4315.95
422.05	4451.70
422.24	4486.81
422.43	4351.06
422.61	4564.04
422.80	4521.92
422.99	4610.86
423.18	4540.64
423.37	4533.62
423.56	4425.95
423.75	4517.23
423.94	4432.97
424.13	4236.37
424.32	4344.03
424.50	4662.35
424.69	4683.41
424.88	4746.61
425.07	4454.04
425.26	4475.10
425.45	4521.92
425.64	4634.26
425.83	4669.37
426.01	4601.49
426.20	4592.13
426.39	4678.73
426.58	4690.43
426.77	4634.26
426.96	4685.75
427.15	4617.88
427.33	4744.27
427.52	4711.50
427.71	4741.93
427.90	4849.59
428.09	4858.95
428.28	4924.49
428.46	4823.84
428.65	4868.31
428.84	5032.15
429.03	5114.07
429.22	5004.07
429.40	5048.54
429.59	5093.01
429.78	4758.31
429.97	4805.12
430.16	4997.04
430.34	5275.57
430.53	5289.61
430.72	5322.38
430.91	5207.69
431.10	5198.33
431.28	5284.93
431.47	5500.26
431.66	5385.57
431.85	5357.49
432.03	5572.82
432.22	5518.98
432.41	5591.54
432.60	5476.85
432.79	5467.49
432.97	5458.13
433.16	5483.88
433.35	5448.77
433.54	5687.50
433.72	5570.48
433.91	5596.22
434.10	5579.84
434.28	5533.03
434.47	5809.21
434.66	5788.14
434.85	5942.62
435.03	5713.25
435.22	5792.83
435.41	6127.52
435.59	6050.28
435.78	5961.34
435.97	6024.54
436.16	6024.54
436.34	5996.45
436.53	6029.22
436.72	6228.17
436.90	5916.87
437.09	6242.21
437.28	6078.37
437.46	6366.26
437.65	6111.14
437.84	6263.27
438.02	6291.36
438.21	6284.34
438.40	6246.89
438.58	6555.84
438.77	6509.03
438.96	6502.01
439.14	6715.00
439.33	6607.33
439.52	6705.63
439.70	6853.09
439.89	6801.60
440.08	6897.56
440.26	6885.86
440.45	6981.82
440.63	7014.59
440.82	7112.89
441.01	7096.50
441.19	7178.42
441.38	7197.15
441.57	7323.54
441.75	7447.58
441.94	7248.64
442.12	7400.77
442.31	7349.28
442.50	7485.03
442.68	7555.25
442.87	7531.84
443.05	7550.57
443.24	7740.15
443.43	7611.42
443.61	7672.28
443.80	7913.35
443.98	7665.25
444.17	7442.90
444.35	7714.41
444.54	7896.97
444.73	7721.43
444.91	7859.52
445.10	7796.32
445.28	7742.49
445.47	7712.07
445.65	7777.60
445.84	7824.41
446.02	7913.35
446.21	7929.74
446.39	7789.30
446.58	7840.79
446.77	7901.65
446.95	7709.72
447.14	7854.84
447.32	7784.62
447.51	7906.33
447.69	7815.05
447.88	8035.06
448.06	7889.95
448.25	7803.35
448.43	7997.61
448.62	7964.84
448.80	8039.74
448.99	8290.18
449.17	8116.98
449.36	8145.06
449.54	8205.92
449.73	8414.23
449.91	8400.18
450.10	8318.26
450.28	8458.70
450.46	8477.42
450.65	8575.72
450.83	8442.31
451.02	8538.27
451.20	8636.58
451.39	8613.17
451.57	8402.52
451.76	8491.46
451.94	8638.92
452.13	8657.64
452.31	8631.90
452.49	8557.00
452.68	8718.50
452.86	8793.39
453.05	8837.86
453.23	8819.14
453.42	8812.12
453.60	8683.39
453.78	8891.70
453.97	8697.43
454.15	8809.78
454.34	8863.61
454.52	9039.15
454.70	8917.44
454.89	9104.68
455.07	8795.73
455.26	9217.03
455.44	9116.39
455.62	9324.69
455.81	9221.71
455.99	9233.41
456.17	9291.93
456.36	9451.08
456.54	9479.17
456.73	9483.85
456.91	9561.09
457.09	9535.34
457.28	9877.06
457.46	9748.33
457.64	9940.26
457.83	9703.86
458.01	9535.34
458.19	10003.45
458.38	9717.90
458.56	9987.07
458.74	10085.37
458.93	10047.92
459.11	9949.62
459.29	9989.41
459.48	10139.20
459.66	10246.87
459.84	10235.16
460.03	10354.53
460.21	10251.55
460.39	10389.64
460.57	10122.82
460.76	10389.64
460.94	10382.62
461.12	10307.72
461.31	10459.85
461.49	10401.34
461.67	10600.29
461.85	10899.87
462.04	10504.32
462.22	11087.12
462.40	10656.46
462.59	10579.22
462.77	10544.11
462.95	10801.57
463.13	10892.85
463.32	10916.26
463.50	10881.15
463.68	10923.28
463.86	10874.13
464.05	11023.92
464.23	10974.77
464.41	11243.93
464.59	11080.10
464.78	11367.98
464.96	11108.18
465.14	10806.25
465.32	11187.76
465.50	11407.77
465.69	11360.96
465.87	11316.49
466.05	11105.84
466.23	11239.25
466.41	11550.54
466.60	11627.78
466.78	11194.78
466.96	11328.19
467.14	11384.37
467.32	11400.75
467.51	11772.89
467.69	11265.00
467.87	11580.97
468.05	11573.95
468.23	11522.46
468.41	11609.06
468.60	11721.40
468.78	11660.55
468.96	11786.94
469.14	11683.95
469.32	12060.78
469.50	11609.06
469.69	11871.20
469.87	12058.44
470.05	12116.95
470.23	12051.42
470.41	12152.06
470.59	12180.15
470.77	12074.82
470.95	12444.63
471.14	12549.95
471.32	12393.14
471.50	12580.38
471.68	12634.21
471.86	12638.89
472.04	12798.05
472.22	12858.90
472.40	12631.87
472.58	12966.57
472.77	12891.67
472.95	13135.09
473.13	13422.97
473.31	13111.68
473.49	12835.50
473.67	13057.85
473.85	13090.62
474.03	13479.15
474.21	13420.63
474.39	13720.22
474.57	13752.99
474.75	13963.64
474.93	14040.87
475.12	14090.02
475.30	14178.97
475.48	13755.33
475.66	14108.75
475.84	14148.54
476.02	14258.54
476.20	14253.86
476.38	14700.90
476.56	14595.58
476.74	14930.28
476.92	14787.50
477.10	14675.16
477.28	15033.26
477.46	14949.00
477.64	15133.90
477.82	15272.00
478.00	15868.83
478.18	15786.91
478.36	15683.93
478.54	15847.77
478.72	15859.47
478.90	16362.69
479.08	16058.42
479.26	16255.02
479.44	16533.54
479.62	16493.76
479.80	16695.04
479.98	16587.38
480.16	17165.49
480.34	17003.99
480.52	17378.48
480.70	17310.60
480.88	16893.99
481.06	17453.37
481.24	17359.75
481.41	17694.45
481.59	17851.27
481.77	18129.79
481.95	18162.56
482.13	18162.56
482.31	18200.01
482.49	18759.39
482.67	18581.51
482.85	18920.89
483.03	18941.96
483.21	19407.72
483.39	19576.24
483.57	19330.48
483.74	19461.55
483.92	19641.78
484.10	19644.12
484.28	20203.50
484.46	20432.88
484.64	20437.56
484.82	20379.04
485.00	20482.03
485.18	21001.63
485.35	21069.50
485.53	21296.53
485.71	21137.38
485.89	22214.02
486.07	21605.49
486.25	21556.33
486.43	21982.31
486.61	22164.87
486.78	22197.64
486.96	22202.32
487.14	22621.28
487.32	22836.61
487.50	22869.37
487.68	22906.82
487.85	23255.56
488.03	23543.45
488.21	23887.51
488.39	23854.74
488.57	24435.19
488.75	24259.65
488.92	24774.57
489.10	24840.11
489.28	24652.86
489.46	25071.82
489.64	24826.06
489.81	25628.87
489.99	25429.92
490.17	25727.17
490.35	25766.96
490.53	25865.26
490.70	26539.33
490.88	26469.12
491.06	26424.65
491.24	26429.33
491.41	26733.60
491.59	27246.18
491.77	26923.18
491.95	27363.20
492.13	27489.59
492.30	27714.28
492.48	27983.44
492.66	27564.49
492.84	27852.38
493.01	28376.66
493.19	28215.16
493.37	29184.14
493.54	28891.57
493.72	29022.64
493.90	29465.00
494.08	29413.51
494.25	29607.78
494.43	29446.28
494.61	29905.02
494.79	30108.65
494.96	29881.62
495.14	30125.04
495.32	30597.82
495.49	30417.60
495.67	30448.03
495.85	31119.76
496.02	31349.14
496.20	31218.07
496.38	31234.45
496.55	31805.54
496.73	32016.19
496.91	32091.09
497.09	32332.16
497.26	32397.70
497.44	32734.73
497.62	32304.07
497.79	33198.16
497.97	32662.18
498.14	33287.10
498.32	33488.38
498.50	33429.87
498.67	34026.71
498.85	33549.24
499.03	33787.97
499.20	33773.93
499.38	34003.30
499.56	34223.31
499.73	34490.13
499.91	34422.26
500.08	34693.76
500.26	34436.30
500.44	34873.98
500.61	34866.96
500.79	34939.52
500.97	35395.92
501.14	35742.32
501.32	35384.22
501.49	35529.33
501.67	35531.67
501.84	35421.67
502.02	35742.32
502.20	35952.97
502.37	36510.02
502.55	36203.41
502.72	36388.31
502.90	36453.84
503.07	36318.09
503.25	36800.24
503.43	36664.49
503.60	37132.60
503.78	37394.74
503.95	37046.00
504.13	37228.56
504.30	37422.83
504.48	37118.56
504.65	37179.41
504.83	37673.26
505.01	38560.33
505.18	37998.60
505.36	38150.73
505.53	38174.14
505.71	38387.13
505.88	38305.21
506.06	38349.68
506.23	38843.53
506.41	38679.69
506.58	38754.59
506.76	39143.12
506.93	39150.14
507.11	39311.64
507.28	39419.30
507.46	39632.29
507.63	39262.49
507.81	39941.24
507.98	39440.37
508.16	40034.86
508.33	39800.81
508.50	39826.56
508.68	39786.77
508.85	40641.06
509.03	40315.73
509.20	40868.09
509.38	40767.45
509.55	40297.00
509.73	41277.69
509.90	40730.00
510.08	40999.16
510.25	40919.59
510.42	41415.78
510.60	41549.19
510.77	41600.68
510.95	42293.48
511.12	41303.43
511.30	41509.40
511.47	41940.06
511.64	42005.59
511.82	42710.10
511.99	42288.80
512.17	42642.22
512.34	42312.20
512.51	42770.95
512.69	42759.25
512.86	42436.25
513.04	43311.61
513.21	42972.24
513.38	43082.24
513.56	43683.76
513.73	43309.27
513.90	42873.93
514.08	43222.67
514.25	43501.20
514.43	43800.79
514.60	43899.09
514.77	43768.02
514.95	44783.81
515.12	43826.53
515.29	44023.14
515.47	44325.07
515.64	44449.11
515.81	44194.00
515.99	44629.34
516.16	44711.25
516.33	45015.52
516.51	45125.53
516.68	44996.80
516.85	44816.58
517.03	45317.45
517.20	45010.84
517.37	45303.41
517.54	45212.13
517.72	45560.87
517.89	45677.90
518.06	45595.98
518.24	45235.53
518.41	45551.51
518.58	45808.96
518.75	45764.49
518.93	45993.87
519.10	45834.71
519.27	46195.15
519.45	46075.79
519.62	45783.22
519.79	46134.30
519.96	46241.96
520.14	46674.96
520.31	46230.26
520.48	46969.87
520.65	46831.78
520.83	47437.98
521.00	47021.36
521.17	46979.23
521.34	47152.43
521.52	46976.89
521.69	47332.65
521.86	47325.63
522.03	47393.51
522.20	47491.81
522.38	47941.19
522.55	47562.03
522.72	47863.96
522.89	47999.71
523.07	48385.89
523.24	48098.01
523.41	48114.39
523.58	47711.82
523.75	48493.56
523.92	48266.53
524.10	48032.47
524.27	48655.06
524.44	48236.10
524.61	48931.24
524.78	48765.06
524.96	48947.62
525.13	48931.24
525.30	48807.19
525.47	49104.44
525.64	49045.93
525.81	49228.49
525.98	49134.87
526.16	49574.89
526.33	49638.08
526.50	49528.08
526.67	49244.87
526.84	48793.15
527.01	49191.04
527.18	49624.04
527.36	49577.23
527.53	49806.60
527.70	49982.14
527.87	50160.02
528.04	49923.63
528.21	50148.32
528.38	49717.66
528.55	49956.39
528.72	50047.68
528.89	50384.71
529.07	50267.69
529.24	50085.12
529.41	50356.63
529.58	50141.30
529.75	50059.38
529.92	50178.75
530.09	50375.35
530.26	50719.41
530.43	50557.91
530.60	50293.43
530.77	50897.29
530.94	50827.07
531.11	50557.91
531.28	50670.26
531.46	50899.63
531.63	50625.79
531.80	51117.30
531.97	51175.81
532.14	51117.30
532.31	50962.82
532.48	51154.75
532.65	51433.27
532.82	51395.82
532.99	51187.52
533.16	51257.73
533.33	51395.82
533.50	51971.60
533.67	51636.90
533.84	51100.92
534.01	51463.70
534.18	51344.33
534.35	51562.00
534.52	51257.73
534.69	51899.04
534.86	51969.26
535.03	51927.13
535.20	51938.83
535.37	51915.42
535.54	52027.77
535.71	51697.75
535.88	52205.65
536.05	52097.98
536.22	52231.40
536.38	52238.42
536.55	52102.67
536.72	52140.11
536.89	52231.40
537.06	52285.23
537.23	52395.23
537.40	52154.16
537.57	52219.69
537.74	52240.76
537.91	52898.45
538.08	52821.21
538.25	52435.02
538.42	52760.36
538.59	52830.57
538.75	52332.04
538.92	52530.98
539.09	52704.18
539.26	52727.59
539.43	52765.04
539.60	52891.43
539.77	53001.43
539.94	53146.54
540.11	52996.75
540.28	52919.51
540.44	52886.74
540.61	52971.00
540.78	52968.66
540.95	53532.73
541.12	53343.15
541.29	52809.51
541.46	53301.02
541.62	53242.51
541.79	53167.61
541.96	53010.79
542.13	52896.11
542.30	53525.71
542.47	53895.52
542.63	53741.04
542.80	53729.34
542.97	54038.29
543.14	53961.05
543.31	53600.61
543.48	53757.42
543.64	54302.77
543.81	53858.07
543.98	54010.20
544.15	54223.19
544.32	54185.74
544.48	54307.45
544.65	53766.79
544.82	53942.33
544.99	53977.43
545.16	54026.59
545.32	53993.82
545.49	54251.28
545.66	54504.06
545.83	54564.91
546.00	54387.03
546.16	54534.48
546.33	54347.24
546.50	54120.21
546.67	54291.07
546.83	54042.97
547.00	54365.96
547.17	54728.75
547.34	54532.14
547.50	55086.85
547.67	55002.59
547.84	54628.10
548.00	54834.07
548.17	54824.71
548.34	54810.67
548.51	55082.17
548.67	54770.88
548.84	54775.56
549.01	54803.64
549.18	54543.84
549.34	54717.04
549.51	54796.62
549.68	54866.84
549.84	55054.08
550.01	55030.68
550.18	55009.61
550.34	55072.81
550.51	55271.75
550.68	55040.04
550.84	54939.39
551.01	55316.22
551.18	55065.78
551.34	54710.02
551.51	55049.40
551.68	54953.44
551.84	55091.53
552.01	55009.61
552.18	55690.71
552.34	55257.71
552.51	55468.36
552.68	55367.71
552.84	55220.26
553.01	55484.74
553.18	55402.82
553.34	55585.38
553.51	55332.60
553.67	55657.94
553.84	55629.85
554.01	55646.24
554.17	55498.78
554.34	55552.62
554.51	55737.52
554.67	55721.13
554.84	55299.84
555.00	55433.25
555.17	55702.41
555.33	55657.94
555.50	55580.70
555.67	55784.33
555.83	55828.80
556.00	55725.81
556.16	55941.14
556.33	55798.37
556.50	55777.31
556.66	55924.76
556.83	55707.09
556.99	55983.27
557.16	56177.54
557.32	56266.48
557.49	56217.33
557.65	55707.09
557.82	55840.50
557.98	56027.74
558.15	56243.07
558.32	55880.29
558.48	56020.72
558.65	56172.86
558.81	56093.28
558.98	56376.48
559.14	56004.34
559.31	56062.85
559.47	56004.34
559.64	56207.97
559.80	56217.33
559.97	56240.73
560.13	56229.03
560.30	56013.70
560.46	56149.45
560.63	56109.66
560.79	56350.74
560.96	56435.00
561.12	56278.18
561.29	56285.20
561.45	56439.68
561.61	56521.60
561.78	56591.81
561.94	56341.38
562.11	56582.45
562.27	56193.92
562.44	56472.45
562.60	56299.25
562.77	56296.91
562.93	56460.74
563.10	56573.09
563.26	56306.27
563.42	56624.58
563.59	56584.79
563.75	56472.45
563.92	56624.58
564.08	56435.00
564.24	56591.81
564.41	56343.72
564.57	56236.05
564.74	56264.14
564.90	56701.82
565.07	56535.64
565.23	56505.21
565.39	56750.97
565.56	56781.40
565.72	56472.45
565.88	56669.05
566.05	56762.67
566.21	56650.33
566.38	56495.85
566.54	56406.91
566.70	56624.58
566.87	56788.42
567.03	56704.16
567.19	56793.10
567.36	56736.93
567.52	56633.94
567.68	57017.79
567.85	56512.23
568.01	56743.95
568.17	56664.37
568.34	56732.25
568.50	56786.08
568.66	56828.21
568.83	57020.13
568.99	56582.45
569.15	56669.05
569.32	56746.29
569.48	56652.67
569.64	56633.94
569.81	56725.22
569.97	56821.19
570.13	56659.69
570.30	56790.76
570.46	56985.02
570.62	56603.52
570.78	56816.50
570.95	56657.35
571.11	56722.88
571.27	56727.56
571.43	56842.25
571.60	56797.78
571.76	56947.57
571.92	56877.36
572.09	56978.00
572.25	56942.89
572.41	56924.17
572.57	56931.19
572.74	56912.47
572.90	56701.82
573.06	56741.61
573.22	56783.74
573.38	56994.39
573.55	56952.26
573.71	57120.77
573.87	57130.14
574.03	56942.89
574.20	56853.95
574.36	56535.64
574.52	56898.42
574.68	56638.62
574.84	56949.92
575.01	57216.74
575.17	56940.55
575.33	56954.60
575.49	57078.64
575.65	57013.11
575.82	57099.71
575.98	57031.83
576.14	57066.94
576.30	57106.73
576.46	56832.89
576.62	56891.40
576.79	56821.19
576.95	56860.97
577.11	56935.87
577.27	57158.22
577.43	56949.92
577.59	56886.72
577.75	56743.95
577.92	56692.46
578.08	56893.74
578.24	56973.32
578.40	56816.50
578.56	57219.08
578.72	56863.32
578.88	57073.96
579.04	57258.87
579.21	56919.49
579.37	57050.56
579.53	57109.07
579.69	56849.27
579.85	57050.56
580.01	57228.44
580.17	56772.03
580.33	57212.06
580.49	57099.71
580.65	57031.83
580.82	57392.28
580.98	57006.09
581.14	57017.79
581.30	57242.48
581.46	56872.68
581.62	56940.55
581.78	56961.62
581.94	56994.39
582.10	56989.70
582.26	56942.89
582.42	57195.67
582.58	57027.15
582.74	56938.21
582.90	57359.51
583.06	57176.95
583.22	57160.56
583.38	56921.83
583.54	57200.35
583.70	56884.38
583.86	56891.40
584.02	56921.83
584.18	57284.61
584.34	57080.98
584.50	57125.46
584.66	57205.03
584.82	57090.35
584.98	56992.04
585.14	56762.67
585.30	56802.46
585.46	56992.04
585.62	56992.04
585.78	57130.14
585.94	56949.92
586.10	57073.96
586.26	57123.11
586.42	57368.87
586.58	57453.13
586.74	57099.71
586.90	57146.52
587.06	57006.09
587.22	57027.15
587.38	56868.00
587.54	57240.14
587.70	57354.83
587.86	57331.42
588.02	57214.40
588.18	57179.29
588.34	57216.74
588.49	57188.65
588.65	57165.24
588.81	57160.56
588.97	57183.97
589.13	57027.15
589.29	57078.64
589.45	57387.60
589.61	57336.10
