SpectraSuite Data File
++++++++++++++++++++++++++++++++++++
Date: Fri Oct 18 13:54:24 GMT-05:00 2013
User: bianchi
Dark Spectrum Present: No
Reference Spectrum Present: No
Number of Sampled Component Spectra: 1
Spectrometers: USB2+H05261
Integration Time (usec): 100000 (USB2+H05261)
Spectra Averaged: 1 (USB2+H05261)
Boxcar Smoothing: 0 (USB2+H05261)
Correct for Electrical Dark: No (USB2+H05261)
Strobe/Lamp Enabled: No (USB2+H05261)
Correct for Detector Non-linearity: No (USB2+H05261)
Correct for Stray Light: No (USB2+H05261)
Number of Pixels in Processed Spectrum: 2048
>>>>>Begin Processed Spectral Data<<<<<
365.73	0.00
365.92	0.00
366.12	0.00
366.32	0.00
366.52	0.00
366.72	0.00
366.91	0.00
367.11	0.00
367.31	0.00
367.51	0.00
367.70	0.00
367.90	0.00
368.10	0.00
368.30	0.00
368.49	0.00
368.69	0.00
368.89	0.00
369.09	0.00
369.28	0.00
369.48	0.00
369.68	0.00
369.87	0.00
370.07	0.00
370.27	0.00
370.47	9.36
370.66	271.50
370.86	215.33
371.06	308.95
371.25	365.12
371.45	311.29
371.65	400.23
371.84	327.68
372.04	290.23
372.24	367.46
372.44	332.36
372.63	334.70
372.83	447.04
373.03	423.64
373.22	411.93
373.42	484.49
373.62	475.13
373.81	475.13
374.01	447.04
374.21	538.32
374.40	472.79
374.60	496.19
374.79	486.83
374.99	465.77
375.19	505.56
375.38	500.87
375.58	463.43
375.78	545.34
375.97	503.22
376.17	613.22
376.37	475.13
376.56	540.66
376.76	489.17
376.95	519.60
377.15	596.84
377.35	519.60
377.54	545.34
377.74	477.47
377.93	498.53
378.13	561.73
378.33	608.54
378.52	543.00
378.72	564.07
378.91	615.56
379.11	594.50
379.31	641.31
379.50	538.32
379.70	631.94
379.89	669.39
380.09	678.76
380.28	610.88
380.48	533.64
380.68	660.03
380.87	629.60
381.07	685.78
381.26	683.44
381.46	622.58
381.65	613.22
381.85	690.46
382.04	725.57
382.24	589.82
382.43	706.84
382.63	772.38
382.83	690.46
383.02	634.29
383.22	688.12
383.41	716.20
383.61	706.84
383.80	786.42
384.00	805.14
384.19	734.93
384.39	805.14
384.58	784.08
384.78	713.86
384.97	861.32
385.17	826.21
385.36	760.67
385.56	844.93
385.75	777.06
385.95	833.23
386.14	882.38
386.34	830.89
386.53	821.53
386.72	851.96
386.92	830.89
387.11	985.37
387.31	802.80
387.50	807.48
387.70	793.44
387.89	763.01
388.09	952.60
388.28	826.21
388.48	814.51
388.67	950.26
388.86	936.21
389.06	933.87
389.25	947.92
389.45	959.62
389.64	877.70
389.84	1046.22
390.03	1053.24
390.22	1013.45
390.42	978.34
390.61	976.00
390.81	1027.50
391.00	1074.31
391.19	1039.20
391.39	992.39
391.58	1078.99
391.78	1067.28
391.97	1041.54
392.16	1053.24
392.36	1076.65
392.55	1086.01
392.75	1130.48
392.94	1156.22
393.13	1219.42
393.33	1125.80
393.52	1137.50
393.71	1111.75
393.91	1135.16
394.10	1076.65
394.29	1177.29
394.49	1137.50
394.68	1139.84
394.88	1128.14
395.07	1329.42
395.26	1193.67
395.46	1200.69
395.65	1207.72
395.84	1193.67
396.04	1324.74
396.23	1357.51
396.42	1385.60
396.62	1357.51
396.81	1411.34
397.00	1322.40
397.19	1380.92
397.39	1259.21
397.58	1404.32
397.77	1409.00
397.97	1425.39
398.16	1352.83
398.35	1434.75
398.55	1437.09
398.74	1483.90
398.93	1519.01
399.12	1481.56
399.32	1394.96
399.51	1416.02
399.70	1521.35
399.90	1533.05
400.09	1638.38
400.28	1593.90
400.47	1568.16
400.67	1629.01
400.86	1631.35
401.05	1586.88
401.24	1696.89
401.44	1643.06
401.63	1694.55
401.82	1657.10
402.01	1631.35
402.21	1706.25
402.40	1743.70
402.59	1699.23
402.78	1785.83
402.97	1902.86
403.17	1874.77
403.36	1870.09
403.55	1816.26
403.74	1912.22
403.93	1921.58
404.13	1998.82
404.32	2024.56
404.51	1959.03
404.70	1956.69
404.89	1914.56
405.09	2029.24
405.28	1994.14
405.47	2045.63
405.66	2012.86
405.85	2019.88
406.05	2092.44
406.24	2108.82
406.43	2118.18
406.62	2120.53
406.81	2246.91
407.00	2183.72
407.20	2054.99
407.39	2132.23
407.58	2209.47
407.77	2347.56
407.96	2326.49
408.15	2319.47
408.34	2228.19
408.54	2363.94
408.73	2377.98
408.92	2387.35
409.11	2506.71
409.30	2408.41
409.49	2443.52
409.68	2476.29
409.87	2480.97
410.07	2462.24
410.26	2483.31
410.45	2541.82
410.64	2619.06
410.83	2757.15
411.02	2649.49
411.21	2595.65
411.40	2717.36
411.59	2539.48
411.78	2703.32
411.98	2773.53
412.17	2839.07
412.36	2815.66
412.55	2928.01
412.74	2967.80
412.93	2848.43
413.12	2923.33
413.31	3052.06
413.50	2970.14
413.69	3052.06
413.88	3141.00
414.07	3096.53
414.26	3213.56
414.45	3272.07
414.64	3274.41
414.83	3288.45
415.02	3393.78
415.22	3398.46
415.41	3496.76
415.60	3419.52
415.79	3531.87
415.98	3487.40
416.17	3569.32
416.36	3569.32
416.55	3562.30
416.74	3646.55
416.93	3571.66
417.12	3646.55
417.31	3641.87
417.50	3653.58
417.69	3723.79
417.88	3815.07
418.07	3868.91
418.26	3819.75
418.45	3967.21
418.64	4009.34
418.83	4009.34
419.02	3971.89
419.21	4180.20
419.39	4067.85
419.58	3817.41
419.77	4009.34
419.96	4060.83
420.15	4065.51
420.34	4060.83
420.53	4128.70
420.72	4210.62
420.91	4248.07
421.10	4346.37
421.29	4369.78
421.48	4238.71
421.67	4418.93
421.86	4229.35
422.05	4440.00
422.24	4400.21
422.43	4428.29
422.61	4526.60
422.80	4564.04
422.99	4304.25
423.18	4524.26
423.37	4538.30
423.56	4650.64
423.75	4451.70
423.94	4383.82
424.13	4222.33
424.32	4355.74
424.50	4638.94
424.69	4723.20
424.88	4578.09
425.07	4442.34
425.26	4451.70
425.45	4468.08
425.64	4484.47
425.83	4437.66
426.01	4779.37
426.20	4641.28
426.39	4617.88
426.58	4624.90
426.77	4585.11
426.96	4638.94
427.15	4657.67
427.33	4671.71
427.52	4826.18
427.71	4767.67
427.90	4674.05
428.09	4793.42
428.28	4990.02
428.46	5001.72
428.65	4865.97
428.84	5015.77
429.03	4924.49
429.22	4870.65
429.40	4973.64
429.59	5076.62
429.78	4891.72
429.97	4819.16
430.16	4910.44
430.34	5132.79
430.53	5214.71
430.72	5221.74
430.91	5027.47
431.10	5057.90
431.28	5270.89
431.47	5357.49
431.66	5322.38
431.85	5132.79
432.03	5511.96
432.22	5561.11
432.41	5504.94
432.60	5404.30
432.79	5427.70
432.97	5554.09
433.16	5556.43
433.35	5458.13
433.54	5458.13
433.72	5647.71
433.91	5533.03
434.10	5600.90
434.28	5596.22
434.47	5701.54
434.66	5753.04
434.85	5636.01
435.03	5846.66
435.22	5776.44
435.41	5874.74
435.59	5872.40
435.78	5827.93
435.97	6043.26
436.16	6150.93
436.34	5886.45
436.53	5902.83
436.72	6113.48
436.90	5996.45
437.09	6235.19
437.28	5888.79
437.46	6047.94
437.65	6122.84
437.84	6223.48
438.02	5954.32
438.21	6228.17
438.40	6162.63
438.58	6464.56
438.77	6473.92
438.96	6284.34
439.14	6576.91
439.33	6576.91
439.52	6672.87
439.70	6743.08
439.89	6712.66
440.08	6649.46
440.26	6782.87
440.45	6839.05
440.63	6951.39
440.82	7173.74
441.01	7007.56
441.19	6991.18
441.38	7000.54
441.57	7173.74
441.75	7222.89
441.94	7403.11
442.12	7445.24
442.31	7667.60
442.50	7410.14
442.68	7445.24
442.87	7346.94
443.05	7414.82
443.24	7714.41
443.43	7541.21
443.61	7606.74
443.80	7723.77
443.98	7482.69
444.17	7307.15
444.35	7494.40
444.54	7700.36
444.73	7702.70
444.91	7606.74
445.10	7641.85
445.28	7414.82
445.47	7592.70
445.65	7728.45
445.84	7602.06
446.02	7845.48
446.21	7667.60
446.39	7712.07
446.58	7815.05
446.77	7875.90
446.95	7723.77
447.14	7822.07
447.32	7908.67
447.51	7824.41
447.69	7646.53
447.88	7786.96
448.06	7747.17
448.25	7779.94
448.43	7878.24
448.62	7894.63
448.80	7770.58
448.99	7936.76
449.17	8002.29
449.36	7896.97
449.54	8149.75
449.73	8318.26
449.91	8336.99
450.10	8067.83
450.28	8416.57
450.46	8407.20
450.65	8201.24
450.83	8280.82
451.02	8304.22
451.20	8636.58
451.39	8650.62
451.57	8479.76
451.76	8346.35
451.94	8596.79
452.13	8819.14
452.31	8512.53
452.49	8503.17
452.68	8557.00
452.86	8627.21
453.05	8704.45
453.23	8882.33
453.42	8610.83
453.60	8599.13
453.78	8887.01
453.97	8606.15
454.15	8599.13
454.34	8915.10
454.52	8809.78
454.70	8945.53
454.89	9008.72
455.07	9034.47
455.26	9055.53
455.44	9064.89
455.62	9231.07
455.81	9114.05
455.99	9235.75
456.17	9231.07
456.36	9392.57
456.54	9296.61
456.73	9371.50
456.91	9612.58
457.09	9556.41
457.28	9624.28
457.46	9320.01
457.64	9525.98
457.83	9762.37
458.01	9479.17
458.19	9743.65
458.38	9846.63
458.56	9886.42
458.74	9872.38
458.93	9785.78
459.11	9877.06
459.29	9708.54
459.48	9956.64
459.66	9928.55
459.84	10125.16
460.03	10139.20
460.21	10015.15
460.39	9982.38
460.57	10249.21
460.76	10186.01
460.94	10303.04
461.12	10228.14
461.31	10239.84
461.49	10410.70
461.67	10326.44
461.85	10532.41
462.04	10576.88
462.22	11030.94
462.40	10569.86
462.59	10427.09
462.77	10724.33
462.95	10752.42
463.13	10663.48
463.32	10633.05
463.50	10721.99
463.68	10665.82
463.86	10946.69
464.05	10670.50
464.23	10911.58
464.41	10993.50
464.59	10642.42
464.78	10993.50
464.96	10860.09
465.14	10707.95
465.32	11236.91
465.50	11098.82
465.69	11026.26
465.87	11075.42
466.05	11080.10
466.23	11187.76
466.41	11358.62
466.60	11492.03
466.78	11089.46
466.96	11105.84
467.14	11014.56
467.32	11073.07
467.51	11356.28
467.69	10916.26
467.87	11660.55
468.05	11454.58
468.23	11487.35
468.41	11379.68
468.60	11569.27
468.78	11793.96
468.96	11396.07
469.14	11716.72
469.32	11901.62
469.50	11541.18
469.69	12088.87
469.87	12030.35
470.05	12131.00
470.23	12241.00
470.41	11836.09
470.59	12013.97
470.77	11941.41
470.95	12182.49
471.14	12428.24
471.32	12119.29
471.50	12587.40
471.68	12430.59
471.86	12381.43
472.04	12624.85
472.22	12772.30
472.40	12748.90
472.58	12657.62
472.77	12755.92
472.95	12695.07
473.13	13268.50
473.31	12945.50
473.49	12940.82
473.67	12950.18
473.85	13121.04
474.03	13252.11
474.21	13228.71
474.39	13404.25
474.57	13434.68
474.75	13708.52
474.93	13774.05
475.12	13689.79
475.30	13788.10
475.48	13862.99
475.66	13752.99
475.84	13827.88
476.02	13879.38
476.20	13834.91
476.38	14202.37
476.56	14401.32
476.74	14501.96
476.92	14387.27
477.10	14609.62
477.28	15035.60
477.46	14750.06
477.64	14710.27
477.82	14911.55
478.00	15356.25
478.18	15377.32
478.36	15473.28
478.54	15555.20
478.72	15871.17
478.90	15995.22
479.08	16081.82
479.26	16325.24
479.44	16044.37
479.62	16484.39
479.80	16421.20
479.98	16659.93
480.16	17137.40
480.34	16863.56
480.52	16950.16
480.70	16835.47
480.88	16861.22
481.06	16985.27
481.24	17338.69
481.41	17497.84
481.59	17619.55
481.77	17701.47
481.95	17940.21
482.13	17893.40
482.31	18129.79
482.49	18539.38
482.67	18106.38
482.85	18473.85
483.03	18602.58
483.21	18892.80
483.39	18981.74
483.57	19213.46
483.74	19278.99
483.92	19183.03
484.10	19611.35
484.28	19936.68
484.46	20247.97
484.64	20409.47
484.82	19978.81
485.00	20353.30
485.18	20765.23
485.35	20968.86
485.53	20917.37
485.71	20868.22
485.89	21710.81
486.07	21383.13
486.25	21575.06
486.43	21474.42
486.61	21832.52
486.78	22097.00
486.96	22263.18
487.14	22429.35
487.32	22771.07
487.50	22661.07
487.68	22934.91
487.85	23122.15
488.03	23171.30
488.21	23854.74
488.39	23784.52
488.57	23747.08
488.75	23838.36
488.92	24278.38
489.10	24423.49
489.28	24350.93
489.46	24807.34
489.64	24477.32
489.81	25238.00
489.99	25446.30
490.17	25521.20
490.35	25556.31
490.53	25504.82
490.70	26001.01
490.88	25736.53
491.06	26115.70
491.24	26422.31
491.41	26487.84
491.59	26361.45
491.77	26548.70
491.95	27297.67
492.13	27201.71
492.30	27321.07
492.48	27232.13
492.66	27538.74
492.84	27402.99
493.01	28065.36
493.19	28353.25
493.37	28694.97
493.54	28240.90
493.72	28589.64
493.90	28835.40
494.08	28783.91
494.25	29270.74
494.43	29202.86
494.61	29867.58
494.79	29558.63
494.96	29312.87
495.14	30174.19
495.32	30354.41
495.49	30183.55
495.67	30253.76
495.85	30890.39
496.02	30703.15
496.20	30654.00
496.38	31061.25
496.55	30897.41
496.73	31920.23
496.91	31887.46
497.09	31559.78
497.26	32247.90
497.44	31604.25
497.62	32243.22
497.79	32725.37
497.97	32226.84
498.14	32947.72
498.32	33261.35
498.50	32624.73
498.67	33371.36
498.85	33230.93
499.03	33523.49
499.20	33383.06
499.38	33743.50
499.56	33792.65
499.73	34024.37
499.91	33998.62
500.08	34321.62
500.26	33958.83
500.44	34419.92
500.61	34511.20
500.79	34604.82
500.97	34749.93
501.14	35140.80
501.32	35037.82
501.49	34726.53
501.67	35356.13
501.84	35304.64
502.02	35302.30
502.20	35929.56
502.37	35665.08
502.55	35585.50
502.72	35793.81
502.90	35913.18
503.07	35892.12
503.25	36201.07
503.43	36187.02
503.60	36254.90
503.78	36587.25
503.95	36914.93
504.13	36950.04
504.30	37024.93
504.48	37043.66
504.65	36849.39
504.83	37670.92
505.01	37635.81
505.18	37266.01
505.36	37717.73
505.53	37457.93
505.71	37773.91
505.88	37818.38
506.06	37502.40
506.23	38227.97
506.41	38452.66
506.58	38763.95
506.76	38457.34
506.93	38794.38
507.11	38389.47
507.28	38417.55
507.46	38677.35
507.63	39138.44
507.81	39133.76
507.98	38962.90
508.16	39342.06
508.33	39440.37
508.50	39676.76
508.68	39814.85
508.85	40175.30
509.03	39782.09
509.20	40423.39
509.38	40182.32
509.55	40170.61
509.73	40023.16
509.90	40332.11
510.08	40048.91
510.25	40758.09
510.42	40999.16
510.60	41460.25
510.77	41326.84
510.95	41298.75
511.12	41104.49
511.30	40980.44
511.47	41137.26
511.64	41743.45
511.82	41624.09
511.99	41741.11
512.17	41626.43
512.34	41207.47
512.51	42398.80
512.69	41717.71
512.86	41984.53
513.04	42719.46
513.21	42459.66
513.38	42597.75
513.56	42808.40
513.73	42347.31
513.90	42831.80
514.08	42499.45
514.25	43140.75
514.43	42794.36
514.60	42864.57
514.77	43487.15
514.95	43739.93
515.12	43091.60
515.29	43215.65
515.47	43768.02
515.64	44170.59
515.81	43812.49
515.99	44109.74
516.16	44402.30
516.33	44348.47
516.51	44816.58
516.68	43981.01
516.85	44545.08
517.03	44760.40
517.20	44390.60
517.37	44575.50
517.54	45045.95
517.72	44940.63
517.89	44690.19
518.06	44495.92
518.24	44945.31
518.41	44739.34
518.58	45397.03
518.75	45301.07
518.93	45748.11
519.10	45792.58
519.27	45617.04
519.45	45380.65
519.62	45701.30
519.79	45923.65
519.96	45705.98
520.14	46113.23
520.31	45832.37
520.48	46316.86
520.65	46204.52
520.83	45794.92
521.00	46363.67
521.17	46646.88
521.34	46340.27
521.52	46368.35
521.69	47138.39
521.86	46988.60
522.03	47016.68
522.20	46862.21
522.38	47185.20
522.55	47161.79
522.72	47449.68
522.89	47126.69
523.07	47428.62
523.24	47320.95
523.41	47641.60
523.58	47543.30
523.75	47533.94
523.92	47452.02
524.10	47805.44
524.27	47899.06
524.44	47980.98
524.61	48196.31
524.78	47870.98
524.96	48519.31
525.13	48147.16
525.30	48231.42
525.47	48404.62
525.64	48348.45
525.81	48631.65
525.98	48851.66
526.16	48804.85
526.33	49078.69
526.50	48729.95
526.67	47927.15
526.84	48856.34
527.01	48786.13
527.18	49240.19
527.36	49097.42
527.53	49422.75
527.70	49638.08
527.87	49614.68
528.04	49045.93
528.21	49584.25
528.38	49109.12
528.55	49507.01
528.72	49696.59
528.89	49535.10
529.07	49879.16
529.24	49511.69
529.41	49986.82
529.58	49558.50
529.75	49858.09
529.92	50042.99
530.09	50047.68
530.26	50064.06
530.43	50103.85
530.60	49900.22
530.77	49675.53
530.94	50220.87
531.11	50024.27
531.28	50103.85
531.46	50192.79
531.63	50351.94
531.80	50639.83
531.97	51161.77
532.14	50763.88
532.31	50738.13
532.48	50698.34
532.65	50621.11
532.82	50443.23
532.99	50806.01
533.16	50590.68
533.33	51262.41
533.50	51349.01
533.67	51168.79
533.84	50925.38
534.01	51065.81
534.18	50972.19
534.35	51339.65
534.52	51236.67
534.69	51540.94
534.86	51533.92
535.03	51430.93
535.20	51526.89
535.37	51669.67
535.54	51587.75
535.71	51370.08
535.88	51496.47
536.05	51566.68
536.22	51681.37
536.38	51889.68
536.55	52156.50
536.72	51941.17
536.89	51442.63
537.06	51587.75
537.23	52032.45
537.40	51580.73
537.57	51784.35
537.74	51913.08
537.91	52458.43
538.08	52116.71
538.25	51887.34
538.42	52226.71
538.59	52285.23
538.75	51838.18
538.92	52425.66
539.09	52463.11
539.26	52500.56
539.43	52495.88
539.60	52666.73
539.77	52453.75
539.94	52680.78
540.11	52753.33
540.28	52552.05
540.44	52568.43
540.61	52428.00
540.78	52659.71
540.95	52619.92
541.12	52587.16
541.29	52816.53
541.46	52891.43
541.62	52856.32
541.79	52982.71
541.96	52879.72
542.13	53008.45
542.30	52928.87
542.47	53324.43
542.63	52903.13
542.80	53118.46
542.97	53303.36
543.14	53228.46
543.31	53200.38
543.48	53312.72
543.64	53687.21
543.81	53633.38
543.98	53605.29
544.15	53549.12
544.32	53504.65
544.48	53895.52
544.65	53645.08
544.82	53595.93
544.99	53385.28
545.16	53703.59
545.32	53628.69
545.49	54038.29
545.66	54099.14
545.83	54178.72
546.00	53954.03
546.16	54164.68
546.33	53914.24
546.50	53497.62
546.67	53815.94
546.83	53528.05
547.00	54045.31
547.17	54288.73
547.34	54164.68
547.50	54092.12
547.67	54328.52
547.84	54389.37
548.00	54422.14
548.17	54351.92
548.34	54323.83
548.51	54614.06
548.67	54337.88
548.84	54480.65
549.01	54368.30
549.18	54464.27
549.34	54724.07
549.51	54461.93
549.68	54534.48
549.84	54480.65
550.01	54494.69
550.18	54728.75
550.34	54660.87
550.51	54726.41
550.68	54738.11
550.84	54522.78
551.01	54939.39
551.18	54438.52
551.34	54408.09
551.51	54726.41
551.68	54719.38
551.84	54642.15
552.01	54822.37
552.18	54997.91
552.34	54841.09
552.51	54651.51
552.68	54553.21
552.84	54930.03
553.01	55154.72
553.18	54946.42
553.34	55157.06
553.51	55110.25
553.67	55309.20
553.84	55344.31
554.01	55227.28
554.17	55348.99
554.34	55168.77
554.51	55262.39
554.67	55264.73
554.84	55320.90
555.00	55262.39
555.17	55522.19
555.33	55372.39
555.50	55178.13
555.67	55093.87
555.83	55161.75
556.00	55444.95
556.16	55653.26
556.33	55356.01
556.50	55400.48
556.66	55501.12
556.83	55255.37
556.99	55739.86
557.16	55894.33
557.32	55814.76
557.49	55524.53
557.65	55451.97
557.82	55592.40
557.98	55627.51
558.15	55393.46
558.32	55611.13
558.48	55653.26
558.65	55753.90
558.81	55735.18
558.98	55728.16
559.14	55702.41
559.31	55412.18
559.47	55594.74
559.64	55922.42
559.80	55571.34
559.97	55887.31
560.13	55627.51
560.30	55854.54
560.46	56072.21
560.63	55873.27
560.79	55957.53
560.96	55875.61
561.12	55564.32
561.29	55924.76
561.45	55931.78
561.61	55955.19
561.78	55894.33
561.94	55924.76
562.11	55978.59
562.27	55999.66
562.44	56123.71
562.60	55917.74
562.77	55807.73
562.93	55664.96
563.10	56161.15
563.26	55938.80
563.42	56205.62
563.59	56081.58
563.75	56390.53
563.92	56198.60
564.08	55875.61
564.24	55999.66
564.41	56161.15
564.57	56039.45
564.74	56149.45
564.90	56168.18
565.07	56285.20
565.23	56308.61
565.39	56210.31
565.56	56303.93
565.72	56184.56
565.88	56378.82
566.05	56200.94
566.21	55868.59
566.38	56170.52
566.54	56032.42
566.70	56435.00
566.87	56397.55
567.03	56374.14
567.19	56456.06
567.36	56453.72
567.52	56214.99
567.68	56395.21
567.85	56135.41
568.01	56320.31
568.17	56076.90
568.34	56474.79
568.50	56210.31
568.66	56350.74
568.83	56507.55
568.99	56268.82
569.15	56200.94
569.32	56315.63
569.48	56032.42
569.64	56264.14
569.81	56257.12
569.97	56016.04
570.13	56395.21
570.30	56369.46
570.46	56435.00
570.62	56292.22
570.78	56289.88
570.95	56364.78
571.11	56324.99
571.27	56259.46
571.43	56243.07
571.60	56367.12
571.76	56261.80
571.92	56687.78
572.09	56385.85
572.25	56640.96
572.41	56556.70
572.57	56507.55
572.74	56603.52
572.90	56470.11
573.06	56418.61
573.22	56491.17
573.38	56734.59
573.55	56449.04
573.71	56678.41
573.87	56633.94
574.03	56346.06
574.20	56552.02
574.36	56516.92
574.52	56439.68
574.68	56430.32
574.84	56409.25
575.01	56479.47
575.17	56442.02
575.33	56559.05
575.49	56451.38
575.65	56699.48
575.82	56528.62
575.98	56399.89
576.14	56741.61
576.30	56596.49
576.46	56308.61
576.62	56432.66
576.79	56673.73
576.95	56423.29
577.11	56456.06
577.27	56692.46
577.43	56556.70
577.59	56420.95
577.75	56577.77
577.92	56451.38
578.08	56432.66
578.24	56278.18
578.40	56559.05
578.56	56582.45
578.72	56659.69
578.88	56624.58
579.04	56666.71
579.21	56507.55
579.37	56732.25
579.53	56612.88
579.69	56406.91
579.85	56444.36
580.01	56456.06
580.17	56512.23
580.33	56488.83
580.49	56647.99
580.65	56568.41
580.82	56713.52
580.98	56629.26
581.14	56746.29
581.30	56769.69
581.46	56336.69
581.62	56591.81
581.78	56416.27
581.94	56594.15
582.10	56512.23
582.26	56573.09
582.42	56554.36
582.58	56882.04
582.74	56542.66
582.90	57020.13
583.06	57013.11
583.22	56399.89
583.38	56458.40
583.54	56535.64
583.70	56647.99
583.86	56573.09
584.02	56334.35
584.18	56596.49
584.34	56765.01
584.50	56844.59
584.66	56570.75
584.82	56493.51
584.98	56659.69
585.14	56533.30
585.30	56367.12
585.46	56568.41
585.62	56655.01
585.78	56769.69
585.94	56413.93
586.10	56652.67
586.26	56537.98
586.42	56940.55
586.58	56982.68
586.74	56753.31
586.90	56472.45
587.06	56573.09
587.22	56769.69
587.38	56591.81
587.54	56690.12
587.70	57090.35
587.86	56875.02
588.02	56935.87
588.18	56697.14
588.34	56734.59
588.49	56697.14
588.65	56650.33
588.81	56411.59
588.97	56865.66
589.13	56701.82
589.29	56690.12
589.45	56804.80
589.61	57113.75
