SpectraSuite Data File
++++++++++++++++++++++++++++++++++++
Date: Fri Oct 18 13:54:40 GMT-05:00 2013
User: bianchi
Dark Spectrum Present: No
Reference Spectrum Present: No
Number of Sampled Component Spectra: 1
Spectrometers: USB2+H05261
Integration Time (usec): 100000 (USB2+H05261)
Spectra Averaged: 1 (USB2+H05261)
Boxcar Smoothing: 0 (USB2+H05261)
Correct for Electrical Dark: No (USB2+H05261)
Strobe/Lamp Enabled: No (USB2+H05261)
Correct for Detector Non-linearity: No (USB2+H05261)
Correct for Stray Light: No (USB2+H05261)
Number of Pixels in Processed Spectrum: 2048
>>>>>Begin Processed Spectral Data<<<<<
365.73	0.00
365.92	0.00
366.12	0.00
366.32	0.00
366.52	0.00
366.72	0.00
366.91	0.00
367.11	0.00
367.31	0.00
367.51	0.00
367.70	0.00
367.90	0.00
368.10	0.00
368.30	0.00
368.49	0.00
368.69	0.00
368.89	0.00
369.09	0.00
369.28	0.00
369.48	0.00
369.68	0.00
369.87	0.00
370.07	0.00
370.27	0.00
370.47	35.11
370.66	301.93
370.86	266.82
371.06	344.06
371.25	421.30
371.45	402.57
371.65	322.99
371.84	379.17
372.04	365.12
372.24	386.19
372.44	346.40
372.63	437.68
372.83	465.77
373.03	472.79
373.22	414.27
373.42	397.89
373.62	344.06
373.81	404.91
374.01	477.47
374.21	428.32
374.40	521.94
374.60	521.94
374.79	533.64
374.99	416.62
375.19	517.26
375.38	531.30
375.58	477.47
375.78	638.97
375.97	531.30
376.17	606.20
376.37	533.64
376.56	566.41
376.76	533.64
376.95	505.56
377.15	575.77
377.35	543.00
377.54	620.24
377.74	573.43
377.93	543.00
378.13	528.96
378.33	622.58
378.52	540.66
378.72	589.82
378.91	667.05
379.11	568.75
379.31	554.71
379.50	669.39
379.70	634.29
379.89	692.80
380.09	645.99
380.28	615.56
380.48	676.41
380.68	519.60
380.87	636.63
381.07	678.76
381.26	741.95
381.46	716.20
381.65	657.69
381.85	631.94
382.04	774.72
382.24	751.31
382.43	713.86
382.63	809.83
382.83	667.05
383.02	748.97
383.22	692.80
383.41	709.18
383.61	741.95
383.80	758.33
384.00	734.93
384.19	702.16
384.39	826.21
384.58	863.66
384.78	772.38
384.97	730.25
385.17	814.51
385.36	620.24
385.56	765.36
385.75	741.95
385.95	805.14
386.14	828.55
386.34	809.83
386.53	877.70
386.72	784.08
386.92	889.40
387.11	877.70
387.31	828.55
387.50	788.76
387.70	863.66
387.89	896.43
388.09	990.05
388.28	973.66
388.48	802.80
388.67	973.66
388.86	823.87
389.06	833.23
389.25	957.28
389.45	1018.13
389.64	1001.75
389.84	950.26
390.03	1032.18
390.22	1062.60
390.42	947.92
390.61	994.73
390.81	964.30
391.00	1109.41
391.19	1020.47
391.39	976.00
391.58	1055.58
391.78	1064.94
391.97	1039.20
392.16	1067.28
392.36	1235.80
392.55	1184.31
392.75	1181.97
392.94	1109.41
393.13	1256.87
393.33	1139.84
393.52	1177.29
393.71	1172.61
393.91	1160.91
394.10	1174.95
394.29	1350.49
394.49	1240.48
394.68	1301.34
394.88	1287.29
395.07	1226.44
395.26	1242.82
395.46	1184.31
395.65	1348.15
395.84	1308.36
396.04	1366.87
396.23	1245.16
396.42	1296.66
396.62	1392.62
396.81	1420.71
397.00	1315.38
397.19	1462.83
397.39	1444.11
397.58	1411.34
397.77	1385.60
397.97	1455.81
398.16	1444.11
398.35	1495.60
398.55	1526.03
398.74	1474.54
398.93	1533.05
399.12	1465.18
399.32	1418.36
399.51	1589.22
399.70	1465.18
399.90	1481.56
400.09	1605.61
400.28	1568.16
400.47	1631.35
400.67	1708.59
400.86	1647.74
401.05	1687.53
401.24	1547.09
401.44	1680.50
401.63	1692.21
401.82	1792.85
402.01	1774.13
402.21	1811.57
402.40	1837.32
402.59	1708.59
402.78	1900.52
402.97	1769.44
403.17	1774.13
403.36	1860.73
403.55	1909.88
403.74	1954.35
403.93	1891.15
404.13	1935.62
404.32	1982.43
404.51	1947.33
404.70	2017.54
404.89	1942.64
405.09	2160.31
405.28	1987.11
405.47	2062.01
405.66	2176.70
405.85	2120.53
406.05	1982.43
406.24	2059.67
406.43	2214.15
406.62	2277.34
406.81	2169.68
407.00	2139.25
407.20	2239.89
407.39	2165.00
407.58	2204.78
407.77	2289.04
407.96	2328.83
408.15	2307.77
408.34	2305.43
408.54	2317.13
408.73	2319.47
408.92	2366.28
409.11	2471.61
409.30	2597.99
409.49	2417.77
409.68	2513.74
409.87	2469.27
410.07	2534.80
410.26	2612.04
410.45	2567.57
410.64	2586.29
410.83	2693.96
411.02	2633.10
411.21	2717.36
411.40	2654.17
411.59	2743.11
411.78	2717.36
411.98	2796.94
412.17	2839.07
412.36	2911.63
412.55	2888.22
412.74	2979.50
412.93	2953.76
413.12	2897.58
413.31	3138.66
413.50	3138.66
413.69	3178.45
413.88	3129.30
414.07	3141.00
414.26	3318.88
414.45	3206.53
414.64	3150.36
414.83	3314.20
415.02	3361.01
415.22	3400.80
415.41	3410.16
415.60	3496.76
415.79	3541.23
415.98	3412.50
416.17	3300.16
416.36	3520.17
416.55	3590.38
416.74	3599.74
416.93	3660.60
417.12	3698.05
417.31	3805.71
417.50	3693.37
417.69	3831.46
417.88	3871.25
418.07	3789.33
418.26	3887.63
418.45	3866.56
418.64	3927.42
418.83	4070.19
419.02	4086.58
419.21	4049.13
419.39	4016.36
419.58	3990.61
419.77	4238.71
419.96	4154.45
420.15	4250.41
420.34	3929.76
420.53	4109.98
420.72	4322.97
420.91	4163.81
421.10	4229.35
421.29	4388.50
421.48	4269.14
421.67	4557.02
421.86	4266.80
422.05	4423.61
422.24	4341.69
422.43	4451.70
422.61	4503.19
422.80	4440.00
422.99	4383.82
423.18	4489.15
423.37	4613.20
423.56	4585.11
423.75	4615.54
423.94	4601.49
424.13	4175.52
424.32	4299.56
424.50	4571.07
424.69	4601.49
424.88	4704.48
425.07	4479.79
425.26	4535.96
425.45	4491.49
425.64	4620.22
425.83	4484.47
426.01	4767.67
426.20	4634.26
426.39	4685.75
426.58	4676.39
426.77	4664.69
426.96	4765.33
427.15	4660.01
427.33	4779.37
427.52	4741.93
427.71	4940.87
427.90	4917.47
428.09	4842.57
428.28	4943.21
428.46	4947.89
428.65	4887.04
428.84	4940.87
429.03	5123.43
429.22	4968.96
429.40	5266.21
429.59	5125.77
429.78	4835.55
429.97	4849.59
430.16	5048.54
430.34	5139.82
430.53	5261.52
430.72	5352.81
430.91	5228.76
431.10	5226.42
431.28	5289.61
431.47	5350.46
431.66	5348.12
431.85	5313.02
432.03	5401.96
432.22	5827.93
432.41	5423.02
432.60	5612.60
432.79	5392.59
432.97	5556.43
433.16	5598.56
433.35	5659.42
433.54	5799.85
433.72	5708.57
433.91	5584.52
434.10	5703.89
434.28	5713.25
434.47	5825.59
434.66	5811.55
434.85	5919.21
435.03	5785.80
435.22	5856.02
435.41	6071.35
435.59	5966.03
435.78	5916.87
435.97	6001.13
436.16	6094.76
436.34	6099.44
436.53	6012.84
436.72	6099.44
436.90	5907.51
437.09	6155.61
437.28	6094.76
437.46	6181.35
437.65	6148.59
437.84	6258.59
438.02	6345.19
438.21	6366.26
438.40	6321.79
438.58	6497.33
438.77	6417.75
438.96	6429.45
439.14	6656.48
439.33	6644.78
439.52	6813.30
439.70	6904.58
439.89	6822.66
440.08	6867.13
440.26	7002.88
440.45	6958.41
440.63	7136.29
440.82	6916.28
441.01	7105.87
441.19	6988.84
441.38	7232.26
441.57	7077.78
441.75	7164.38
441.94	7272.04
442.12	7314.17
442.31	7672.28
442.50	7375.03
442.68	7386.73
442.87	7438.22
443.05	7616.10
443.24	7478.01
443.43	7707.38
443.61	7688.66
443.80	7868.88
443.98	7466.31
444.17	7377.37
444.35	7672.28
444.54	7899.31
444.73	7983.57
444.91	7908.67
445.10	7756.54
445.28	7705.04
445.47	7651.21
445.65	7758.88
445.84	7936.76
446.02	8044.42
446.21	7831.43
446.39	7772.92
446.58	7836.11
446.77	7817.39
446.95	7889.95
447.14	7791.64
447.32	7964.84
447.51	7793.98
447.69	7915.69
447.88	7875.90
448.06	7857.18
448.25	7896.97
448.43	7997.61
448.62	7969.52
448.80	7913.35
448.99	8166.13
449.17	8140.38
449.36	8018.68
449.54	8138.04
449.73	8444.65
449.91	8269.11
450.10	7985.91
450.28	8594.45
450.46	8369.76
450.65	8468.06
450.83	8655.30
451.02	8594.45
451.20	8664.66
451.39	8500.83
451.57	8418.91
451.76	8353.37
451.94	8769.99
452.13	8842.54
452.31	8690.41
452.49	8601.47
452.68	8641.26
452.86	8793.39
453.05	8982.98
453.23	9074.26
453.42	8573.38
453.60	8769.99
453.78	8950.21
453.97	8732.54
454.15	8875.31
454.34	8830.84
454.52	8997.02
454.70	9029.79
454.89	9256.82
455.07	8926.80
455.26	9153.84
455.44	9231.07
455.62	9128.09
455.81	9135.11
455.99	9228.73
456.17	9207.67
456.36	9268.52
456.54	9497.89
456.73	9540.02
456.91	9858.34
457.09	9710.88
457.28	9797.48
457.46	9593.86
457.64	9858.34
457.83	9921.53
458.01	9680.46
458.19	9811.53
458.38	9909.83
458.56	10209.42
458.74	9825.57
458.93	9874.72
459.11	9970.68
459.29	9860.68
459.48	10153.24
459.66	10162.61
459.84	10136.86
460.03	10319.42
460.21	10092.39
460.39	10340.49
460.57	10141.54
460.76	10509.01
460.94	10520.71
461.12	10410.70
461.31	10342.83
461.49	10284.31
461.67	10511.35
461.85	10614.33
462.04	10434.11
462.22	11272.02
462.40	10836.68
462.59	10855.40
462.77	10597.95
462.95	10967.75
463.13	10782.85
463.32	10714.97
463.50	10874.13
463.68	10972.43
463.86	10902.22
464.05	10745.40
464.23	11063.71
464.41	11037.97
464.59	10703.27
464.78	11002.86
464.96	11192.44
465.14	10902.22
465.32	11239.25
465.50	11524.80
465.69	11367.98
465.87	11143.29
466.05	11222.87
466.23	11250.96
466.41	11253.30
466.60	11688.64
466.78	11248.61
466.96	11389.05
467.14	11225.21
467.32	11599.70
467.51	11648.85
467.69	11190.10
467.87	11499.05
468.05	11777.58
468.23	11531.82
468.41	11510.75
468.60	11796.30
468.78	11852.47
468.96	11688.64
469.14	12002.27
469.32	12322.92
469.50	11459.26
469.69	12018.65
469.87	12044.40
470.05	12318.24
470.23	12348.67
470.41	12128.66
470.59	12212.92
470.77	12212.92
470.95	12458.67
471.14	12439.95
471.32	12496.12
471.50	12732.51
471.68	12657.62
471.86	12802.73
472.04	12767.62
472.22	12861.24
472.40	12620.17
472.58	12826.14
472.77	12901.03
472.95	13137.43
473.13	13415.95
473.31	13139.77
473.49	12985.29
473.67	13240.41
473.85	13083.59
474.03	13549.36
474.21	13537.66
474.39	13540.00
474.57	13703.84
474.75	13933.21
474.93	13928.53
475.12	13886.40
475.30	13832.57
475.48	13823.20
475.66	14047.90
475.84	14015.13
476.02	14225.78
476.20	14246.84
476.38	14813.25
476.56	14813.25
476.74	14899.85
476.92	14799.21
477.10	14630.69
477.28	14750.06
477.46	14977.09
477.64	14846.02
477.82	15335.19
478.00	15597.33
478.18	15625.42
478.36	15833.72
478.54	15925.00
478.72	16009.26
478.90	15953.09
479.08	16184.80
479.26	16135.65
479.44	16343.96
479.62	16552.27
479.80	16580.36
479.98	16812.07
480.16	16945.48
480.34	16889.31
480.52	17362.09
480.70	17455.72
480.88	17048.46
481.06	17458.06
481.24	17128.04
481.41	17514.23
481.59	18207.03
481.77	18129.79
481.95	18169.58
482.13	18216.39
482.31	18225.75
482.49	18616.62
482.67	18567.47
482.85	18611.94
483.03	19152.60
483.21	19606.67
483.39	19222.82
483.57	19164.31
483.74	19726.04
483.92	19616.03
484.10	19386.66
484.28	20414.15
484.46	20322.87
484.64	20858.85
484.82	20273.72
485.00	20449.26
485.18	21013.33
485.35	21287.17
485.53	21392.50
485.71	21277.81
485.89	22141.47
486.07	21799.75
486.25	21720.17
486.43	22122.74
486.61	22101.68
486.78	22511.27
486.96	22356.80
487.14	22822.56
487.32	22799.16
487.50	23175.98
487.68	23133.86
487.85	23517.70
488.03	23597.28
488.21	23840.70
488.39	23992.83
488.57	24311.14
488.75	24229.23
488.92	24580.31
489.10	24751.17
489.28	24814.36
489.46	24926.71
489.64	25127.99
489.81	25348.00
489.99	25577.37
490.17	25568.01
490.35	25947.18
490.53	26024.42
490.70	26106.34
490.88	26143.78
491.06	26792.11
491.24	26565.08
491.41	26888.07
491.59	27201.71
491.77	26850.63
491.95	27274.26
492.13	27494.27
492.30	27461.51
492.48	27655.77
492.66	27962.38
492.84	27711.94
493.01	28322.82
493.19	27995.15
493.37	28809.65
493.54	28519.43
493.72	28830.72
493.90	29628.84
494.08	29280.10
494.25	29771.61
494.43	29600.76
494.61	30089.93
494.79	29572.67
494.96	29958.86
495.14	30316.96
495.32	30637.61
495.49	30525.27
495.67	30740.60
495.85	31058.91
496.02	31440.42
496.20	31400.63
496.38	31248.49
496.55	31332.75
496.73	32297.05
496.91	31569.15
497.09	31873.42
497.26	32219.81
497.44	32084.06
497.62	32109.81
497.79	32795.59
497.97	32531.11
498.14	32723.03
498.32	33546.90
498.50	33479.02
498.67	33315.19
498.85	33694.35
499.03	33434.55
499.20	33790.31
499.38	33937.77
499.56	34139.05
499.73	34314.59
499.91	34354.38
500.08	34462.05
500.26	34593.12
500.44	34494.82
500.61	34995.69
500.79	34927.81
500.97	35388.90
501.14	35742.32
501.32	35412.31
501.49	35812.54
501.67	35314.00
501.84	35840.62
502.02	35674.45
502.20	35971.69
502.37	36491.29
502.55	36154.26
502.72	36297.03
502.90	36318.09
503.07	36058.29
503.25	36556.83
503.43	36500.65
503.60	36865.78
503.78	37046.00
503.95	37076.43
504.13	37172.39
504.30	37460.27
504.48	36833.01
504.65	37778.59
504.83	38024.34
505.01	38185.84
505.18	38106.26
505.36	38335.63
505.53	37816.04
505.71	38408.19
505.88	38120.31
506.06	38085.20
506.23	38799.06
506.41	38653.95
506.58	38974.60
506.76	38621.18
506.93	39042.48
507.11	39171.21
507.28	39264.83
507.46	39077.58
507.63	39770.38
507.81	40259.55
507.98	39555.05
508.16	39459.09
508.33	39686.12
508.50	39524.63
508.68	40053.59
508.85	40381.26
509.03	40425.73
509.20	40687.87
509.38	40865.75
509.55	41228.54
509.73	40942.99
509.90	41069.38
510.08	41034.27
510.25	41268.33
510.42	41708.35
510.60	41429.82
510.77	41666.22
510.95	41558.55
511.12	41544.51
511.30	41394.71
511.47	41818.35
511.64	41951.76
511.82	42333.27
511.99	42373.06
512.17	42422.21
512.34	42342.63
512.51	42885.64
512.69	42232.63
512.86	42511.15
513.04	43063.52
513.21	43002.66
513.38	42918.40
513.56	43154.80
513.73	43117.35
513.90	43627.59
514.08	43107.99
514.25	43672.06
514.43	43438.00
514.60	43812.49
514.77	43962.28
514.95	44158.89
515.12	43817.17
515.29	43786.74
515.47	44098.03
515.64	44601.25
515.81	44514.65
515.99	44397.62
516.16	44971.05
516.33	44554.44
516.51	44502.95
516.68	44659.76
516.85	44776.79
517.03	44996.80
517.20	44971.05
517.37	45177.02
517.54	45542.14
517.72	45214.47
517.89	45041.27
518.06	45359.58
518.24	45799.60
518.41	45277.66
518.58	45759.81
518.75	46213.88
518.93	45900.25
519.10	46167.07
519.27	46351.97
519.45	46150.68
519.62	46136.64
519.79	46129.62
519.96	46586.02
520.14	46679.64
520.31	46534.53
520.48	47065.83
520.65	46995.62
520.83	46515.81
521.00	47241.37
521.17	46920.72
521.34	46993.28
521.52	47281.16
521.69	47189.88
521.86	47281.16
522.03	47531.60
522.20	47552.66
522.38	47819.49
522.55	47648.63
522.72	47622.88
522.89	47604.16
523.07	48390.58
523.24	47941.19
523.41	48353.13
523.58	47971.62
523.75	47938.85
523.92	48184.61
524.10	48128.44
524.27	48058.22
524.44	48428.02
524.61	48622.29
524.78	48638.67
524.96	49127.84
525.13	48982.73
525.30	48767.40
525.47	48912.52
525.64	48531.01
525.81	49085.72
525.98	49244.87
526.16	49188.70
526.33	49088.06
526.50	49586.59
526.67	49275.30
526.84	49141.89
527.01	49148.91
527.18	49284.66
527.36	49900.22
527.53	49736.38
527.70	50141.30
527.87	50197.47
528.04	49647.44
528.21	49755.11
528.38	49804.26
528.55	49937.67
528.72	50316.84
528.89	50190.45
529.07	49984.48
529.24	50183.43
529.41	50284.07
529.58	50445.57
529.75	50302.79
529.92	50499.40
530.09	50445.57
530.26	50665.58
530.43	50522.80
530.60	50630.47
530.77	50326.20
530.94	50639.83
531.11	50611.74
531.28	50773.24
531.46	50674.94
531.63	51138.36
531.80	51164.11
531.97	50962.82
532.14	51393.48
532.31	50813.03
532.48	50815.37
532.65	51152.41
532.82	51028.36
532.99	51229.65
533.16	50756.86
533.33	51323.27
533.50	51379.44
533.67	51601.79
533.84	51452.00
534.01	51632.22
534.18	51367.74
534.35	51672.01
534.52	51660.30
534.69	51819.46
534.86	51936.49
535.03	51725.84
535.20	52046.49
535.37	52023.09
535.54	51924.78
535.71	51796.06
535.88	51744.56
536.05	52032.45
536.22	52154.16
536.38	52343.74
536.55	52203.31
536.72	52067.56
536.89	52282.89
537.06	52142.45
537.23	52409.28
537.40	52334.38
537.57	52193.95
537.74	52259.48
537.91	52547.37
538.08	52554.39
538.25	52254.80
538.42	52538.01
538.59	52846.96
538.75	52336.72
538.92	52638.65
539.09	52748.65
539.26	52500.56
539.43	53078.67
539.60	53022.50
539.77	52945.26
539.94	52928.87
540.11	53043.56
540.28	52980.37
540.44	52687.80
540.61	52870.36
540.78	52823.55
540.95	53289.32
541.12	52903.13
541.29	53090.37
541.46	53015.47
541.62	53155.91
541.79	53432.09
541.96	52837.59
542.13	53265.91
542.30	53212.08
542.47	53553.80
542.63	53577.20
542.80	53708.27
542.97	53778.49
543.14	53921.26
543.31	53476.56
543.48	53853.39
543.64	53996.16
543.81	54202.13
543.98	54089.78
544.15	54085.10
544.32	54169.36
544.48	54232.55
544.65	53879.13
544.82	53813.60
544.99	53773.81
545.16	54003.18
545.32	53890.83
545.49	54380.01
545.66	54475.97
545.83	54520.44
546.00	54443.20
546.16	54649.17
546.33	54270.00
546.50	54047.65
546.67	54234.89
546.83	54248.94
547.00	54316.81
547.17	54291.07
547.34	54382.35
547.50	54438.52
547.67	54724.07
547.84	54665.55
548.00	54698.32
548.17	54649.17
548.34	54616.40
548.51	55061.10
548.67	55114.94
548.84	54871.52
549.01	54490.01
549.18	54761.51
549.34	54719.38
549.51	54742.79
549.68	54885.56
549.84	54611.72
550.01	55054.08
550.18	54749.81
550.34	55000.25
550.51	55182.81
550.68	55199.19
550.84	54766.20
551.01	55210.90
551.18	54845.77
551.34	54674.91
551.51	54925.35
551.68	55164.09
551.84	55016.63
552.01	55082.17
552.18	55182.81
552.34	55285.79
552.51	55407.50
552.68	55131.32
552.84	55215.58
553.01	55433.25
553.18	55463.67
553.34	55679.00
553.51	55571.34
553.67	55592.40
553.84	55702.41
554.01	55428.57
554.17	55224.94
554.34	55348.99
554.51	55566.66
554.67	55805.39
554.84	55653.26
555.00	55646.24
555.17	55702.41
555.33	55746.88
555.50	55730.50
555.67	55592.40
555.83	55791.35
556.00	55725.81
556.16	55973.91
556.33	55749.22
556.50	55552.62
556.66	56182.22
556.83	55821.78
556.99	55945.83
557.16	56203.28
557.32	56067.53
557.49	56046.47
557.65	55835.82
557.82	55779.65
557.98	55803.05
558.15	56055.83
558.32	56039.45
558.48	55870.93
558.65	56219.67
558.81	56046.47
558.98	56182.22
559.14	56245.41
559.31	55920.08
559.47	56037.11
559.64	56104.98
559.80	56154.13
559.97	56278.18
560.13	56016.04
560.30	56348.40
560.46	56081.58
560.63	56229.03
560.79	56350.74
560.96	56224.35
561.12	56435.00
561.29	56282.86
561.45	56175.20
561.61	56353.08
561.78	56353.08
561.94	56306.27
562.11	56647.99
562.27	56294.56
562.44	56236.05
562.60	56163.50
562.77	56322.65
562.93	56236.05
563.10	56453.72
563.26	56556.70
563.42	56587.13
563.59	56556.70
563.75	56491.17
563.92	56554.36
564.08	56479.47
564.24	56481.81
564.41	56182.22
564.57	56324.99
564.74	56507.55
564.90	56619.90
565.07	56601.18
565.23	56589.47
565.39	56741.61
565.56	56470.11
565.72	56353.08
565.88	56481.81
566.05	56633.94
566.21	56278.18
566.38	56315.63
566.54	56563.73
566.70	56633.94
566.87	56638.62
567.03	56739.27
567.19	56807.14
567.36	56769.69
567.52	56598.83
567.68	56718.20
567.85	56671.39
568.01	56732.25
568.17	56664.37
568.34	56418.61
568.50	56912.47
568.66	56521.60
568.83	56856.29
568.99	56772.03
569.15	56795.44
569.32	56706.50
569.48	56636.28
569.64	56699.48
569.81	56811.82
569.97	56481.81
570.13	57015.45
570.30	56746.29
570.46	56872.68
570.62	56875.02
570.78	56643.30
570.95	56526.28
571.11	56858.63
571.27	56587.13
571.43	56676.07
571.60	56783.74
571.76	56811.82
571.92	56856.29
572.09	56999.07
572.25	56860.97
572.41	56889.06
572.57	56823.53
572.74	57020.13
572.90	56692.46
573.06	56788.42
573.22	56823.53
573.38	56992.04
573.55	56783.74
573.71	57088.01
573.87	57076.30
574.03	57034.17
574.20	56910.13
574.36	56830.55
574.52	56713.52
574.68	56783.74
574.84	56914.81
575.01	56774.37
575.17	57109.07
575.33	57038.86
575.49	56659.69
575.65	56786.08
575.82	56914.81
575.98	56825.87
576.14	57181.63
576.30	56910.13
576.46	56849.27
576.62	56949.92
576.79	56926.51
576.95	57013.11
577.11	56914.81
577.27	56999.07
577.43	56947.57
577.59	56734.59
577.75	56722.88
577.92	56917.15
578.08	56617.56
578.24	56706.50
578.40	56802.46
578.56	56996.73
578.72	57132.48
578.88	57190.99
579.04	57010.77
579.21	57027.15
579.37	57214.40
579.53	57214.40
579.69	56875.02
579.85	56793.10
580.01	56676.07
580.17	56786.08
580.33	56772.03
580.49	56945.23
580.65	56975.66
580.82	57125.46
580.98	57104.39
581.14	57104.39
581.30	57080.98
581.46	56811.82
581.62	56949.92
581.78	56690.12
581.94	57050.56
582.10	56647.99
582.26	56802.46
582.42	56945.23
582.58	57258.87
582.74	57099.71
582.90	57083.33
583.06	57120.77
583.22	57139.50
583.38	57031.83
583.54	56875.02
583.70	56821.19
583.86	56910.13
584.02	56692.46
584.18	56954.60
584.34	57169.93
584.50	57422.70
584.66	56790.76
584.82	56914.81
584.98	57022.47
585.14	56982.68
585.30	56769.69
585.46	56842.25
585.62	56783.74
585.78	57279.93
585.94	56865.66
586.10	57085.67
586.26	56896.08
586.42	57247.16
586.58	57165.24
586.74	57017.79
586.90	56919.49
587.06	57083.33
587.22	57013.11
587.38	56968.64
587.54	57165.24
587.70	57247.16
587.86	57219.08
588.02	57017.79
588.18	57312.70
588.34	57394.62
588.49	57240.14
588.65	56849.27
588.81	57102.05
588.97	57050.56
589.13	57109.07
589.29	57130.14
589.45	57209.71
589.61	57312.70
