SpectraSuite Data File
++++++++++++++++++++++++++++++++++++
Date: Fri Oct 18 13:54:39 GMT-05:00 2013
User: bianchi
Dark Spectrum Present: No
Reference Spectrum Present: No
Number of Sampled Component Spectra: 1
Spectrometers: USB2+H05261
Integration Time (usec): 100000 (USB2+H05261)
Spectra Averaged: 1 (USB2+H05261)
Boxcar Smoothing: 0 (USB2+H05261)
Correct for Electrical Dark: No (USB2+H05261)
Strobe/Lamp Enabled: No (USB2+H05261)
Correct for Detector Non-linearity: No (USB2+H05261)
Correct for Stray Light: No (USB2+H05261)
Number of Pixels in Processed Spectrum: 2048
>>>>>Begin Processed Spectral Data<<<<<
365.73	0.00
365.92	0.00
366.12	0.00
366.32	0.00
366.52	0.00
366.72	0.00
366.91	0.00
367.11	0.00
367.31	0.00
367.51	0.00
367.70	0.00
367.90	0.00
368.10	0.00
368.30	0.00
368.49	0.00
368.69	0.00
368.89	0.00
369.09	0.00
369.28	0.00
369.48	0.00
369.68	0.00
369.87	0.00
370.07	0.00
370.27	0.00
370.47	0.00
370.66	245.76
370.86	360.44
371.06	341.72
371.25	425.98
371.45	276.18
371.65	381.51
371.84	386.19
372.04	334.70
372.24	440.02
372.44	407.25
372.63	351.08
372.83	503.22
373.03	433.00
373.22	456.40
373.42	416.62
373.62	451.72
373.81	507.90
374.01	498.53
374.21	496.19
374.40	451.72
374.60	554.71
374.79	472.79
374.99	451.72
375.19	458.74
375.38	545.34
375.58	526.62
375.78	592.16
375.97	554.71
376.17	594.50
376.37	517.26
376.56	510.24
376.76	524.28
376.95	521.94
377.15	535.98
377.35	582.79
377.54	514.92
377.74	578.11
377.93	554.71
378.13	592.16
378.33	521.94
378.52	540.66
378.72	566.41
378.91	559.39
379.11	589.82
379.31	610.88
379.50	500.87
379.70	620.24
379.89	671.73
380.09	622.58
380.28	587.47
380.48	681.10
380.68	636.63
380.87	629.60
381.07	645.99
381.26	704.50
381.46	629.60
381.65	690.46
381.85	697.48
382.04	641.31
382.24	718.54
382.43	709.18
382.63	809.83
382.83	751.31
383.02	826.21
383.22	802.80
383.41	674.07
383.61	704.50
383.80	823.87
384.00	709.18
384.19	653.01
384.39	791.10
384.58	788.76
384.78	826.21
384.97	760.67
385.17	758.33
385.36	786.42
385.56	802.80
385.75	765.36
385.95	791.10
386.14	896.43
386.34	837.91
386.53	812.17
386.72	798.12
386.92	905.79
387.11	877.70
387.31	894.08
387.50	861.32
387.70	919.83
387.89	889.40
388.09	800.46
388.28	875.36
388.48	966.64
388.67	1034.52
388.86	894.08
389.06	964.30
389.25	936.21
389.45	877.70
389.64	945.58
389.84	1034.52
390.03	978.34
390.22	961.96
390.42	1001.75
390.61	1050.90
390.81	1029.84
391.00	990.05
391.19	1132.82
391.39	1057.92
391.58	1095.37
391.78	1107.07
391.97	1018.13
392.16	1001.75
392.36	1144.52
392.55	1104.73
392.75	1163.25
392.94	1196.01
393.13	1212.40
393.33	1186.65
393.52	1142.18
393.71	1226.44
393.91	1210.06
394.10	1186.65
394.29	1086.01
394.49	1107.07
394.68	1224.10
394.88	1256.87
395.07	1294.32
395.26	1284.95
395.46	1310.70
395.65	1359.85
395.84	1331.76
396.04	1378.58
396.23	1268.57
396.42	1357.51
396.62	1425.39
396.81	1427.73
397.00	1357.51
397.19	1373.89
397.39	1350.49
397.58	1352.83
397.77	1401.98
397.97	1448.79
398.16	1416.02
398.35	1418.36
398.55	1481.56
398.74	1509.65
398.93	1540.07
399.12	1404.32
399.32	1540.07
399.51	1500.28
399.70	1589.22
399.90	1605.61
400.09	1624.33
400.28	1561.14
400.47	1666.46
400.67	1781.15
400.86	1678.16
401.05	1664.12
401.24	1694.55
401.44	1736.68
401.63	1659.44
401.82	1694.55
402.01	1689.87
402.21	1832.64
402.40	1767.10
402.59	1736.68
402.78	1881.79
402.97	1788.17
403.17	1729.66
403.36	1874.77
403.55	1912.22
403.74	1820.94
403.93	1907.54
404.13	1952.01
404.32	1921.58
404.51	1916.90
404.70	1930.94
404.89	1996.48
405.09	2017.54
405.28	1968.39
405.47	2125.21
405.66	2101.80
405.85	2153.29
406.05	2155.63
406.24	2221.17
406.43	2200.10
406.62	2195.42
406.81	2277.34
407.00	2106.48
407.20	2122.87
407.39	2230.53
407.58	2232.87
407.77	2244.57
407.96	2305.43
408.15	2422.45
408.34	2275.00
408.54	2413.09
408.73	2422.45
408.92	2363.94
409.11	2452.88
409.30	2338.20
409.49	2595.65
409.68	2539.48
409.87	2445.86
410.07	2532.46
410.26	2590.97
410.45	2555.86
410.64	2597.99
410.83	2722.04
411.02	2640.12
411.21	2785.24
411.40	2768.85
411.59	2780.56
411.78	2848.43
411.98	2682.25
412.17	2885.88
412.36	2796.94
412.55	2874.18
412.74	2738.43
412.93	2932.69
413.12	2993.55
413.31	3103.55
413.50	3026.31
413.69	3103.55
413.88	3080.14
414.07	3208.87
414.26	3131.64
414.45	3372.71
414.64	3246.32
414.83	3368.03
415.02	3337.60
415.22	3372.71
415.41	3522.51
415.60	3590.38
415.79	3557.61
415.98	3480.38
416.17	3536.55
416.36	3508.46
416.55	3632.51
416.74	3733.15
416.93	3672.30
417.12	3737.84
417.31	3604.42
417.50	3749.54
417.69	3950.82
417.88	3861.88
418.07	3929.76
418.26	3901.67
418.45	3943.80
418.64	4044.45
418.83	3962.53
419.02	4065.51
419.21	4046.79
419.39	4119.34
419.58	4109.98
419.77	4205.94
419.96	4091.26
420.15	4194.24
420.34	4046.79
420.53	4170.83
420.72	4346.37
420.91	4346.37
421.10	4362.76
421.29	4470.42
421.48	4388.50
421.67	4521.92
421.86	4262.12
422.05	4489.15
422.24	4397.87
422.43	4430.63
422.61	4376.80
422.80	4374.46
422.99	4524.26
423.18	4489.15
423.37	4512.55
423.56	4641.28
423.75	4491.49
423.94	4393.19
424.13	4269.14
424.32	4196.58
424.50	4505.53
424.69	4777.03
424.88	4580.43
425.07	4437.66
425.26	4482.13
425.45	4601.49
425.64	4678.73
425.83	4650.64
426.01	4554.68
426.20	4547.66
426.39	4671.71
426.58	4718.52
426.77	4730.22
426.96	4697.46
427.15	4692.77
427.33	4753.63
427.52	4690.43
427.71	4685.75
427.90	4875.34
428.09	5022.79
428.28	4870.65
428.46	5050.88
428.65	5001.72
428.84	5100.03
429.03	5200.67
429.22	4856.61
429.40	4968.96
429.59	5142.16
429.78	4870.65
429.97	5048.54
430.16	4844.91
430.34	5224.08
430.53	5327.06
430.72	5198.33
430.91	5252.16
431.10	5242.80
431.28	5273.23
431.47	5399.62
431.66	5430.04
431.85	5362.17
432.03	5254.50
432.22	5650.05
432.41	5516.64
432.60	5444.09
432.79	5289.61
432.97	5366.85
433.16	5568.13
433.35	5650.05
433.54	5621.97
433.72	5685.16
433.91	5753.04
434.10	5675.80
434.28	5614.95
434.47	5687.50
434.66	5806.87
434.85	5760.06
435.03	5804.53
435.22	5783.46
435.41	6139.23
435.59	6064.33
435.78	5870.06
435.97	5893.47
436.16	5825.59
436.34	5998.79
436.53	6118.16
436.72	6249.23
436.90	6104.12
437.09	6146.25
437.28	6066.67
437.46	6249.23
437.65	6253.91
437.84	6319.45
438.02	6235.19
438.21	6408.39
438.40	6424.77
438.58	6544.14
438.77	6530.09
438.96	6429.45
439.14	6509.03
439.33	6579.25
439.52	6609.67
439.70	6595.63
439.89	6881.18
440.08	6965.43
440.26	6813.30
440.45	6892.88
440.63	6998.20
440.82	6988.84
441.01	6846.07
441.19	7171.40
441.38	7131.61
441.57	7250.98
441.75	7267.36
441.94	7276.73
442.12	7344.60
442.31	7513.12
442.50	7492.05
442.68	7604.40
442.87	7398.43
443.05	7393.75
443.24	7789.30
443.43	7536.52
443.61	7588.02
443.80	7915.69
443.98	7681.64
444.17	7344.60
444.35	7719.09
444.54	7822.07
444.73	7864.20
444.91	7606.74
445.10	7939.10
445.28	7857.18
445.47	7801.01
445.65	7686.32
445.84	7768.24
446.02	7939.10
446.21	7824.41
446.39	7836.11
446.58	8013.99
446.77	7941.44
446.95	7698.02
447.14	7665.25
447.32	7878.24
447.51	7747.17
447.69	7868.88
447.88	8044.42
448.06	7901.65
448.25	7999.95
448.43	7859.52
448.62	7978.89
448.80	7974.21
448.99	8086.55
449.17	8102.93
449.36	8053.78
449.54	8093.57
449.73	8320.60
449.91	8381.46
450.10	8367.42
450.28	8369.76
450.46	8332.31
450.65	8414.23
450.83	8489.12
451.02	8589.77
451.20	8599.13
451.39	8500.83
451.57	8271.45
451.76	8360.39
451.94	8718.50
452.13	8631.90
452.31	8601.47
452.49	8667.00
452.68	8842.54
452.86	8737.22
453.05	8875.31
453.23	8865.95
453.42	8596.79
453.60	8676.37
453.78	8819.14
453.97	8828.50
454.15	8809.78
454.34	8924.46
454.52	8936.17
454.70	8905.74
454.89	9156.18
455.07	9020.42
455.26	9359.80
455.44	9144.47
455.62	9282.56
455.81	9373.85
455.99	9224.05
456.17	9420.66
456.36	9427.68
456.54	9500.23
456.73	9701.52
456.91	9635.99
457.09	9640.67
457.28	9645.35
457.46	9579.81
457.64	9673.43
457.83	9949.62
458.01	9628.96
458.19	9848.97
458.38	9743.65
458.56	9865.36
458.74	9987.07
458.93	9809.19
459.11	9954.30
459.29	10071.33
459.48	10071.33
459.66	10059.62
459.84	10174.31
460.03	10445.81
460.21	10202.40
460.39	10328.78
460.57	10200.05
460.76	10167.29
460.94	10506.66
461.12	10228.14
461.31	10349.85
461.49	10441.13
461.67	10431.77
461.85	10602.63
462.04	10420.06
462.22	11208.83
462.40	10808.59
462.59	10651.78
462.77	10752.42
462.95	10839.02
463.13	10733.70
463.32	10846.04
463.50	10768.80
463.68	10796.89
463.86	10925.62
464.05	10710.29
464.23	10759.44
464.41	10862.43
464.59	11028.60
464.78	11154.99
464.96	11091.80
465.14	10913.92
465.32	11225.21
465.50	11253.30
465.69	11166.70
465.87	11183.08
466.05	11133.93
466.23	11115.20
466.41	11414.79
466.60	11630.12
466.78	11089.46
466.96	11225.21
467.14	11342.24
467.32	11335.21
467.51	11550.54
467.69	11410.11
467.87	11398.41
468.05	11428.84
468.23	11555.22
468.41	11477.99
468.60	11803.32
468.78	11737.79
468.96	11562.25
469.14	12009.29
469.32	11896.94
469.50	11485.01
469.69	11770.55
469.87	11918.01
470.05	12168.45
470.23	12187.17
470.41	12009.29
470.59	12297.17
470.77	12264.41
470.95	12229.30
471.14	12198.87
471.32	12210.57
471.50	12631.87
471.68	12706.77
471.86	12870.61
472.04	12704.43
472.22	12957.21
472.40	12423.56
472.58	12849.54
472.77	12723.15
472.95	12919.76
473.13	13397.23
473.31	12851.88
473.49	12987.63
473.67	12929.12
473.85	13151.47
474.03	13504.89
474.21	13509.57
474.39	13685.11
474.57	13638.30
474.75	13682.77
474.93	13870.01
475.12	13877.04
475.30	13806.82
475.48	13895.76
475.66	13872.36
475.84	14115.77
476.02	14190.67
476.20	14010.45
476.38	14363.87
476.56	14714.95
476.74	14656.43
476.92	14810.91
477.10	14705.59
477.28	14944.32
477.46	14726.65
477.64	15213.48
477.82	15225.18
478.00	15492.01
478.18	15536.48
478.36	15697.97
478.54	15955.43
478.72	15623.08
478.90	16016.29
479.08	16044.37
479.26	16259.70
479.44	16524.18
479.62	16566.31
479.80	16367.37
479.98	16847.18
480.16	17057.82
480.34	16732.49
480.52	17163.15
480.70	17336.35
480.88	16987.61
481.06	17277.83
481.24	17570.40
481.41	17563.38
481.59	17757.64
481.77	18321.71
481.95	17940.21
482.13	18099.36
482.31	18143.83
482.49	18174.26
482.67	18810.89
482.85	18853.02
483.03	19089.41
483.21	19248.57
483.39	19316.44
483.57	19236.86
483.74	19531.77
483.92	19800.93
484.10	19625.39
484.28	20032.65
484.46	19924.98
484.64	20720.76
484.82	20357.98
485.00	20575.65
485.18	20744.17
485.35	21170.15
485.53	20903.32
485.71	21212.28
485.89	21467.39
486.07	21518.89
486.25	21125.68
486.43	21823.16
486.61	21614.85
486.78	22293.60
486.96	22064.23
487.14	22944.27
487.32	22508.93
487.50	22721.92
487.68	22803.84
487.85	23501.32
488.03	23676.86
488.21	23587.92
488.39	24004.53
488.57	24020.92
488.75	24343.91
488.92	24669.25
489.10	24580.31
489.28	24430.51
489.46	24945.43
489.64	24854.15
489.81	25411.20
489.99	25462.69
490.17	25549.29
490.35	25968.24
490.53	26106.34
490.70	25874.62
490.88	26218.68
491.06	26499.55
491.24	26490.18
491.41	26354.43
491.59	26782.75
491.77	26792.11
491.95	27379.59
492.13	27456.82
492.30	27805.56
492.48	27498.95
492.66	27632.36
492.84	27978.76
493.01	28023.23
493.19	28353.25
493.37	28526.45
493.54	28479.64
493.72	28762.84
493.90	28561.56
494.08	29226.27
494.25	29453.30
494.43	29397.13
494.61	29745.87
494.79	29869.92
494.96	29701.40
495.14	29841.83
495.32	30682.08
495.49	30291.21
495.67	30822.51
495.85	30972.31
496.02	31068.27
496.20	31414.67
496.38	31335.09
496.55	31414.67
496.73	31803.20
496.91	31672.13
497.09	32039.59
497.26	32362.59
497.44	32128.53
497.62	32283.01
497.79	32528.77
497.97	32823.67
498.14	32980.49
498.32	33371.36
498.50	33130.28
498.67	33570.30
498.85	33366.68
499.03	33472.00
499.20	33640.52
499.38	34003.30
499.56	34110.97
499.73	34267.78
499.91	34639.93
500.08	34380.13
500.26	34122.67
500.44	34401.19
500.61	34778.02
500.79	34761.64
500.97	35068.25
501.14	35597.21
501.32	35285.92
501.49	35782.11
501.67	35754.02
501.84	35454.44
502.02	35590.19
502.20	35789.13
502.37	36472.57
502.55	35950.63
502.72	35967.01
502.90	36287.67
503.07	36177.66
503.25	36165.96
503.43	36605.98
503.60	36575.55
503.78	37076.43
503.95	37167.71
504.13	37144.30
504.30	37235.58
504.48	37029.62
504.65	37434.53
504.83	37614.75
505.01	38022.00
505.18	37993.92
505.36	37975.19
505.53	37937.74
505.71	38115.62
505.88	38155.41
506.06	38188.18
506.23	38597.77
506.41	38213.93
506.58	38518.20
506.76	38712.46
506.93	38714.80
507.11	38356.70
507.28	38986.30
507.46	39171.21
507.63	39494.20
507.81	39489.52
507.98	39037.80
508.16	39229.72
508.33	39714.21
508.50	39817.19
508.68	39807.83
508.85	40369.56
509.03	40158.91
509.20	40371.90
509.38	40353.18
509.55	40957.03
509.73	40800.22
509.90	40950.01
510.08	40608.29
510.25	41193.43
510.42	41097.47
510.60	41198.11
510.77	41511.74
510.95	41720.05
511.12	41071.72
511.30	41420.46
511.47	41588.98
511.64	41897.93
511.82	41886.23
511.99	42234.97
512.17	42412.85
512.34	41947.08
512.51	42520.51
512.69	43112.67
512.86	42040.70
513.04	42733.50
513.21	42852.87
513.38	42787.33
513.56	42848.19
513.73	43232.04
513.90	42911.38
514.08	43320.98
514.25	43262.46
514.43	43433.32
514.60	43538.65
514.77	43491.83
514.95	43662.69
515.12	43475.45
515.29	44095.69
515.47	43817.17
515.64	44194.00
515.81	44179.95
515.99	44502.95
516.16	45069.36
516.33	44699.55
516.51	44800.19
516.68	44432.73
516.85	44332.09
517.03	44863.39
517.20	45041.27
517.37	44816.58
517.54	45483.63
517.72	45310.43
517.89	45134.89
518.06	45160.64
518.24	45443.84
518.41	45237.87
518.58	45621.72
518.75	45212.13
518.93	45930.67
519.10	45755.13
519.27	46059.40
519.45	45500.01
519.62	45860.46
519.79	46295.80
519.96	46052.38
520.14	46389.42
520.31	46335.59
520.48	46457.29
520.65	46440.91
520.83	46546.23
521.00	46377.72
521.17	46511.13
521.34	46726.46
521.52	47035.41
521.69	46918.38
521.86	47433.30
522.03	47459.04
522.20	47164.14
522.38	47496.49
522.55	47515.22
522.72	47213.29
522.89	47915.45
523.07	48027.79
523.24	47735.23
523.41	48222.06
523.58	47557.35
523.75	47784.38
523.92	47957.58
524.10	48196.31
524.27	48123.75
524.44	48224.40
524.61	48456.11
524.78	48603.56
524.96	48470.15
525.13	48605.91
525.30	48701.87
525.47	48238.44
525.64	48280.57
525.81	48882.09
525.98	48928.90
526.16	49352.54
526.33	49078.69
526.50	49317.43
526.67	49226.15
526.84	49404.03
527.01	49177.00
527.18	49106.78
527.36	49399.35
527.53	49792.56
527.70	50014.91
527.87	49853.41
528.04	49801.92
528.21	49750.43
528.38	49734.04
528.55	49766.81
528.72	49696.59
528.89	50277.05
529.07	50110.87
529.24	50082.78
529.41	50391.73
529.58	50054.70
529.75	49780.85
529.92	50251.30
530.09	50475.99
530.26	50033.63
530.43	50213.85
530.60	50314.50
530.77	50239.60
530.94	50590.68
531.11	50834.10
531.28	50773.24
531.46	50574.30
531.63	50883.25
531.80	50726.43
531.97	50862.18
532.14	50625.79
532.31	50997.93
532.48	50859.84
532.65	50997.93
532.82	50946.44
532.99	50995.59
533.16	51229.65
533.33	51459.02
533.50	51484.76
533.67	51292.84
533.84	51332.63
534.01	51166.45
534.18	51327.95
534.35	51573.70
534.52	51639.24
534.69	51767.97
534.86	51758.61
535.03	51587.75
535.20	52006.70
535.37	51800.74
535.54	51899.04
535.71	51309.22
535.88	51730.52
536.05	51880.31
536.22	52107.35
536.38	52303.95
536.55	52336.72
536.72	52184.58
536.89	52018.41
537.06	52336.72
537.23	52109.69
537.40	52102.67
537.57	52142.45
537.74	52357.78
537.91	52643.33
538.08	52776.74
538.25	52142.45
538.42	52598.86
538.59	52369.49
538.75	52250.12
538.92	52505.24
539.09	52769.72
539.26	52498.22
539.43	52736.95
539.60	52556.73
539.77	52800.15
539.94	52921.85
540.11	52711.20
540.28	52910.15
540.44	52645.67
540.61	52882.06
540.78	52814.19
540.95	52896.11
541.12	53113.78
541.29	52903.13
541.46	53050.58
541.62	52858.66
541.79	53497.62
541.96	53059.94
542.13	53076.33
542.30	53303.36
542.47	53631.04
542.63	53233.14
542.80	53516.35
542.97	53640.40
543.14	53696.57
543.31	53396.98
543.48	53506.99
543.64	53701.25
543.81	53745.72
543.98	53467.20
544.15	53932.96
544.32	53993.82
544.48	54136.59
544.65	53858.07
544.82	53956.37
544.99	53642.74
545.16	53722.32
545.32	53888.49
545.49	54321.49
545.66	54340.22
545.83	54342.56
546.00	54344.90
546.16	54333.20
546.33	54052.33
546.50	53621.67
546.67	54258.30
546.83	53783.17
547.00	54401.07
547.17	54351.92
547.34	54452.56
547.50	54309.79
547.67	54789.60
547.84	54529.80
548.00	54511.08
548.17	54686.62
548.34	54501.71
548.51	54906.63
548.67	54834.07
548.84	54698.32
549.01	54419.80
549.18	54607.04
549.34	54688.96
549.51	54691.30
549.68	55105.57
549.84	54693.64
550.01	54859.82
550.18	54813.01
550.34	54857.48
550.51	54986.21
550.68	55014.29
550.84	54763.85
551.01	54974.50
551.18	54834.07
551.34	54784.92
551.51	54817.69
551.68	54983.86
551.84	54946.42
552.01	54871.52
552.18	55386.44
552.34	54951.10
552.51	55210.90
552.68	54930.03
552.84	55299.84
553.01	55566.66
553.18	55236.64
553.34	55236.64
553.51	55295.16
553.67	55487.08
553.84	55655.60
554.01	55313.88
554.17	55583.04
554.34	55540.91
554.51	55522.19
554.67	55430.91
554.84	55473.04
555.00	55622.83
555.17	55412.18
555.33	55676.66
555.50	55592.40
555.67	55372.39
555.83	55466.02
556.00	55606.45
556.16	56339.04
556.33	55608.79
556.50	55372.39
556.66	55737.52
556.83	55634.53
556.99	55711.77
557.16	55875.61
557.32	56044.13
557.49	55966.89
557.65	55480.06
557.82	56011.36
557.98	55758.58
558.15	55945.83
558.32	55992.64
558.48	56023.06
558.65	55901.36
558.81	56069.87
558.98	56081.58
559.14	56048.81
559.31	56011.36
559.47	55948.17
559.64	55877.95
559.80	55880.29
559.97	56076.90
560.13	55910.72
560.30	56009.02
560.46	56222.01
560.63	56310.95
560.79	55920.08
560.96	56130.73
561.12	56055.83
561.29	56018.38
561.45	56095.62
561.61	56502.87
561.78	56142.43
561.94	56322.65
562.11	56313.29
562.27	55985.61
562.44	56123.71
562.60	56116.68
562.77	56266.48
562.93	56278.18
563.10	56364.78
563.26	56205.62
563.42	56704.16
563.59	56310.95
563.75	56339.04
563.92	56369.46
564.08	56413.93
564.24	56336.69
564.41	56236.05
564.57	56442.02
564.74	56320.31
564.90	56357.76
565.07	56502.87
565.23	56470.11
565.39	56435.00
565.56	56392.87
565.72	56245.41
565.88	56505.21
566.05	56442.02
566.21	56516.92
566.38	56484.15
566.54	56411.59
566.70	56725.22
566.87	56757.99
567.03	56465.42
567.19	56697.14
567.36	56610.54
567.52	56320.31
567.68	56680.75
567.85	56245.41
568.01	56570.75
568.17	56472.45
568.34	56647.99
568.50	56774.37
568.66	56769.69
568.83	56465.42
568.99	56353.08
569.15	56456.06
569.32	56598.83
569.48	56252.44
569.64	56713.52
569.81	56535.64
569.97	56697.14
570.13	56720.54
570.30	56762.67
570.46	56776.72
570.62	56755.65
570.78	56659.69
570.95	56310.95
571.11	56692.46
571.27	56477.13
571.43	56598.83
571.60	56533.30
571.76	56395.21
571.92	56989.70
572.09	56907.79
572.25	56788.42
572.41	56767.35
572.57	56575.43
572.74	56830.55
572.90	56556.70
573.06	56650.33
573.22	56657.35
573.38	56858.63
573.55	56729.90
573.71	57113.75
573.87	56940.55
574.03	56690.12
574.20	56851.61
574.36	56755.65
574.52	56846.93
574.68	56769.69
574.84	56736.93
575.01	56622.24
575.17	56891.40
575.33	56947.57
575.49	56582.45
575.65	57013.11
575.82	57083.33
575.98	56582.45
576.14	56952.26
576.30	56797.78
576.46	56467.76
576.62	56619.90
576.79	56781.40
576.95	56699.48
577.11	56823.53
577.27	56774.37
577.43	56877.36
577.59	56706.50
577.75	56535.64
577.92	56699.48
578.08	56849.27
578.24	56659.69
578.40	56842.25
578.56	56750.97
578.72	56673.73
578.88	57017.79
579.04	56985.02
579.21	56860.97
579.37	56846.93
579.53	56931.19
579.69	56575.43
579.85	56647.99
580.01	56765.01
580.17	56968.64
580.33	56732.25
580.49	56875.02
580.65	56896.08
580.82	57097.37
580.98	56814.16
581.14	56905.44
581.30	56795.44
581.46	56896.08
581.62	56659.69
581.78	56631.60
581.94	56870.34
582.10	56666.71
582.26	56905.44
582.42	57036.51
582.58	57015.45
582.74	56727.56
582.90	57006.09
583.06	56938.21
583.22	56786.08
583.38	56765.01
583.54	56816.50
583.70	56886.72
583.86	56837.57
584.02	56697.14
584.18	57153.54
584.34	57097.37
584.50	57076.30
584.66	57022.47
584.82	56858.63
584.98	56690.12
585.14	56994.39
585.30	56727.56
585.46	56865.66
585.62	56837.57
585.78	57010.77
585.94	56844.59
586.10	56994.39
586.26	57155.88
586.42	57118.43
586.58	56903.10
586.74	56790.76
586.90	56921.83
587.06	56921.83
587.22	56966.30
587.38	57010.77
587.54	57233.12
587.70	57134.82
587.86	57078.64
588.02	57029.49
588.18	57176.95
588.34	57013.11
588.49	56924.17
588.65	56975.66
588.81	56891.40
588.97	57078.64
589.13	57013.11
589.29	57261.21
589.45	57151.20
589.61	57153.54
