SpectraSuite Data File
++++++++++++++++++++++++++++++++++++
Date: Fri Oct 18 13:54:06 GMT-05:00 2013
User: bianchi
Dark Spectrum Present: No
Reference Spectrum Present: No
Number of Sampled Component Spectra: 1
Spectrometers: USB2+H05261
Integration Time (usec): 100000 (USB2+H05261)
Spectra Averaged: 1 (USB2+H05261)
Boxcar Smoothing: 0 (USB2+H05261)
Correct for Electrical Dark: No (USB2+H05261)
Strobe/Lamp Enabled: No (USB2+H05261)
Correct for Detector Non-linearity: No (USB2+H05261)
Correct for Stray Light: No (USB2+H05261)
Number of Pixels in Processed Spectrum: 2048
>>>>>Begin Processed Spectral Data<<<<<
365.73	0.00
365.92	0.00
366.12	0.00
366.32	0.00
366.52	0.00
366.72	0.00
366.91	0.00
367.11	0.00
367.31	0.00
367.51	0.00
367.70	0.00
367.90	0.00
368.10	0.00
368.30	0.00
368.49	0.00
368.69	0.00
368.89	0.00
369.09	0.00
369.28	0.00
369.48	0.00
369.68	0.00
369.87	0.00
370.07	0.00
370.27	0.00
370.47	30.43
370.66	266.82
370.86	285.55
371.06	372.15
371.25	411.93
371.45	369.80
371.65	409.59
371.84	402.57
372.04	386.19
372.24	367.46
372.44	327.68
372.63	369.80
372.83	442.36
373.03	503.22
373.22	442.36
373.42	400.23
373.62	472.79
373.81	465.77
374.01	484.49
374.21	463.43
374.40	491.51
374.60	428.32
374.79	442.36
374.99	521.94
375.19	531.30
375.38	482.15
375.58	454.06
375.78	519.60
375.97	454.06
376.17	561.73
376.37	519.60
376.56	582.79
376.76	608.54
376.95	510.24
377.15	578.11
377.35	521.94
377.54	564.07
377.74	535.98
377.93	528.96
378.13	552.37
378.33	624.92
378.52	561.73
378.72	709.18
378.91	662.37
379.11	493.85
379.31	638.97
379.50	554.71
379.70	592.16
379.89	692.80
380.09	610.88
380.28	568.75
380.48	645.99
380.68	653.01
380.87	641.31
381.07	641.31
381.26	685.78
381.46	636.63
381.65	699.82
381.85	744.29
382.04	741.95
382.24	774.72
382.43	720.88
382.63	725.57
382.83	692.80
383.02	732.59
383.22	683.44
383.41	713.86
383.61	823.87
383.80	795.78
384.00	774.72
384.19	781.74
384.39	861.32
384.58	716.20
384.78	844.93
384.97	826.21
385.17	793.44
385.36	931.53
385.56	854.30
385.75	774.72
385.95	774.72
386.14	748.97
386.34	819.19
386.53	814.51
386.72	816.85
386.92	830.89
387.11	866.00
387.31	889.40
387.50	870.68
387.70	826.21
387.89	887.06
388.09	781.74
388.28	931.53
388.48	908.13
388.67	915.15
388.86	877.70
389.06	896.43
389.25	863.66
389.45	961.96
389.64	976.00
389.84	1036.86
390.03	1032.18
390.22	1076.65
390.42	1041.54
390.61	922.17
390.81	987.71
391.00	968.98
391.19	1032.18
391.39	1006.43
391.58	1064.94
391.78	1029.84
391.97	1128.14
392.16	1034.52
392.36	1060.26
392.55	1107.07
392.75	1116.44
392.94	1093.03
393.13	1137.50
393.33	1100.05
393.52	1186.65
393.71	1245.16
393.91	1289.64
394.10	1188.99
394.29	1181.97
394.49	1142.18
394.68	1277.93
394.88	1214.74
395.07	1406.66
395.26	1172.61
395.46	1282.61
395.65	1357.51
395.84	1352.83
396.04	1465.18
396.23	1306.02
396.42	1430.07
396.62	1313.04
396.81	1390.28
397.00	1397.30
397.19	1432.41
397.39	1469.86
397.58	1427.73
397.77	1336.45
397.97	1380.92
398.16	1511.99
398.35	1547.09
398.55	1472.20
398.74	1490.92
398.93	1460.49
399.12	1481.56
399.32	1540.07
399.51	1502.62
399.70	1668.80
399.90	1446.45
400.09	1570.50
400.28	1722.63
400.47	1636.03
400.67	1668.80
400.86	1666.46
401.05	1673.48
401.24	1664.12
401.44	1678.16
401.63	1673.48
401.82	1778.81
402.01	1783.49
402.21	1724.97
402.40	1776.47
402.59	1792.85
402.78	1853.70
402.97	1743.70
403.17	1860.73
403.36	1902.86
403.55	1881.79
403.74	2022.22
403.93	1949.67
404.13	1884.13
404.32	1907.54
404.51	1952.01
404.70	2008.18
404.89	1963.71
405.09	2026.90
405.28	1940.30
405.47	2057.33
405.66	2169.68
405.85	2172.02
406.05	2157.97
406.24	2172.02
406.43	2162.66
406.62	2293.72
406.81	2338.20
407.00	2200.10
407.20	2183.72
407.39	2289.04
407.58	2415.43
407.77	2253.94
407.96	2256.28
408.15	2352.24
408.34	2385.01
408.54	2403.73
408.73	2445.86
408.92	2359.26
409.11	2495.01
409.30	2431.82
409.49	2462.24
409.68	2380.32
409.87	2438.84
410.07	2466.92
410.26	2562.89
410.45	2504.37
410.64	2551.18
410.83	2635.44
411.02	2796.94
411.21	2752.47
411.40	2775.88
411.59	2710.34
411.78	2813.32
411.98	2787.58
412.17	2876.52
412.36	2850.77
412.55	3049.72
412.74	2984.18
412.93	3103.55
413.12	3014.61
413.31	3084.83
413.50	3077.80
413.69	3143.34
413.88	3229.94
414.07	3103.55
414.26	3152.70
414.45	3194.83
414.64	3274.41
414.83	3346.97
415.02	3403.14
415.22	3452.29
415.41	3494.42
415.60	3496.76
415.79	3515.48
415.98	3581.02
416.17	3515.48
416.36	3569.32
416.55	3461.65
416.74	3655.92
416.93	3585.70
417.12	3698.05
417.31	3885.29
417.50	3742.52
417.69	3861.88
417.88	3911.04
418.07	3969.55
418.26	3866.56
418.45	3784.65
418.64	4131.05
418.83	4098.28
419.02	3974.23
419.21	4072.53
419.39	4142.75
419.58	3971.89
419.77	4112.32
419.96	4159.13
420.15	4224.67
420.34	4161.47
420.53	4229.35
420.72	4372.12
420.91	4278.50
421.10	4416.59
421.29	4519.57
421.48	4177.86
421.67	4308.93
421.86	4447.02
422.05	4461.06
422.24	4454.04
422.43	4360.42
422.61	4390.84
422.80	4367.44
422.99	4524.26
423.18	4458.72
423.37	4573.41
423.56	4493.83
423.75	4578.09
423.94	4468.08
424.13	4177.86
424.32	4484.47
424.50	4641.28
424.69	4566.39
424.88	4648.30
425.07	4812.14
425.26	4561.70
425.45	4627.24
425.64	4751.29
425.83	4526.60
426.01	4755.97
426.20	4601.49
426.39	4615.54
426.58	4596.81
426.77	4786.40
426.96	4788.74
427.15	4880.02
427.33	4788.74
427.52	4966.62
427.71	4816.82
427.90	4936.19
428.09	4957.25
428.28	5071.94
428.46	4912.78
428.65	4964.28
428.84	4940.87
429.03	5156.20
429.22	4833.21
429.40	5027.47
429.59	5116.41
429.78	4975.98
429.97	4901.08
430.16	5081.30
430.34	5107.05
430.53	5280.25
430.72	5224.08
430.91	5240.46
431.10	5266.21
431.28	5259.18
431.47	5605.58
431.66	5486.22
431.85	5425.36
432.03	5444.09
432.22	5544.73
432.41	5497.92
432.60	5612.60
432.79	5621.97
432.97	5577.50
433.16	5720.27
433.35	5591.54
433.54	5731.97
433.72	5661.76
433.91	5731.97
434.10	5785.80
434.28	5802.19
434.47	5790.49
434.66	5820.91
434.85	5912.19
435.03	5841.98
435.22	5907.51
435.41	6127.52
435.59	5923.90
435.78	5785.80
435.97	6078.37
436.16	6094.76
436.34	5937.94
436.53	6129.86
436.72	6108.80
436.90	5975.39
437.09	6174.33
437.28	6099.44
437.46	6164.97
437.65	6300.72
437.84	6270.30
438.02	6232.85
438.21	6286.68
438.40	6413.07
438.58	6429.45
438.77	6516.05
438.96	6504.35
439.14	6614.35
439.33	6738.40
439.52	6726.70
439.70	6724.36
439.89	6731.38
440.08	6864.79
440.26	6890.54
440.45	7035.65
440.63	6834.36
440.82	7094.16
441.01	6927.99
441.19	7138.63
441.38	7349.28
441.57	7089.48
441.75	7573.97
441.94	7368.01
442.12	7410.14
442.31	7461.63
442.50	7602.06
442.68	7461.63
442.87	7592.70
443.05	7651.21
443.24	7681.64
443.43	7634.83
443.61	7733.13
443.80	7786.96
443.98	7768.24
444.17	7403.11
444.35	7733.13
444.54	7719.09
444.73	7707.38
444.91	7719.09
445.10	7885.26
445.28	7719.09
445.47	7740.15
445.65	7833.77
445.84	7861.86
446.02	7939.10
446.21	7906.33
446.39	7714.41
446.58	7765.90
446.77	7847.82
446.95	7831.43
447.14	7915.69
447.32	8215.28
447.51	7861.86
447.69	8046.76
447.88	8023.36
448.06	7976.55
448.25	7992.93
448.43	7824.41
448.62	7918.03
448.80	8072.51
448.99	8245.71
449.17	8395.50
449.36	7953.14
449.54	8437.63
449.73	8273.79
449.91	8250.39
450.10	8318.26
450.28	8400.18
450.46	8461.04
450.65	8540.61
450.83	8664.66
451.02	8622.53
451.20	8542.96
451.39	8704.45
451.57	8327.63
451.76	8524.23
451.94	8503.17
452.13	8685.73
452.31	8678.71
452.49	8451.67
452.68	8875.31
452.86	8711.47
453.05	8720.84
453.23	8877.65
453.42	8791.05
453.60	8971.27
453.78	8863.61
453.97	8777.01
454.15	8894.04
454.34	8919.78
454.52	9107.02
454.70	9022.77
454.89	9153.84
455.07	8936.17
455.26	9231.07
455.44	9167.88
455.62	9270.86
455.81	9198.31
455.99	9385.55
456.17	9184.26
456.36	9308.31
456.54	9434.70
456.73	9383.21
456.91	9731.95
457.09	9710.88
457.28	9940.26
457.46	9753.01
457.64	9783.44
457.83	9745.99
458.01	9755.35
458.19	10022.17
458.38	9909.83
458.56	10061.96
458.74	9966.00
458.93	9905.15
459.11	10132.18
459.29	10094.73
459.48	10127.50
459.66	10111.11
459.84	10349.85
460.03	10340.49
460.21	10342.83
460.39	10354.53
460.57	10333.47
460.76	10525.39
460.94	10548.79
461.12	10387.30
461.31	10370.91
461.49	10293.68
461.67	10291.34
461.85	10719.65
462.04	10693.91
462.22	11154.99
462.40	10808.59
462.59	10909.24
462.77	10593.26
462.95	10703.27
463.13	10750.08
463.32	10960.73
463.50	10970.09
463.68	11094.14
463.86	10860.09
464.05	11014.56
464.23	10963.07
464.41	11194.78
464.59	10958.39
464.78	11222.87
464.96	11185.42
465.14	11288.40
465.32	11056.69
465.50	11220.53
465.69	11609.06
465.87	11250.96
466.05	11171.38
466.23	11096.48
466.41	11332.87
466.60	11700.34
466.78	11557.57
466.96	11232.23
467.14	11580.97
467.32	11461.60
467.51	11536.50
467.69	11269.68
467.87	11740.13
468.05	11772.89
468.23	11339.90
468.41	11599.70
468.60	11948.43
468.78	11861.84
468.96	11740.13
469.14	11843.11
469.32	12133.34
469.50	11662.89
469.69	11948.43
469.87	12215.26
470.05	12138.02
470.23	12100.57
470.41	12107.59
470.59	12238.66
470.77	12369.73
470.95	12423.56
471.14	12451.65
471.32	12100.57
471.50	12666.98
471.68	12814.43
471.86	12709.11
472.04	12765.28
472.22	12905.71
472.40	12762.94
472.58	12779.32
472.77	13020.40
472.95	13102.32
473.13	13446.38
473.31	13259.13
473.49	12943.16
473.67	13247.43
473.85	13415.95
474.03	13575.11
474.21	13589.15
474.39	13745.97
474.57	13673.41
474.75	13755.33
474.93	14185.99
475.12	14026.83
475.30	13844.27
475.48	13902.78
475.66	13958.96
475.84	14059.60
476.02	14319.40
476.20	14403.66
476.38	14466.85
476.56	15035.60
476.74	14712.61
476.92	14534.73
477.10	14885.81
477.28	15145.61
477.46	14946.66
477.64	14932.62
477.82	15534.14
478.00	15840.75
478.18	15674.57
478.36	15791.59
478.54	15913.30
478.72	16156.72
478.90	16358.00
479.08	16229.27
479.26	16570.99
479.44	16526.52
479.62	16669.30
479.80	16802.71
479.98	17020.38
480.16	17116.34
480.34	16814.41
480.52	17448.69
480.70	17186.55
480.88	17039.10
481.06	17563.38
481.24	17502.53
481.41	17645.30
481.59	18356.82
481.77	18078.30
481.95	18171.92
482.13	18405.97
482.31	18354.48
482.49	18558.11
482.67	18576.83
482.85	18860.04
483.03	19194.73
483.21	19522.41
483.39	19538.79
483.57	19339.85
483.74	19632.41
483.92	20034.99
484.10	19796.25
484.28	20049.03
484.46	20463.30
484.64	20971.20
484.82	20386.07
485.00	20615.44
485.18	21062.48
485.35	21331.64
485.53	21439.31
485.71	21579.74
485.89	21514.20
486.07	21671.02
486.25	21921.46
486.43	21891.03
486.61	22015.08
486.78	22548.72
486.96	22747.67
487.14	23091.73
487.32	22782.77
487.50	23070.66
487.68	23293.01
487.85	23168.96
488.03	23758.78
488.21	24168.37
488.39	23861.76
488.57	24142.63
488.75	24453.92
488.92	24650.52
489.10	24891.60
489.28	25025.01
489.46	25317.57
489.64	24929.05
489.81	25617.16
489.99	25757.60
490.17	25895.69
490.35	25872.28
490.53	26300.60
490.70	26518.27
490.88	26597.85
491.06	26618.91
491.24	26675.09
491.41	26808.50
491.59	26958.29
491.77	27358.52
491.95	27835.99
492.13	27641.73
492.30	27721.30
492.48	27969.40
492.66	28149.62
492.84	28292.40
493.01	28463.25
493.19	28393.04
493.37	28678.58
493.54	29020.30
493.72	29294.14
493.90	29057.75
494.08	29347.98
494.25	29844.17
494.43	29769.27
494.61	29989.28
494.79	30031.41
494.96	30419.94
495.14	30525.27
495.32	30462.07
495.49	31005.08
495.67	31110.40
495.85	31192.32
496.02	31608.93
496.20	31552.76
496.38	31798.52
496.55	31555.10
496.73	32367.27
496.91	32065.34
497.09	32517.06
497.26	32481.95
497.44	32306.41
497.62	32119.17
497.79	33102.20
497.97	33001.55
498.14	33111.56
498.32	33549.24
498.50	33591.37
498.67	33937.77
498.85	33654.56
499.03	33869.89
499.20	33928.41
499.38	34340.34
499.56	34396.51
499.73	34279.49
499.91	34295.87
500.08	34796.74
500.26	34607.16
500.44	35016.75
500.61	35012.07
500.79	34836.53
500.97	35454.44
501.14	35744.66
501.32	35833.60
501.49	35445.07
501.67	35735.30
501.84	36144.89
502.02	35718.92
502.20	35969.35
502.37	36121.49
502.55	36194.04
502.72	36313.41
502.90	36542.78
503.07	35899.14
503.25	36844.71
503.43	37067.06
503.60	36753.43
503.78	37251.97
503.95	37270.69
504.13	37710.71
504.30	37277.71
504.48	37525.81
504.65	37713.05
504.83	38253.72
505.01	38436.28
505.18	38120.31
505.36	38277.12
505.53	38265.42
505.71	38300.53
505.88	38525.22
506.06	38356.70
506.23	38962.90
506.41	38483.09
506.58	38859.91
506.76	39042.48
506.93	39220.36
507.11	38897.36
507.28	39215.68
507.46	39784.43
507.63	39999.76
507.81	40238.49
507.98	39686.12
508.16	39915.50
508.33	39938.90
508.50	40350.84
508.68	40456.16
508.85	40732.34
509.03	40718.30
509.20	40842.35
509.38	41071.72
509.55	40802.56
509.73	41083.42
509.90	41347.90
510.08	40971.08
510.25	41230.88
510.42	41399.40
510.60	41572.60
510.77	41893.25
510.95	42188.16
511.12	41577.28
511.30	41500.04
511.47	42059.43
511.64	42361.36
511.82	42422.21
511.99	42237.31
512.17	42433.91
512.34	42747.54
512.51	42731.16
512.69	42529.87
512.86	42897.34
513.04	43185.22
513.21	42951.17
513.38	43189.91
513.56	43353.74
513.73	43288.21
513.90	43192.25
514.08	43260.12
514.25	43796.10
514.43	44154.21
514.60	43786.74
514.77	43819.51
514.95	44147.18
515.12	44215.06
515.29	44004.41
515.47	44472.52
515.64	44727.64
515.81	44332.09
515.99	44577.84
516.16	45345.54
516.33	44816.58
516.51	45230.85
516.68	45057.65
516.85	44854.03
517.03	45305.75
517.20	45088.08
517.37	45427.46
517.54	45624.06
517.72	45659.17
517.89	45308.09
518.06	45277.66
518.24	45357.24
518.41	45815.99
518.58	45525.76
518.75	45851.09
518.93	46066.42
519.10	46309.84
519.27	45944.72
519.45	46244.30
519.62	46356.65
519.79	46052.38
519.96	46330.90
520.14	47129.03
520.31	47194.56
520.48	47297.55
520.65	47054.13
520.83	47145.41
521.00	47037.75
521.17	46855.18
521.34	46780.29
521.52	47491.81
521.69	47412.23
521.86	47814.80
522.03	47636.92
522.20	47892.04
522.38	47819.49
522.55	47714.16
522.72	47697.78
522.89	47812.46
523.07	48238.44
523.24	47955.24
523.41	48413.98
523.58	47767.99
523.75	48329.72
523.92	48177.59
524.10	48320.36
524.27	48659.74
524.44	48692.50
524.61	49050.61
524.78	48935.92
524.96	48818.89
525.13	48889.11
525.30	48886.77
525.47	48964.01
525.64	48795.49
525.81	49195.72
525.98	49684.89
526.16	49544.46
526.33	49457.86
526.50	49303.38
526.67	49439.14
526.84	49780.85
527.01	49411.05
527.18	49750.43
527.36	49752.77
527.53	49897.88
527.70	50286.41
527.87	50071.08
528.04	50141.30
528.21	50005.55
528.38	49986.82
528.55	49764.47
528.72	49808.94
528.89	50391.73
529.07	50038.31
529.24	49893.20
529.41	50560.25
529.58	50356.63
529.75	50272.37
529.92	50487.70
530.09	50415.14
530.26	50990.91
530.43	50691.32
530.60	50490.04
530.77	50607.06
530.94	50946.44
531.11	50616.43
531.28	50892.61
531.46	50995.59
531.63	50820.05
531.80	51199.22
531.97	51414.55
532.14	51180.49
532.31	51264.75
532.48	51164.11
532.65	51192.20
532.82	51033.04
532.99	51325.61
533.16	51210.92
533.33	51339.65
533.50	51892.02
533.67	51674.35
533.84	51365.40
534.01	51281.14
534.18	51334.97
534.35	51821.80
534.52	51611.15
534.69	52004.36
534.86	52100.32
535.03	51868.61
535.20	52231.40
535.37	52046.49
535.54	52046.49
535.71	51821.80
535.88	52325.02
536.05	51948.19
536.22	52299.27
536.38	52437.36
536.55	52512.26
536.72	52451.41
536.89	52236.08
537.06	52308.63
537.23	52341.40
537.40	52313.31
537.57	52238.42
537.74	52346.08
537.91	52814.19
538.08	52676.10
538.25	52638.65
538.42	52608.22
538.59	52968.66
538.75	52671.42
538.92	53113.78
539.09	52949.94
539.26	52748.65
539.43	53059.94
539.60	53235.48
539.77	53373.58
539.94	52924.19
540.11	52980.37
540.28	53104.41
540.44	53322.08
540.61	52980.37
540.78	53446.13
540.95	53265.91
541.12	53296.34
541.29	53371.24
541.46	53277.61
541.62	53488.26
541.79	53446.13
541.96	53471.88
542.13	53134.84
542.30	53523.37
542.47	53422.73
542.63	53525.71
542.80	53579.54
542.97	54073.40
543.14	53738.70
543.31	53837.00
543.48	53865.09
543.64	54347.24
543.81	54363.62
543.98	54176.38
544.15	54389.37
544.32	54326.17
544.48	54188.08
544.65	54218.51
544.82	53982.12
544.99	54101.48
545.16	54120.21
545.32	54019.56
545.49	54412.77
545.66	54314.47
545.83	54569.59
546.00	54642.15
546.16	54859.82
546.33	54241.92
546.50	54136.59
546.67	54141.27
546.83	54143.61
547.00	54419.80
547.17	54770.88
547.34	54607.04
547.50	54616.40
547.67	54997.91
547.84	54513.42
548.00	54738.11
548.17	54974.50
548.34	54588.31
548.51	54864.50
548.67	54965.14
548.84	54873.86
549.01	54827.05
549.18	54810.67
549.34	54967.48
549.51	54724.07
549.68	54871.52
549.84	54885.56
550.01	55117.28
550.18	54911.31
550.34	55217.92
550.51	55185.15
550.68	55444.95
550.84	54983.86
551.01	55075.15
551.18	54976.84
551.34	54962.80
551.51	55243.66
551.68	55327.92
551.84	55264.73
552.01	55150.04
552.18	55454.31
552.34	55138.34
552.51	55440.27
552.68	55128.98
552.84	55463.67
553.01	55543.25
553.18	55473.04
553.34	55470.70
553.51	55611.13
553.67	55683.69
553.84	55903.70
554.01	55594.74
554.17	55760.92
554.34	55564.32
554.51	55587.72
554.67	55716.45
554.84	55856.88
555.00	55746.88
555.17	55618.15
555.33	55863.91
555.50	55711.77
555.67	55803.05
555.83	55903.70
556.00	55849.86
556.16	56133.07
556.33	55671.98
556.50	55784.33
556.66	56081.58
556.83	55765.60
556.99	56369.46
557.16	56168.18
557.32	56226.69
557.49	56165.84
557.65	55800.71
557.82	56004.34
557.98	55917.74
558.15	55828.80
558.32	56486.49
558.48	56151.79
558.65	56474.79
558.81	56119.02
558.98	56140.09
559.14	56287.54
559.31	56121.37
559.47	56336.69
559.64	56301.59
559.80	56451.38
559.97	56151.79
560.13	56009.02
560.30	56479.47
560.46	56266.48
560.63	56172.86
560.79	56381.16
560.96	56458.40
561.12	56364.78
561.29	56292.22
561.45	56320.31
561.61	56690.12
561.78	56360.10
561.94	56341.38
562.11	56624.58
562.27	56383.51
562.44	56453.72
562.60	56385.85
562.77	56540.32
562.93	56189.24
563.10	56498.19
563.26	56505.21
563.42	56898.42
563.59	56741.61
563.75	56816.50
563.92	56540.32
564.08	56535.64
564.24	56631.60
564.41	56449.04
564.57	56369.46
564.74	56545.00
564.90	56577.77
565.07	56633.94
565.23	56437.34
565.39	56741.61
565.56	56865.66
565.72	56601.18
565.88	56622.24
566.05	56566.07
566.21	56573.09
566.38	56575.43
566.54	56650.33
566.70	56715.86
566.87	56973.32
567.03	56760.33
567.19	56900.76
567.36	56818.84
567.52	56638.62
567.68	56753.31
567.85	56664.37
568.01	56809.48
568.17	56748.63
568.34	56701.82
568.50	56858.63
568.66	56807.14
568.83	56933.53
568.99	56793.10
569.15	56868.00
569.32	56830.55
569.48	56694.80
569.64	56872.68
569.81	56584.79
569.97	56882.04
570.13	56910.13
570.30	56633.94
570.46	57027.15
570.62	56865.66
570.78	56839.91
570.95	56650.33
571.11	56842.25
571.27	56465.42
571.43	56844.59
571.60	56802.46
571.76	56978.00
571.92	57111.41
572.09	57109.07
572.25	57057.58
572.41	56851.61
572.57	56947.57
572.74	57198.01
572.90	56828.21
573.06	56851.61
573.22	56860.97
573.38	57132.48
573.55	56900.76
573.71	57293.97
573.87	57322.06
574.03	56830.55
574.20	57132.48
574.36	56856.29
574.52	56956.94
574.68	56732.25
574.84	57127.80
575.01	56992.04
575.17	57228.44
575.33	56741.61
575.49	56954.60
575.65	57139.50
575.82	57212.06
575.98	56963.96
576.14	57176.95
576.30	56987.36
576.46	56825.87
576.62	56839.91
576.79	56994.39
576.95	56779.06
577.11	57057.58
577.27	57181.63
577.43	56896.08
577.59	56842.25
577.75	56949.92
577.92	57006.09
578.08	57001.41
578.24	57123.11
578.40	57120.77
578.56	57228.44
578.72	57172.27
578.88	57291.63
579.04	57296.31
579.21	56842.25
579.37	57088.01
579.53	57301.00
579.69	56912.47
579.85	57111.41
580.01	57022.47
580.17	57057.58
580.33	57144.18
580.49	56928.85
580.65	57205.03
580.82	57272.91
580.98	57279.93
581.14	57188.65
581.30	57247.16
581.46	57080.98
581.62	57132.48
581.78	56839.91
581.94	57120.77
582.10	57043.54
582.26	56989.70
582.42	57336.10
582.58	57209.71
582.74	57104.39
582.90	57233.12
583.06	57293.97
583.22	56954.60
583.38	56985.02
583.54	56877.36
583.70	56821.19
583.86	57038.86
584.02	56896.08
584.18	57209.71
584.34	57249.50
584.50	57408.66
584.66	57261.21
584.82	57200.35
584.98	57109.07
585.14	57099.71
585.30	56664.37
585.46	57059.92
585.62	57109.07
585.78	57195.67
585.94	57069.28
586.10	57172.27
586.26	57209.71
586.42	57434.41
586.58	57111.41
586.74	57200.35
586.90	57200.35
587.06	57132.48
587.22	57167.58
587.38	57088.01
587.54	57104.39
587.70	57457.81
587.86	57251.84
588.02	57413.34
588.18	57305.68
588.34	57085.67
588.49	57183.97
588.65	57144.18
588.81	57183.97
588.97	57221.42
589.13	57315.04
589.29	57162.90
589.45	57425.04
