SpectraSuite Data File
++++++++++++++++++++++++++++++++++++
Date: Fri Oct 18 13:54:59 GMT-05:00 2013
User: bianchi
Dark Spectrum Present: No
Reference Spectrum Present: No
Number of Sampled Component Spectra: 1
Spectrometers: USB2+H05261
Integration Time (usec): 100000 (USB2+H05261)
Spectra Averaged: 1 (USB2+H05261)
Boxcar Smoothing: 0 (USB2+H05261)
Correct for Electrical Dark: No (USB2+H05261)
Strobe/Lamp Enabled: No (USB2+H05261)
Correct for Detector Non-linearity: No (USB2+H05261)
Correct for Stray Light: No (USB2+H05261)
Number of Pixels in Processed Spectrum: 2048
>>>>>Begin Processed Spectral Data<<<<<
365.73	0.00
365.92	0.00
366.12	0.00
366.32	0.00
366.52	0.00
366.72	0.00
366.91	0.00
367.11	0.00
367.31	0.00
367.51	0.00
367.70	0.00
367.90	0.00
368.10	0.00
368.30	0.00
368.49	0.00
368.69	0.00
368.89	0.00
369.09	0.00
369.28	0.00
369.48	0.00
369.68	0.00
369.87	0.00
370.07	0.00
370.27	4.68
370.47	21.06
370.66	264.48
370.86	257.46
371.06	325.33
371.25	276.18
371.45	353.42
371.65	365.12
371.84	311.29
372.04	369.80
372.24	449.38
372.44	418.96
372.63	374.49
372.83	482.15
373.03	337.04
373.22	360.44
373.42	428.32
373.62	521.94
373.81	463.43
374.01	463.43
374.21	535.98
374.40	500.87
374.60	498.53
374.79	397.89
374.99	547.69
375.19	582.79
375.38	477.47
375.58	512.58
375.78	606.20
375.97	496.19
376.17	589.82
376.37	552.37
376.56	561.73
376.76	543.00
376.95	512.58
377.15	507.90
377.35	517.26
377.54	521.94
377.74	547.69
377.93	599.18
378.13	608.54
378.33	603.86
378.52	608.54
378.72	571.09
378.91	554.71
379.11	557.05
379.31	709.18
379.50	557.05
379.70	580.45
379.89	648.33
380.09	709.18
380.28	589.82
380.48	641.31
380.68	599.18
380.87	622.58
381.07	592.16
381.26	681.10
381.46	638.97
381.65	753.65
381.85	678.76
382.04	709.18
382.24	720.88
382.43	641.31
382.63	678.76
382.83	753.65
383.02	732.59
383.22	793.44
383.41	643.65
383.61	716.20
383.80	807.48
384.00	716.20
384.19	753.65
384.39	802.80
384.58	828.55
384.78	763.01
384.97	781.74
385.17	880.04
385.36	861.32
385.56	802.80
385.75	795.78
385.95	828.55
386.14	744.29
386.34	800.46
386.53	833.23
386.72	884.72
386.92	926.85
387.11	917.49
387.31	835.57
387.50	840.25
387.70	828.55
387.89	894.08
388.09	896.43
388.28	922.17
388.48	1027.50
388.67	861.32
388.86	966.64
389.06	894.08
389.25	980.68
389.45	1013.45
389.64	1121.12
389.84	1013.45
390.03	1027.50
390.22	968.98
390.42	966.64
390.61	1074.31
390.81	1027.50
391.00	1060.26
391.19	1102.39
391.39	947.92
391.58	1097.71
391.78	1074.31
391.97	1184.31
392.16	1001.75
392.36	1156.22
392.55	1181.97
392.75	1149.20
392.94	1163.25
393.13	1177.29
393.33	1203.04
393.52	1188.99
393.71	1210.06
393.91	1193.67
394.10	1210.06
394.29	1170.27
394.49	1181.97
394.68	1261.55
394.88	1287.29
395.07	1294.32
395.26	1196.01
395.46	1245.16
395.65	1380.92
395.84	1383.26
396.04	1394.96
396.23	1348.15
396.42	1371.55
396.62	1359.85
396.81	1343.47
397.00	1469.86
397.19	1308.36
397.39	1362.19
397.58	1469.86
397.77	1373.89
397.97	1481.56
398.16	1392.62
398.35	1568.16
398.55	1483.90
398.74	1465.18
398.93	1511.99
399.12	1401.98
399.32	1434.75
399.51	1474.54
399.70	1614.97
399.90	1547.09
400.09	1631.35
400.28	1633.69
400.47	1526.03
400.67	1678.16
400.86	1666.46
401.05	1703.91
401.24	1612.63
401.44	1771.79
401.63	1689.87
401.82	1743.70
402.01	1654.76
402.21	1795.19
402.40	1729.66
402.59	1802.21
402.78	1734.34
402.97	1818.60
403.17	1818.60
403.36	1851.36
403.55	1879.45
403.74	1900.52
403.93	1973.07
404.13	1886.47
404.32	1989.46
404.51	1977.75
404.70	2047.97
404.89	2017.54
405.09	2122.87
405.28	2059.67
405.47	2066.69
405.66	2069.03
405.85	2167.34
406.05	2047.97
406.24	2188.40
406.43	2153.29
406.62	2195.42
406.81	2221.17
407.00	2200.10
407.20	2230.53
407.39	2258.62
407.58	2321.81
407.77	2300.75
407.96	2289.04
408.15	2366.28
408.34	2293.72
408.54	2375.64
408.73	2349.90
408.92	2434.16
409.11	2377.98
409.30	2450.54
409.49	2389.69
409.68	2513.74
409.87	2466.92
410.07	2530.12
410.26	2626.08
410.45	2562.89
410.64	2708.00
410.83	2597.99
411.02	2705.66
411.21	2792.26
411.40	2806.30
411.59	2717.36
411.78	2712.68
411.98	2754.81
412.17	2977.16
412.36	2932.69
412.55	2885.88
412.74	2916.31
412.93	3007.59
413.12	3056.74
413.31	3183.13
413.50	2970.14
413.69	3021.63
413.88	3133.98
414.07	3222.92
414.26	3234.62
414.45	3365.69
414.64	3243.98
414.83	3307.18
415.02	3330.58
415.22	3602.08
415.41	3377.39
415.60	3325.90
415.79	3421.86
415.98	3396.12
416.17	3669.96
416.36	3513.14
416.55	3590.38
416.74	3749.54
416.93	3672.30
417.12	3674.64
417.31	3798.69
417.50	3796.35
417.69	3843.16
417.88	3999.98
418.07	3794.01
418.26	3969.55
418.45	3871.25
418.64	4084.23
418.83	4128.70
419.02	4032.74
419.21	4074.87
419.39	4205.94
419.58	4065.51
419.77	4079.55
419.96	4042.11
420.15	4109.98
420.34	4154.45
420.53	4222.33
420.72	4327.65
420.91	4257.43
421.10	4224.67
421.29	4421.27
421.48	4215.30
421.67	4374.46
421.86	4355.74
422.05	4514.89
422.24	4297.22
422.43	4491.49
422.61	4475.10
422.80	4615.54
422.99	4444.68
423.18	4610.86
423.37	4582.77
423.56	4568.73
423.75	4475.10
423.94	4376.80
424.13	4327.65
424.32	4283.18
424.50	4505.53
424.69	4641.28
424.88	4667.03
425.07	4608.51
425.26	4409.57
425.45	4329.99
425.64	4575.75
425.83	4622.56
426.01	4624.90
426.20	4531.28
426.39	4617.88
426.58	4723.20
426.77	4674.05
426.96	4552.34
427.15	4564.04
427.33	4950.23
427.52	4873.00
427.71	4926.83
427.90	4877.68
428.09	4856.61
428.28	4894.06
428.46	4980.66
428.65	5001.72
428.84	4957.25
429.03	4997.04
429.22	4894.06
429.40	5050.88
429.59	4997.04
429.78	4819.16
429.97	4873.00
430.16	4990.02
430.34	5144.50
430.53	5165.56
430.72	5207.69
430.91	5193.65
431.10	5249.82
431.28	5380.89
431.47	5413.66
431.66	5453.45
431.85	5317.70
432.03	5591.54
432.22	5713.25
432.41	5530.69
432.60	5427.70
432.79	5397.28
432.97	5575.16
433.16	5558.77
433.35	5624.31
433.54	5610.26
433.72	5760.06
433.91	5774.10
434.10	5617.29
434.28	5603.24
434.47	5589.20
434.66	5872.40
434.85	5832.62
435.03	5954.32
435.22	5769.42
435.41	5877.09
435.59	6029.22
435.78	5996.45
435.97	6083.05
436.16	6003.47
436.34	6069.01
436.53	6069.01
436.72	6052.63
436.90	6071.35
437.09	6211.78
437.28	6139.23
437.46	6090.07
437.65	6160.29
437.84	6363.92
438.02	6214.12
438.21	6413.07
438.40	6408.39
438.58	6509.03
438.77	6733.72
438.96	6401.37
439.14	6546.48
439.33	6799.26
439.52	6808.62
439.70	6750.10
439.89	6888.20
440.08	6839.05
440.26	6853.09
440.45	6984.16
440.63	6890.54
440.82	7136.29
441.01	6878.83
441.19	7087.14
441.38	7176.08
441.57	7250.98
441.75	7180.76
441.94	7269.70
442.12	7363.33
442.31	7564.61
442.50	7386.73
442.68	7527.16
442.87	7442.90
443.05	7609.08
443.24	7662.91
443.43	7744.83
443.61	7492.05
443.80	7793.98
443.98	7506.10
444.17	7386.73
444.35	7861.86
444.54	7791.64
444.73	7971.86
444.91	7779.94
445.10	7763.56
445.28	7864.20
445.47	7709.72
445.65	7803.35
445.84	7857.18
446.02	7866.54
446.21	7758.88
446.39	7786.96
446.58	7971.86
446.77	7978.89
446.95	7801.01
447.14	7936.76
447.32	8058.46
447.51	7964.84
447.69	7999.95
447.88	7927.39
448.06	8133.36
448.25	7983.57
448.43	8086.55
448.62	8187.19
448.80	7957.82
448.99	8046.76
449.17	8180.17
449.36	8065.49
449.54	8135.70
449.73	8262.09
449.91	8388.48
450.10	8386.14
450.28	8549.98
450.46	8535.93
450.65	8472.74
450.83	8585.08
451.02	8397.84
451.20	8519.55
451.39	8627.21
451.57	8500.83
451.76	8533.59
451.94	8524.23
452.13	8788.71
452.31	8601.47
452.49	8610.83
452.68	8718.50
452.86	8760.63
453.05	8868.29
453.23	9018.08
453.42	8812.12
453.60	8723.18
453.78	8812.12
453.97	8596.79
454.15	8898.72
454.34	8863.61
454.52	8896.38
454.70	8959.57
454.89	9231.07
455.07	9144.47
455.26	9390.23
455.44	9249.80
455.62	9238.09
455.81	9123.41
455.99	9214.69
456.17	9259.16
456.36	9362.14
456.54	9308.31
456.73	9675.77
456.91	9701.52
457.09	9755.35
457.28	10003.45
457.46	9458.10
457.64	9809.19
457.83	9720.24
458.01	9701.52
458.19	9888.76
458.38	9937.91
458.56	9816.21
458.74	9816.21
458.93	9893.44
459.11	10097.07
459.29	9867.70
459.48	10216.44
459.66	9853.66
459.84	10066.64
460.03	10307.72
460.21	10188.35
460.39	10115.80
460.57	10214.10
460.76	10415.38
460.94	10619.01
461.12	10338.15
461.31	10483.26
461.49	10450.49
461.67	10298.36
461.85	10822.64
462.04	10483.26
462.22	10836.68
462.40	10731.36
462.59	10689.23
462.77	10740.72
462.95	10855.40
463.13	10789.87
463.32	10787.53
463.50	10991.16
463.68	10801.57
463.86	11035.63
464.05	10700.93
464.23	10853.06
464.41	10998.18
464.59	10656.46
464.78	11150.31
464.96	11140.95
465.14	11033.29
465.32	11227.55
465.50	11293.08
465.69	11428.84
465.87	11187.76
466.05	11267.34
466.23	11356.28
466.41	11297.77
466.60	11737.79
466.78	11126.91
466.96	11162.01
467.14	11417.13
467.32	11508.41
467.51	11587.99
467.69	11377.34
467.87	11768.21
468.05	11597.35
468.23	11419.47
468.41	11461.60
468.60	11517.78
468.78	11854.81
468.96	11822.05
469.14	12009.29
469.32	12245.68
469.50	11681.61
469.69	12060.78
469.87	11969.50
470.05	12294.83
470.23	12198.87
470.41	12379.09
470.59	12063.12
470.77	12112.27
470.95	12444.63
471.14	12643.57
471.32	12067.80
471.50	12805.07
471.68	12655.28
471.86	12620.17
472.04	12416.54
472.22	12957.21
472.40	12671.66
472.58	12975.93
472.77	12753.58
472.95	12971.25
473.13	13558.72
473.31	12905.71
473.49	13181.90
473.67	13163.17
473.85	13322.33
474.03	13605.53
474.21	13495.53
474.39	13645.32
474.57	13642.98
474.75	13783.41
474.93	13949.59
475.12	13783.41
475.30	13942.57
475.48	13785.76
475.66	13994.06
475.84	14050.24
476.02	14537.07
476.20	14415.36
476.38	14609.62
476.56	14693.88
476.74	14672.82
476.92	14897.51
477.10	14471.53
477.28	14785.16
477.46	14862.40
477.64	15302.42
477.82	15201.78
478.00	15510.73
478.18	15667.55
478.36	15793.94
478.54	15583.29
478.72	15868.83
478.90	15981.18
479.08	16257.36
479.26	16205.87
479.44	16446.94
479.62	16645.89
479.80	16580.36
479.98	16573.33
480.16	17151.45
480.34	16870.58
480.52	17144.42
480.70	17188.89
480.88	17074.21
481.06	17408.90
481.24	17263.79
481.41	17682.75
481.59	18022.12
481.77	17968.29
481.95	18115.75
482.13	18391.93
482.31	18085.32
482.49	18607.26
482.67	18714.92
482.85	18855.36
483.03	18998.13
483.21	19367.93
483.39	19484.96
483.57	19580.92
483.74	19262.61
483.92	19960.09
484.10	19482.62
484.28	20042.01
484.46	20421.17
484.64	20603.74
484.82	20432.88
485.00	20737.15
485.18	20872.90
485.35	21076.52
485.53	21195.89
485.71	21535.27
485.89	21642.93
486.07	21612.51
486.25	21729.53
486.43	21762.30
486.61	22050.19
486.78	22312.33
486.96	22665.75
487.14	22881.08
487.32	22649.36
487.50	22979.38
487.68	22782.77
487.85	23517.70
488.03	23716.65
488.21	24210.50
488.39	23960.06
488.57	24177.73
488.75	24156.67
488.92	24418.81
489.10	24587.33
489.28	24961.81
489.46	25132.67
489.64	25111.61
489.81	25839.51
489.99	25633.55
490.17	25736.53
490.35	26312.30
490.53	26445.71
490.70	26031.44
490.88	26436.35
491.06	26607.21
491.24	26368.48
491.41	26843.60
491.59	26981.70
491.77	27220.43
491.95	27630.02
492.13	27548.11
492.30	27765.78
492.48	27721.30
492.66	27665.13
492.84	27871.10
493.01	28458.57
493.19	28147.28
493.37	29111.58
493.54	28797.95
493.72	29345.64
493.90	28680.92
494.08	29083.50
494.25	29834.81
494.43	29439.26
494.61	29905.02
494.79	30132.06
494.96	29970.56
495.14	30239.72
495.32	30525.27
495.49	30363.77
495.67	30691.44
495.85	31145.51
496.02	30883.37
496.20	31220.41
496.38	31714.26
496.55	31723.62
496.73	32341.52
496.91	31892.14
497.09	32236.20
497.26	32163.64
497.44	32278.33
497.62	32198.75
497.79	32706.65
497.97	32828.35
498.14	33582.01
498.32	33415.83
498.50	33483.70
498.67	33923.72
498.85	33383.06
499.03	33572.64
499.20	33472.00
499.38	33586.69
499.56	33975.22
499.73	34375.45
499.91	34171.82
500.08	34216.29
500.26	34412.90
500.44	34698.44
500.61	35007.39
500.79	34462.05
500.97	35299.96
501.14	35580.82
501.32	35473.16
501.49	35332.73
501.67	35395.92
501.84	35782.11
502.02	35906.16
502.20	35941.27
502.37	36062.97
502.55	36383.63
502.72	36301.71
502.90	36385.97
503.07	36488.95
503.25	36851.73
503.43	36350.86
503.60	37151.32
503.78	36952.38
503.95	37034.30
504.13	37127.92
504.30	37415.80
504.48	37076.43
504.65	37769.22
504.83	37694.33
505.01	38326.27
505.18	37818.38
505.36	38061.79
505.53	38085.20
505.71	38328.61
505.88	38693.74
506.06	38096.90
506.23	38600.12
506.41	38490.11
506.58	38684.37
506.76	38871.62
506.93	38646.93
507.11	39210.99
507.28	39222.70
507.46	39297.59
507.63	39316.32
507.81	39931.88
507.98	39576.12
508.16	39576.12
508.33	39538.67
508.50	39845.28
508.68	40329.77
508.85	40542.76
509.03	40196.36
509.20	40524.04
509.38	40598.93
509.55	40350.84
509.73	41219.17
509.90	41167.68
510.08	40748.73
510.25	41226.20
510.42	41099.81
510.60	41518.76
510.77	41876.86
510.95	41701.32
511.12	41771.54
511.30	41502.38
511.47	42052.41
511.64	41982.19
511.82	41816.01
511.99	42162.41
512.17	42562.64
512.34	42534.56
512.51	42466.68
512.69	42436.25
512.86	42597.75
513.04	42934.79
513.21	42951.17
513.38	43189.91
513.56	43325.66
513.73	42948.83
513.90	42981.60
514.08	43232.04
514.25	43772.70
514.43	43643.97
514.60	43885.04
514.77	44208.04
514.95	44334.43
515.12	43597.16
515.29	43892.07
515.47	44311.02
515.64	44694.87
515.81	44364.85
515.99	44699.55
516.16	45151.27
516.33	44760.40
516.51	45074.04
516.68	44692.53
516.85	44706.57
517.03	45443.84
517.20	45144.25
517.37	45251.92
517.54	45397.03
517.72	45181.70
517.89	45059.99
518.06	45322.13
518.24	45581.93
518.41	45656.83
518.58	45577.25
518.75	45619.38
518.93	46094.51
519.10	46291.12
519.27	45968.12
519.45	45911.95
519.62	46192.81
519.79	46263.03
519.96	45942.38
520.14	46366.01
520.31	46349.63
520.48	46756.88
520.65	46651.56
520.83	47040.09
521.00	46894.97
521.17	46777.95
521.34	46820.08
521.52	46897.31
521.69	47026.04
521.86	47440.32
522.03	47437.98
522.20	47786.72
522.38	47494.15
522.55	47587.77
522.72	47306.91
522.89	47861.61
523.07	48053.54
523.24	47723.52
523.41	48109.71
523.58	47873.32
523.75	48451.43
523.92	47892.04
524.10	48151.84
524.27	48348.45
524.44	48516.96
524.61	48444.41
524.78	48872.73
524.96	49125.50
525.13	48617.61
525.30	48786.13
525.47	48837.62
525.64	48811.87
525.81	48903.15
525.98	49319.77
526.16	49240.19
526.33	49301.04
526.50	49652.12
526.67	48889.11
526.84	49102.10
527.01	49626.38
527.18	49579.57
527.36	49563.18
527.53	49937.67
527.70	50333.22
527.87	49813.62
528.04	49595.95
528.21	49872.14
528.38	50010.23
528.55	50003.20
528.72	49677.87
528.89	49954.05
529.07	50157.68
529.24	50504.08
529.41	50248.96
529.58	50127.25
529.75	50326.20
529.92	50050.02
530.09	50330.88
530.26	50688.98
530.43	50471.31
530.60	50632.81
530.77	50471.31
530.94	50557.91
531.11	50625.79
531.28	50890.27
531.46	50688.98
531.63	50885.59
531.80	50677.28
531.97	51100.92
532.14	51161.77
532.31	50876.22
532.48	50801.33
532.65	51117.30
532.82	51147.73
532.99	51222.62
533.16	50993.25
533.33	51475.40
533.50	51711.80
533.67	51356.03
533.84	51313.90
534.01	51625.20
534.18	51201.56
534.35	51716.48
534.52	51765.63
534.69	51882.66
534.86	52175.22
535.03	51646.26
535.20	52051.17
535.37	51847.55
535.54	51943.51
535.71	51728.18
535.88	52030.11
536.05	51885.00
536.22	52266.50
536.38	52210.33
536.55	52416.30
536.72	52346.08
536.89	52198.63
537.06	52147.14
537.23	52343.74
537.40	51955.21
537.57	52538.01
537.74	52514.60
537.91	52615.24
538.08	52736.95
538.25	52603.54
538.42	52617.58
538.59	52853.98
538.75	52388.21
538.92	52725.25
539.09	52884.40
539.26	52861.00
539.43	52849.30
539.60	52779.08
539.77	52893.77
539.94	53013.13
540.11	52949.94
540.28	53183.99
540.44	52947.60
540.61	52928.87
540.78	52832.91
540.95	53352.51
541.12	52994.41
541.29	52954.62
541.46	53277.61
541.62	53050.58
541.79	52980.37
541.96	53230.80
542.13	53205.06
542.30	53317.40
542.47	53736.36
542.63	53450.81
542.80	53722.32
542.97	53951.69
543.14	53965.73
543.31	53703.59
543.48	53647.42
543.64	54162.34
543.81	53865.09
543.98	54012.54
544.15	54103.82
544.32	54082.76
544.48	54398.73
544.65	54129.57
544.82	54113.19
544.99	53771.47
545.16	54218.51
545.32	54181.06
545.49	54321.49
545.66	54237.23
545.83	54422.14
546.00	54396.39
546.16	54157.66
546.33	54078.08
546.50	53904.88
546.67	54454.90
546.83	53815.94
547.00	54518.10
547.17	54064.03
547.34	54494.69
547.50	54557.89
547.67	54597.68
547.84	54525.12
548.00	54581.29
548.17	54571.93
548.34	54600.02
548.51	54721.72
548.67	54866.84
548.84	54845.77
549.01	54733.43
549.18	54780.24
549.34	54925.35
549.51	54941.74
549.68	54667.89
549.84	54859.82
550.01	54845.77
550.18	55033.02
550.34	55023.65
550.51	55304.52
550.68	55011.95
550.84	54878.54
551.01	55096.21
551.18	54855.14
551.34	54710.02
551.51	54937.05
551.68	55033.02
551.84	55084.51
552.01	55150.04
552.18	55323.24
552.34	55367.71
552.51	55299.84
552.68	55126.64
552.84	55421.55
553.01	55393.46
553.18	55501.12
553.34	55533.89
553.51	55386.44
553.67	55622.83
553.84	55367.71
554.01	55627.51
554.17	55482.40
554.34	55590.06
554.51	55590.06
554.67	55779.65
554.84	55412.18
555.00	55683.69
555.17	55547.93
555.33	55847.52
555.50	55604.11
555.67	55744.54
555.83	55828.80
556.00	55569.00
556.16	56095.62
556.33	55674.32
556.50	55557.30
556.66	55838.16
556.83	55473.04
556.99	55959.87
557.16	56086.26
557.32	56214.99
557.49	56147.11
557.65	55774.97
557.82	55969.23
557.98	55936.46
558.15	55863.91
558.32	56069.87
558.48	55980.93
558.65	56285.20
558.81	56236.05
558.98	56034.77
559.14	56016.04
559.31	56296.91
559.47	55852.20
559.64	56142.43
559.80	55985.61
559.97	56133.07
560.13	56116.68
560.30	56392.87
560.46	56151.79
560.63	56259.46
560.79	56217.33
560.96	56334.35
561.12	56072.21
561.29	56217.33
561.45	56266.48
561.61	56491.17
561.78	56432.66
561.94	56315.63
562.11	56498.19
562.27	56210.31
562.44	56137.75
562.60	56535.64
562.77	56243.07
562.93	56334.35
563.10	56657.35
563.26	56430.32
563.42	56713.52
563.59	56699.48
563.75	56306.27
563.92	56655.01
564.08	56540.32
564.24	56385.85
564.41	56399.89
564.57	56313.29
564.74	56289.88
564.90	56327.33
565.07	56640.96
565.23	56507.55
565.39	56640.96
565.56	56638.62
565.72	56399.89
565.88	56671.39
566.05	56423.29
566.21	56313.29
566.38	56427.98
566.54	56514.58
566.70	56584.79
566.87	56797.78
567.03	56509.89
567.19	56872.68
567.36	56676.07
567.52	56559.05
567.68	56732.25
567.85	56582.45
568.01	56832.89
568.17	56676.07
568.34	56816.50
568.50	56683.09
568.66	56900.76
568.83	56947.57
568.99	56591.81
569.15	56582.45
569.32	56664.37
569.48	56413.93
569.64	56858.63
569.81	56594.15
569.97	56863.32
570.13	56755.65
570.30	56530.96
570.46	56816.50
570.62	56870.34
570.78	56687.78
570.95	56729.90
571.11	56870.34
571.27	56741.61
571.43	56591.81
571.60	56910.13
571.76	56741.61
571.92	56680.75
572.09	56659.69
572.25	56825.87
572.41	56748.63
572.57	56889.06
572.74	56711.18
572.90	56987.36
573.06	56727.56
573.22	56865.66
573.38	56898.42
573.55	56949.92
573.71	57169.93
573.87	56978.00
574.03	56573.09
574.20	56935.87
574.36	57003.75
574.52	56769.69
574.68	56647.99
574.84	56872.68
575.01	57214.40
575.17	56786.08
575.33	56849.27
575.49	56828.21
575.65	57031.83
575.82	57235.46
575.98	56994.39
576.14	56860.97
576.30	57186.31
576.46	56776.72
576.62	56495.85
576.79	56970.98
576.95	56975.66
577.11	56992.04
577.27	56985.02
577.43	56968.64
577.59	56741.61
577.75	56856.29
577.92	56865.66
578.08	56879.70
578.24	56968.64
578.40	56975.66
578.56	56949.92
578.72	57052.90
578.88	57088.01
579.04	57275.25
579.21	56853.95
579.37	56907.79
579.53	57123.11
579.69	56797.78
579.85	56914.81
580.01	57083.33
580.17	57015.45
580.33	56570.75
580.49	56987.36
580.65	57029.49
580.82	56949.92
580.98	57275.25
581.14	56924.17
581.30	57017.79
581.46	56680.75
581.62	56889.06
581.78	56846.93
581.94	56982.68
582.10	56825.87
582.26	56863.32
582.42	57017.79
582.58	57146.52
582.74	57174.61
582.90	56980.34
583.06	57125.46
583.22	56704.16
583.38	57092.69
583.54	56797.78
583.70	56896.08
583.86	57134.82
584.02	56619.90
584.18	57261.21
584.34	56954.60
584.50	57230.78
584.66	57125.46
584.82	56973.32
584.98	57083.33
585.14	56917.15
585.30	56851.61
585.46	56900.76
585.62	56891.40
585.78	57209.71
585.94	56851.61
586.10	57088.01
586.26	57153.54
586.42	57066.94
586.58	57212.06
586.74	57052.90
586.90	56790.76
587.06	56856.29
587.22	57153.54
587.38	57118.43
587.54	56942.89
587.70	57303.34
587.86	57006.09
588.02	57104.39
588.18	57425.04
588.34	57158.22
588.49	57043.54
588.65	57144.18
588.81	57088.01
588.97	57052.90
589.13	57085.67
589.29	57207.37
589.45	57244.82
