SpectraSuite Data File
++++++++++++++++++++++++++++++++++++
Date: Fri Oct 18 13:55:55 GMT-05:00 2013
User: bianchi
Dark Spectrum Present: No
Reference Spectrum Present: No
Number of Sampled Component Spectra: 1
Spectrometers: USB2+H05261
Integration Time (usec): 100000 (USB2+H05261)
Spectra Averaged: 1 (USB2+H05261)
Boxcar Smoothing: 0 (USB2+H05261)
Correct for Electrical Dark: No (USB2+H05261)
Strobe/Lamp Enabled: No (USB2+H05261)
Correct for Detector Non-linearity: No (USB2+H05261)
Correct for Stray Light: No (USB2+H05261)
Number of Pixels in Processed Spectrum: 2048
>>>>>Begin Processed Spectral Data<<<<<
365.73	0.00
365.92	0.00
366.12	0.00
366.32	0.00
366.52	0.00
366.72	0.00
366.91	0.00
367.11	0.00
367.31	0.00
367.51	0.00
367.70	0.00
367.90	0.00
368.10	0.00
368.30	0.00
368.49	0.00
368.69	0.00
368.89	0.00
369.09	0.00
369.28	0.00
369.48	0.00
369.68	0.00
369.87	0.00
370.07	0.00
370.27	0.00
370.47	28.09
370.66	201.29
370.86	238.73
371.06	252.78
371.25	318.31
371.45	283.20
371.65	313.63
371.84	308.95
372.04	330.02
372.24	294.91
372.44	341.72
372.63	390.87
372.83	362.78
373.03	393.21
373.22	325.33
373.42	442.36
373.62	386.19
373.81	390.87
374.01	425.98
374.21	433.00
374.40	414.27
374.60	386.19
374.79	482.15
374.99	491.51
375.19	503.22
375.38	458.74
375.58	470.45
375.78	451.72
375.97	503.22
376.17	519.60
376.37	458.74
376.56	381.51
376.76	535.98
376.95	477.47
377.15	442.36
377.35	491.51
377.54	463.43
377.74	557.05
377.93	566.41
378.13	521.94
378.33	566.41
378.52	463.43
378.72	582.79
378.91	477.47
379.11	484.49
379.31	475.13
379.50	477.47
379.70	543.00
379.89	573.43
380.09	519.60
380.28	493.85
380.48	568.75
380.68	601.52
380.87	610.88
381.07	566.41
381.26	629.60
381.46	585.13
381.65	585.13
381.85	543.00
382.04	585.13
382.24	638.97
382.43	662.37
382.63	603.86
382.83	702.16
383.02	653.01
383.22	683.44
383.41	599.18
383.61	631.94
383.80	697.48
384.00	676.41
384.19	645.99
384.39	688.12
384.58	688.12
384.78	753.65
384.97	641.31
385.17	681.10
385.36	631.94
385.56	725.57
385.75	727.91
385.95	697.48
386.14	788.76
386.34	638.97
386.53	786.42
386.72	741.95
386.92	734.93
387.11	713.86
387.31	765.36
387.50	826.21
387.70	734.93
387.89	730.25
388.09	781.74
388.28	828.55
388.48	877.70
388.67	784.08
388.86	734.93
389.06	842.59
389.25	816.85
389.45	730.25
389.64	877.70
389.84	903.45
390.03	905.79
390.22	849.61
390.42	954.94
390.61	875.36
390.81	823.87
391.00	854.30
391.19	903.45
391.39	938.55
391.58	1046.22
391.78	915.15
391.97	880.04
392.16	945.58
392.36	1020.47
392.55	1039.20
392.75	947.92
392.94	945.58
393.13	1039.20
393.33	1004.09
393.52	1118.78
393.71	1048.56
393.91	1027.50
394.10	1088.35
394.29	1034.52
394.49	1078.99
394.68	1008.77
394.88	1142.18
395.07	1160.91
395.26	1015.79
395.46	1060.26
395.65	1125.80
395.84	1142.18
396.04	1233.46
396.23	1123.46
396.42	1139.84
396.62	1238.14
396.81	1200.69
397.00	1240.48
397.19	1280.27
397.39	1151.54
397.58	1210.06
397.77	1284.95
397.97	1207.72
398.16	1214.74
398.35	1324.74
398.55	1231.12
398.74	1341.13
398.93	1249.85
399.12	1275.59
399.32	1303.68
399.51	1259.21
399.70	1320.06
399.90	1483.90
400.09	1371.55
400.28	1409.00
400.47	1336.45
400.67	1406.66
400.86	1460.49
401.05	1423.05
401.24	1540.07
401.44	1521.35
401.63	1565.82
401.82	1490.92
402.01	1411.34
402.21	1624.33
402.40	1614.97
402.59	1610.29
402.78	1558.80
402.97	1643.06
403.17	1647.74
403.36	1626.67
403.55	1629.01
403.74	1682.85
403.93	1732.00
404.13	1605.61
404.32	1734.34
404.51	1638.38
404.70	1654.76
404.89	1790.51
405.09	1898.17
405.28	1776.47
405.47	1755.40
405.66	1858.39
405.85	1788.17
406.05	1818.60
406.24	1872.43
406.43	1856.04
406.62	1968.39
406.81	1956.69
407.00	1905.20
407.20	1956.69
407.39	2040.95
407.58	1996.48
407.77	2038.61
407.96	2132.23
408.15	2083.08
408.34	2087.76
408.54	2090.10
408.73	2179.04
408.92	2115.84
409.11	2338.20
409.30	2204.78
409.49	2331.17
409.68	2239.89
409.87	2162.66
410.07	2289.04
410.26	2207.13
410.45	2363.94
410.64	2361.60
410.83	2396.71
411.02	2314.79
411.21	2464.58
411.40	2396.71
411.59	2532.46
411.78	2534.80
411.98	2635.44
412.17	2558.21
412.36	2544.16
412.55	2576.93
412.74	2710.34
412.93	2729.06
413.12	2544.16
413.31	2635.44
413.50	2724.38
413.69	2740.77
413.88	2806.30
414.07	2853.11
414.26	2829.71
414.45	2906.95
414.64	2963.12
414.83	2904.60
415.02	2958.44
415.22	3030.99
415.41	3255.69
415.60	3056.74
415.79	3164.40
415.98	3075.46
416.17	3091.85
416.36	3087.17
416.55	3148.02
416.74	3288.45
416.93	3258.03
417.12	3258.03
417.31	3314.20
417.50	3536.55
417.69	3557.61
417.88	3487.40
418.07	3346.97
418.26	3384.41
418.45	3562.30
418.64	3730.81
418.83	3611.45
419.02	3571.66
419.21	3758.90
419.39	3868.91
419.58	3700.39
419.77	3686.34
419.96	3625.49
420.15	3859.54
420.34	3681.66
420.53	3927.42
420.72	3911.04
420.91	3925.08
421.10	4070.19
421.29	3985.93
421.48	3768.26
421.67	3901.67
421.86	3880.61
422.05	4058.49
422.24	4021.04
422.43	3985.93
422.61	4177.86
422.80	4049.13
422.99	4138.07
423.18	4084.23
423.37	4086.58
423.56	4243.39
423.75	4170.83
423.94	4065.51
424.13	3777.62
424.32	3946.14
424.50	4135.73
424.69	4166.15
424.88	4217.65
425.07	4053.81
425.26	3831.46
425.45	4177.86
425.64	4205.94
425.83	4236.37
426.01	4201.26
426.20	4257.43
426.39	4301.90
426.58	4266.80
426.77	4159.13
426.96	4358.08
427.15	4327.65
427.33	4346.37
427.52	4463.40
427.71	4358.08
427.90	4395.53
428.09	4575.75
428.28	4344.03
428.46	4517.23
428.65	4400.21
428.84	4547.66
429.03	4622.56
429.22	4667.03
429.40	4631.92
429.59	4652.98
429.78	4500.85
429.97	4456.38
430.16	4622.56
430.34	4514.89
430.53	4702.14
430.72	4662.35
430.91	4739.58
431.10	4674.05
431.28	4784.06
431.47	4812.14
431.66	4971.30
431.85	4784.06
432.03	5029.81
432.22	4912.78
432.41	5022.79
432.60	5046.20
432.79	4997.04
432.97	5034.49
433.16	5050.88
433.35	5015.77
433.54	5125.77
433.72	5078.96
433.91	5046.20
434.10	5109.39
434.28	5184.29
434.47	5085.98
434.66	5125.77
434.85	5114.07
435.03	5329.40
435.22	5282.59
435.41	5516.64
435.59	5287.27
435.78	5430.04
435.97	5404.30
436.16	5455.79
436.34	5427.70
436.53	5455.79
436.72	5579.84
436.90	5380.89
437.09	5551.75
437.28	5406.64
437.46	5687.50
437.65	5514.30
437.84	5724.95
438.02	5654.73
438.21	5741.33
438.40	5820.91
438.58	5692.18
438.77	5849.00
438.96	5776.44
439.14	5991.77
439.33	6150.93
439.52	6298.38
439.70	6005.81
439.89	6122.84
440.08	6202.42
440.26	6298.38
440.45	6274.98
440.63	6333.49
440.82	6237.53
441.01	6265.61
441.19	6576.91
441.38	6661.16
441.57	6469.24
441.75	6607.33
441.94	6490.31
442.12	6689.25
442.31	6766.49
442.50	6747.76
442.68	6813.30
442.87	6951.39
443.05	6815.64
443.24	6920.96
443.43	6853.09
443.61	6825.00
443.80	6883.52
443.98	6984.16
444.17	6750.10
444.35	6974.80
444.54	7084.80
444.73	7162.04
444.91	6902.24
445.10	7005.22
445.28	7005.22
445.47	6817.98
445.65	7070.76
445.84	7068.42
446.02	7140.97
446.21	7000.54
446.39	7012.24
446.58	7178.42
446.77	7084.80
446.95	6857.77
447.14	7180.76
447.32	7164.38
447.51	7213.53
447.69	7190.13
447.88	7339.92
448.06	7375.03
448.25	7180.76
448.43	7248.64
448.62	7178.42
448.80	7321.20
448.99	7403.11
449.17	7410.14
449.36	7227.57
449.54	7489.71
449.73	7442.90
449.91	7445.24
450.10	7667.60
450.28	7695.68
450.46	7545.89
450.65	7634.83
450.83	7728.45
451.02	7620.78
451.20	7875.90
451.39	7712.07
451.57	7756.54
451.76	7630.15
451.94	7700.36
452.13	7875.90
452.31	7831.43
452.49	7829.09
452.68	7882.92
452.86	8013.99
453.05	7976.55
453.23	8058.46
453.42	7899.31
453.60	7850.16
453.78	7948.46
453.97	7871.22
454.15	8119.32
454.34	8098.25
454.52	8201.24
454.70	8168.47
454.89	8065.49
455.07	8084.21
455.26	8098.25
455.44	8166.13
455.62	8241.03
455.81	8519.55
455.99	8362.73
456.17	8374.44
456.36	8463.38
456.54	8720.84
456.73	8627.21
456.91	8922.12
457.09	8547.64
457.28	8987.66
457.46	8791.05
457.64	8681.05
457.83	8758.28
458.01	8798.07
458.19	9144.47
458.38	8889.35
458.56	9135.11
458.74	8947.87
458.93	8819.14
459.11	9057.87
459.29	8840.20
459.48	9081.28
459.66	9057.87
459.84	9137.45
460.03	9455.76
460.21	9277.88
460.39	9523.64
460.57	9158.52
460.76	9334.06
460.94	9334.06
461.12	9357.46
461.31	9259.16
461.49	9207.67
461.67	9270.86
461.85	9741.31
462.04	9518.96
462.22	10176.65
462.40	9668.75
462.59	9341.08
462.77	9748.33
462.95	9469.81
463.13	9703.86
463.32	9699.18
463.50	9727.27
463.68	9729.61
463.86	9951.96
464.05	9713.22
464.23	9813.87
464.41	10068.98
464.59	9720.24
464.78	10052.60
464.96	10022.17
465.14	9839.61
465.32	10071.33
465.50	10532.41
465.69	10354.53
465.87	10059.62
466.05	10001.11
466.23	9912.17
466.41	10415.38
466.60	10513.69
466.78	10314.74
466.96	9958.98
467.14	10349.85
467.32	10277.29
467.51	10487.94
467.69	10115.80
467.87	10319.42
468.05	10595.61
468.23	10483.26
468.41	10441.13
468.60	10434.11
468.78	10654.12
468.96	10333.47
469.14	10794.55
469.32	10668.16
469.50	10298.36
469.69	10906.90
469.87	10855.40
470.05	11016.90
470.23	11101.16
470.41	10778.17
470.59	10960.73
470.77	10721.99
470.95	10993.50
471.14	11241.59
471.32	10984.13
471.50	11288.40
471.68	11442.88
471.86	11241.59
472.04	11641.82
472.22	11698.00
472.40	11257.98
472.58	11438.20
472.77	11623.10
472.95	11463.94
473.13	12128.66
473.31	11690.98
473.49	11955.46
473.67	11583.31
473.85	12023.33
474.03	11910.99
474.21	12020.99
474.39	12189.51
474.57	12154.40
474.75	12414.20
474.93	12224.62
475.12	12465.69
475.30	12564.00
475.48	12285.47
475.66	12603.78
475.84	12784.01
476.02	12940.82
476.20	12690.38
476.38	13078.91
476.56	13429.99
476.74	13245.09
476.92	13125.72
477.10	13256.79
477.28	13355.10
477.46	13563.40
477.64	13490.85
477.82	13565.74
478.00	14157.90
478.18	14115.77
478.36	14015.13
478.54	14150.88
478.72	14382.59
478.90	14546.43
479.08	14546.43
479.26	14616.65
479.44	14525.36
479.62	14728.99
479.80	14977.09
479.98	14853.04
480.16	15225.18
480.34	15122.20
480.52	15550.52
480.70	15555.20
480.88	15213.48
481.06	15372.64
481.24	15365.62
481.41	15627.76
481.59	16166.08
481.77	16168.42
481.95	16189.49
482.13	16367.37
482.31	16315.87
482.49	16638.87
482.67	16744.19
482.85	16683.34
483.03	17214.64
483.21	17121.02
483.39	17350.39
483.57	17521.25
483.74	17544.66
483.92	17635.94
484.10	17804.46
484.28	18106.38
484.46	18181.28
484.64	18333.42
484.82	18162.56
485.00	18541.72
485.18	18754.71
485.35	19007.49
485.53	18888.12
485.71	19112.81
485.89	19489.64
486.07	19672.20
486.25	19389.00
486.43	19833.70
486.61	19777.53
486.78	19829.02
486.96	19814.98
487.14	20393.09
487.32	20329.89
487.50	20676.29
487.68	20744.17
487.85	20594.37
488.03	21561.02
488.21	21216.96
488.39	21532.93
488.57	21462.71
488.75	21502.50
488.92	22155.51
489.10	22209.34
489.28	22136.79
489.46	22635.32
489.64	22298.28
489.81	22822.56
489.99	22895.12
490.17	23091.73
490.35	23323.44
490.53	23051.94
490.70	23445.15
490.88	23597.28
491.06	23662.82
491.24	23510.68
491.41	23908.57
491.59	24144.97
491.77	24037.30
491.95	24531.15
492.13	24650.52
492.30	24973.52
492.48	24996.92
492.66	24709.04
492.84	25062.46
493.01	25160.76
493.19	25497.80
493.37	25656.95
493.54	25682.70
493.72	25881.64
493.90	25891.01
494.08	26143.78
494.25	26448.05
494.43	26387.20
494.61	26710.19
494.79	26892.76
494.96	27164.26
495.14	26888.07
495.32	27456.82
495.49	27178.30
495.67	27456.82
495.85	27782.16
496.02	28198.77
496.20	27824.29
496.38	27669.81
496.55	27835.99
496.73	28999.24
496.91	28226.86
497.09	29137.33
497.26	28783.91
497.44	28404.74
497.62	29123.29
497.79	29259.04
497.97	29078.82
498.14	29727.14
498.32	30120.35
498.50	29549.26
498.67	30328.66
498.85	29567.99
499.03	30026.73
499.20	30288.87
499.38	30239.72
499.56	30389.52
499.73	30560.37
499.91	31037.84
500.08	31143.17
500.26	30824.86
500.44	30939.54
500.61	30976.99
500.79	31072.95
500.97	31215.72
501.14	31693.19
501.32	31835.97
501.49	31545.74
501.67	31700.22
501.84	31838.31
502.02	32037.25
502.20	32367.27
502.37	32250.24
502.55	32275.99
502.72	32685.58
502.90	32573.24
503.07	32364.93
503.25	32449.19
503.43	32374.29
503.60	33134.96
503.78	32786.22
503.95	33277.74
504.13	33235.61
504.30	33125.60
504.48	33230.93
504.65	33481.36
504.83	33701.37
505.01	34033.73
505.18	33851.17
505.36	34171.82
505.53	33654.56
505.71	34232.68
505.88	34148.42
506.06	33975.22
506.23	34520.56
506.41	34426.94
506.58	34742.91
506.76	34735.89
506.93	34691.42
507.11	35005.05
507.28	34768.66
507.46	35103.35
507.63	35082.29
507.81	35702.53
507.98	35201.66
508.16	35250.81
508.33	35601.89
508.50	35599.55
508.68	35639.34
508.85	36320.43
509.03	35817.22
509.20	35992.76
509.38	36638.75
509.55	36233.83
509.73	36451.50
509.90	36491.29
510.08	36299.37
510.25	36779.18
510.42	37336.23
510.60	37170.05
510.77	36987.49
510.95	37797.31
511.12	37017.91
511.30	37373.67
511.47	37310.48
511.64	37392.40
511.82	37907.32
511.99	37738.80
512.17	38036.05
512.34	37727.10
512.51	38267.76
512.69	38284.14
512.86	38162.43
513.04	38457.34
513.21	38815.44
513.38	38780.34
513.56	38565.01
513.73	38679.69
513.90	38298.19
514.08	39009.71
514.25	38983.96
514.43	39124.40
514.60	39189.93
514.77	39112.69
514.95	39243.76
515.12	38925.45
515.29	39533.99
515.47	39625.27
515.64	40210.40
515.81	40093.38
515.99	40369.56
516.16	40165.93
516.33	39931.88
516.51	39913.16
516.68	39964.65
516.85	40212.74
517.03	40278.28
517.20	40458.50
517.37	40996.82
517.54	40999.16
517.72	40758.09
517.89	40641.06
518.06	40687.87
518.24	41205.13
518.41	41048.32
518.58	41366.63
518.75	41071.72
518.93	41521.10
519.10	41371.31
519.27	41617.07
519.45	41661.54
519.62	41219.17
519.79	41179.39
519.96	41675.58
520.14	42085.17
520.31	41855.80
520.48	42176.45
520.65	42349.65
520.83	42445.62
521.00	41930.70
521.17	41830.05
521.34	42078.15
521.52	42176.45
521.69	42499.45
521.86	43157.14
522.03	42836.48
522.20	42906.70
522.38	42993.30
522.55	42934.79
522.72	43150.12
522.89	42836.48
523.07	43147.78
523.24	43388.85
523.41	43601.84
523.58	42946.49
523.75	43522.26
523.92	43433.32
524.10	43608.86
524.27	43332.68
524.44	43892.07
524.61	44182.29
524.78	43805.47
524.96	44287.62
525.13	44025.48
525.30	44062.93
525.47	44105.06
525.64	44432.73
525.81	44748.70
525.98	44715.93
526.16	44659.76
526.33	44793.17
526.50	45214.47
526.67	44617.63
526.84	44729.98
527.01	44769.77
527.18	45223.83
527.36	45284.68
527.53	45139.57
527.70	45546.82
527.87	45495.33
528.04	44680.83
528.21	45160.64
528.38	45263.62
528.55	45282.34
528.72	45399.37
528.89	45621.72
529.07	45507.04
529.24	45518.74
529.41	45778.54
529.58	45645.13
529.75	45485.97
529.92	45890.88
530.09	45631.08
530.26	46082.81
530.43	46253.67
530.60	45801.94
530.77	46059.40
530.94	46174.09
531.11	46349.63
531.28	46188.13
531.46	46305.16
531.63	46714.75
531.80	46679.64
531.97	46799.01
532.14	46742.84
532.31	46721.77
532.48	46787.31
532.65	46429.21
532.82	46251.33
532.99	47058.81
533.16	46808.37
533.33	46693.69
533.50	47136.05
533.67	47243.71
533.84	46857.52
534.01	46794.33
534.18	47353.72
534.35	47435.64
534.52	47079.88
534.69	47309.25
534.86	47824.17
535.03	47381.80
535.20	47608.84
535.37	47510.53
535.54	47739.91
535.71	47433.30
535.88	47353.72
536.05	47826.51
536.22	47955.24
536.38	48381.21
536.55	48566.12
536.72	48259.51
536.89	47641.60
537.06	47828.85
537.23	48210.35
537.40	48250.14
537.57	48175.25
537.74	48439.73
537.91	48633.99
538.08	48428.02
538.25	47959.92
538.42	48505.26
538.59	48751.02
538.75	48086.31
538.92	48098.01
539.09	48645.69
539.26	48865.70
539.43	48545.05
539.60	48711.23
539.77	49055.29
539.94	48809.53
540.11	48704.21
540.28	48844.64
540.44	48779.10
540.61	48498.24
540.78	49116.14
540.95	49003.80
541.12	49146.57
541.29	49177.00
541.46	49155.93
541.62	48570.80
541.79	49141.89
541.96	48701.87
542.13	49186.36
542.30	49464.88
542.47	49670.85
542.63	49469.56
542.80	49495.31
542.97	50021.93
543.14	49846.39
543.31	49773.83
543.48	49415.73
543.64	50155.34
543.81	50197.47
543.98	49741.06
544.15	50042.99
544.32	50176.40
544.48	50457.27
544.65	49822.98
544.82	49935.33
544.99	49961.08
545.16	49825.32
545.32	50164.70
545.49	50396.42
545.66	50443.23
545.83	50279.39
546.00	50726.43
546.16	50014.91
546.33	50164.70
546.50	50206.83
546.67	50681.96
546.83	49722.34
547.00	50440.89
547.17	50066.40
547.34	50569.61
547.50	50787.28
547.67	50848.14
547.84	50841.12
548.00	50637.49
548.17	50773.24
548.34	50707.71
548.51	50988.57
548.67	50897.29
548.84	51161.77
549.01	51161.77
549.18	50986.23
549.34	50878.57
549.51	50838.78
549.68	50632.81
549.84	50927.72
550.01	51056.45
550.18	50941.76
550.34	51295.18
550.51	51105.60
550.68	51185.18
550.84	50848.14
551.01	51138.36
551.18	50962.82
551.34	51007.29
551.51	51341.99
551.68	51444.98
551.84	51491.79
552.01	51070.49
552.18	51702.43
552.34	51372.42
552.51	51475.40
552.68	51554.98
552.84	51484.76
553.01	51536.26
553.18	51349.01
553.34	51833.50
553.51	51447.32
553.67	51922.44
553.84	51936.49
554.01	51924.78
554.17	51571.36
554.34	51772.65
554.51	51697.75
554.67	51487.10
554.84	52037.13
555.00	51873.29
555.17	51791.37
555.33	51545.62
555.50	51973.94
555.67	52058.20
555.83	51938.83
556.00	51976.28
556.16	52126.07
556.33	51756.27
556.50	51929.47
556.66	52142.45
556.83	52011.38
556.99	52332.04
557.16	52147.14
557.32	52327.36
557.49	52463.11
557.65	52093.30
557.82	51915.42
557.98	52002.02
558.15	52128.41
558.32	52507.58
558.48	52388.21
558.65	52420.98
558.81	52568.43
558.98	52514.60
559.14	52219.69
559.31	52301.61
559.47	52383.53
559.64	52390.55
559.80	52416.30
559.97	52397.57
560.13	52102.67
560.30	52257.14
560.46	52584.82
560.63	52388.21
560.79	52226.71
560.96	52507.58
561.12	52622.26
561.29	52500.56
561.45	52580.13
561.61	52816.53
561.78	52832.91
561.94	52982.71
562.11	52659.71
562.27	52322.68
562.44	52472.47
562.60	52669.08
562.77	52236.08
562.93	52390.55
563.10	52947.60
563.26	52577.79
563.42	52739.29
563.59	52947.60
563.75	52622.26
563.92	52556.73
564.08	52308.63
564.24	52853.98
564.41	52720.57
564.57	52701.84
564.74	52793.12
564.90	52830.57
565.07	52956.96
565.23	52893.77
565.39	52837.59
565.56	52839.93
565.72	52722.91
565.88	52720.57
566.05	52814.19
566.21	52818.87
566.38	52811.85
566.54	52938.24
566.70	52940.58
566.87	52928.87
567.03	52804.83
567.19	53059.94
567.36	52919.51
567.52	52640.99
567.68	53151.23
567.85	52608.22
568.01	53041.22
568.17	52743.97
568.34	53186.33
568.50	53097.39
568.66	52868.02
568.83	52975.69
568.99	52903.13
569.15	53132.50
569.32	52648.01
569.48	52877.38
569.64	53090.37
569.81	53024.84
569.97	53270.59
570.13	53364.21
570.30	53198.04
570.46	53284.64
570.62	53141.86
570.78	52992.07
570.95	52612.90
571.11	53001.43
571.27	52839.93
571.43	52954.62
571.60	53371.24
571.76	53111.44
571.92	53322.08
572.09	53286.98
572.25	53221.44
572.41	52928.87
572.57	52992.07
572.74	53008.45
572.90	53006.11
573.06	53118.46
573.22	52921.85
573.38	53092.71
573.55	52884.40
573.71	53483.58
573.87	53336.13
574.03	53151.23
574.20	53179.31
574.36	53186.33
574.52	53052.92
574.68	52947.60
574.84	53261.23
575.01	53013.13
575.17	53116.12
575.33	53183.99
575.49	53235.48
575.65	53345.49
575.82	53432.09
575.98	53378.26
576.14	53338.47
576.30	53336.13
576.46	53134.84
576.62	52776.74
576.79	53347.83
576.95	53137.18
577.11	53052.92
577.27	53324.43
577.43	53137.18
577.59	52924.19
577.75	53179.31
577.92	53043.56
578.08	52814.19
578.24	53111.44
578.40	53003.77
578.56	53111.44
578.72	53254.21
578.88	53434.43
579.04	53621.67
579.21	53305.70
579.37	53209.74
579.53	53567.84
579.69	53226.12
579.85	53132.50
580.01	53237.83
580.17	53036.54
580.33	53041.22
580.49	53284.64
580.65	53387.62
580.82	53272.93
580.98	53151.23
581.14	53240.17
581.30	53525.71
581.46	52921.85
581.62	53034.20
581.78	53113.78
581.94	53275.27
582.10	53106.76
582.26	53394.64
582.42	53427.41
582.58	53207.40
582.74	53176.97
582.90	53275.27
583.06	53331.45
583.22	52973.34
583.38	53017.82
583.54	53296.34
583.70	53172.29
583.86	53162.93
584.02	53008.45
584.18	53219.10
584.34	53516.35
584.50	53633.38
584.66	53481.24
584.82	53008.45
584.98	53261.23
585.14	53301.02
585.30	53282.30
585.46	53322.08
585.62	53013.13
585.78	53301.02
585.94	52992.07
586.10	53052.92
586.26	53387.62
586.42	53698.91
586.58	53411.02
586.74	53237.83
586.90	52842.27
587.06	53198.04
587.22	53319.74
587.38	53104.41
587.54	53460.18
587.70	53521.03
587.86	53429.75
588.02	53516.35
588.18	53511.67
588.34	53387.62
588.49	53331.45
588.65	53188.67
588.81	53284.64
588.97	53567.84
589.13	53116.12
589.29	53240.17
589.45	53731.68
589.61	53352.51
589.77	53499.97
589.93	53460.18
