SpectraSuite Data File
++++++++++++++++++++++++++++++++++++
Date: Fri Oct 18 13:54:03 GMT-05:00 2013
User: bianchi
Dark Spectrum Present: No
Reference Spectrum Present: No
Number of Sampled Component Spectra: 1
Spectrometers: USB2+H05261
Integration Time (usec): 100000 (USB2+H05261)
Spectra Averaged: 1 (USB2+H05261)
Boxcar Smoothing: 0 (USB2+H05261)
Correct for Electrical Dark: No (USB2+H05261)
Strobe/Lamp Enabled: No (USB2+H05261)
Correct for Detector Non-linearity: No (USB2+H05261)
Correct for Stray Light: No (USB2+H05261)
Number of Pixels in Processed Spectrum: 2048
>>>>>Begin Processed Spectral Data<<<<<
365.73	0.00
365.92	0.00
366.12	0.00
366.32	0.00
366.52	0.00
366.72	0.00
366.91	0.00
367.11	0.00
367.31	0.00
367.51	0.00
367.70	0.00
367.90	0.00
368.10	0.00
368.30	0.00
368.49	0.00
368.69	0.00
368.89	0.00
369.09	0.00
369.28	0.00
369.48	0.00
369.68	0.00
369.87	0.00
370.07	0.00
370.27	0.00
370.47	95.96
370.66	299.59
370.86	236.39
371.06	243.42
371.25	402.57
371.45	339.38
371.65	386.19
371.84	425.98
372.04	369.80
372.24	442.36
372.44	421.30
372.63	496.19
372.83	468.11
373.03	435.34
373.22	386.19
373.42	418.96
373.62	521.94
373.81	503.22
374.01	547.69
374.21	486.83
374.40	456.40
374.60	512.58
374.79	475.13
374.99	498.53
375.19	510.24
375.38	386.19
375.58	465.77
375.78	500.87
375.97	559.39
376.17	561.73
376.37	550.03
376.56	561.73
376.76	545.34
376.95	423.64
377.15	528.96
377.35	678.76
377.54	552.37
377.74	561.73
377.93	571.09
378.13	615.56
378.33	671.73
378.52	564.07
378.72	472.79
378.91	641.31
379.11	601.52
379.31	561.73
379.50	620.24
379.70	603.86
379.89	582.79
380.09	617.90
380.28	681.10
380.48	685.78
380.68	690.46
380.87	657.69
381.07	660.03
381.26	725.57
381.46	664.71
381.65	739.61
381.85	674.07
382.04	681.10
382.24	767.70
382.43	732.59
382.63	732.59
382.83	751.31
383.02	833.23
383.22	676.41
383.41	744.29
383.61	777.06
383.80	802.80
384.00	826.21
384.19	727.91
384.39	763.01
384.58	798.12
384.78	784.08
384.97	800.46
385.17	734.93
385.36	835.57
385.56	924.51
385.75	849.61
385.95	851.96
386.14	816.85
386.34	814.51
386.53	882.38
386.72	863.66
386.92	912.81
387.11	877.70
387.31	851.96
387.50	943.24
387.70	894.08
387.89	873.02
388.09	954.94
388.28	945.58
388.48	922.17
388.67	915.15
388.86	959.62
389.06	922.17
389.25	919.83
389.45	966.64
389.64	889.40
389.84	1011.11
390.03	999.41
390.22	1004.09
390.42	992.39
390.61	940.90
390.81	1057.92
391.00	980.68
391.19	1102.39
391.39	1032.18
391.58	1055.58
391.78	1064.94
391.97	1111.75
392.16	1074.31
392.36	1064.94
392.55	1132.82
392.75	1149.20
392.94	1151.54
393.13	1156.22
393.33	1090.69
393.52	1116.44
393.71	1170.27
393.91	1254.53
394.10	1212.40
394.29	1231.12
394.49	1198.35
394.68	1317.72
394.88	1210.06
395.07	1387.94
395.26	1214.74
395.46	1221.76
395.65	1322.40
395.84	1369.21
396.04	1416.02
396.23	1270.91
396.42	1383.26
396.62	1427.73
396.81	1338.79
397.00	1341.13
397.19	1289.64
397.39	1303.68
397.58	1511.99
397.77	1404.32
397.97	1465.18
398.16	1409.00
398.35	1551.78
398.55	1467.52
398.74	1533.05
398.93	1519.01
399.12	1516.67
399.32	1556.46
399.51	1537.73
399.70	1636.03
399.90	1626.67
400.09	1556.46
400.28	1764.76
400.47	1621.99
400.67	1589.22
400.86	1694.55
401.05	1572.84
401.24	1638.38
401.44	1713.27
401.63	1827.96
401.82	1781.15
402.01	1703.91
402.21	1802.21
402.40	1783.49
402.59	1827.96
402.78	1729.66
402.97	1830.30
403.17	1851.36
403.36	1778.81
403.55	1849.02
403.74	1900.52
403.93	1987.11
404.13	2015.20
404.32	1907.54
404.51	1963.71
404.70	1998.82
404.89	2008.18
405.09	2064.35
405.28	2129.89
405.47	2015.20
405.66	2111.16
405.85	2155.63
406.05	2097.12
406.24	2162.66
406.43	2176.70
406.62	2200.10
406.81	2218.83
407.00	2232.87
407.20	2172.02
407.39	2216.49
407.58	2256.28
407.77	2307.77
407.96	2399.05
408.15	2349.90
408.34	2251.60
408.54	2380.32
408.73	2410.75
408.92	2415.43
409.11	2389.69
409.30	2417.77
409.49	2506.71
409.68	2530.12
409.87	2539.48
410.07	2607.36
410.26	2492.67
410.45	2630.76
410.64	2661.19
410.83	2581.61
411.02	2705.66
411.21	2719.70
411.40	2708.00
411.59	2771.19
411.78	2932.69
411.98	2895.24
412.17	2890.56
412.36	2747.79
412.55	3023.97
412.74	2977.16
412.93	3005.25
413.12	2984.18
413.31	3145.68
413.50	2885.88
413.69	3218.24
413.88	3171.43
414.07	3133.98
414.26	3288.45
414.45	3197.17
414.64	3370.37
414.83	3297.81
415.02	3255.69
415.22	3461.65
415.41	3541.23
415.60	3552.93
415.79	3426.54
415.98	3571.66
416.17	3527.19
416.36	3564.64
416.55	3585.70
416.74	3646.55
416.93	3695.71
417.12	3637.19
417.31	3669.96
417.50	3709.75
417.69	3918.06
417.88	3808.05
418.07	3840.82
418.26	3908.69
418.45	4077.21
418.64	4088.92
418.83	3929.76
419.02	4072.53
419.21	3967.21
419.39	4208.28
419.58	4053.81
419.77	3976.57
419.96	4259.78
420.15	4236.37
420.34	4182.54
420.53	4135.73
420.72	4266.80
420.91	4264.46
421.10	4287.86
421.29	4479.79
421.48	4311.27
421.67	4334.67
421.86	4358.08
422.05	4421.27
422.24	4400.21
422.43	4402.55
422.61	4573.41
422.80	4414.25
422.99	4578.09
423.18	4594.47
423.37	4435.32
423.56	4533.62
423.75	4510.21
423.94	4561.70
424.13	4278.50
424.32	4418.93
424.50	4528.94
424.69	4732.56
424.88	4760.65
425.07	4397.87
425.26	4475.10
425.45	4606.17
425.64	4599.15
425.83	4622.56
426.01	4629.58
426.20	4695.11
426.39	4582.77
426.58	4699.80
426.77	4905.76
426.96	4622.56
427.15	4734.90
427.33	4873.00
427.52	4865.97
427.71	4908.10
427.90	4847.25
428.09	4936.19
428.28	4922.15
428.46	4887.04
428.65	4894.06
428.84	5146.84
429.03	5181.95
429.22	4973.64
429.40	5100.03
429.59	5259.18
429.78	5053.22
429.97	4779.37
430.16	5043.85
430.34	5242.80
430.53	5163.22
430.72	5310.68
430.91	5296.63
431.10	5149.18
431.28	5479.19
431.47	5406.64
431.66	5458.13
431.85	5254.50
432.03	5523.66
432.22	5610.26
432.41	5423.02
432.60	5582.18
432.79	5666.44
432.97	5521.32
433.16	5582.18
433.35	5659.42
433.54	5764.74
433.72	5788.14
433.91	5738.99
434.10	5769.42
434.28	5734.31
434.47	5912.19
434.66	5811.55
434.85	6001.13
435.03	5949.64
435.22	5942.62
435.41	5860.70
435.59	6108.80
435.78	5956.66
435.97	6136.88
436.16	6069.01
436.34	5980.07
436.53	6031.56
436.72	6392.00
436.90	5928.58
437.09	6094.76
437.28	6120.50
437.46	6188.38
437.65	6239.87
437.84	6415.41
438.02	6312.42
438.21	6242.21
438.40	6251.57
438.58	6436.47
438.77	6607.33
438.96	6492.65
439.14	6743.08
439.33	6764.15
439.52	6693.93
439.70	6871.81
439.89	6773.51
440.08	6827.34
440.26	7173.74
440.45	6850.75
440.63	7122.25
440.82	6981.82
441.01	7155.02
441.19	7288.43
441.38	7258.00
441.57	7328.22
441.75	7396.09
441.94	7482.69
442.12	7480.35
442.31	7541.21
442.50	7620.78
442.68	7353.96
442.87	7679.30
443.05	7606.74
443.24	7880.58
443.43	7721.43
443.61	7623.12
443.80	7798.66
443.98	7712.07
444.17	7407.80
444.35	7772.92
444.54	7894.63
444.73	7808.03
444.91	7805.69
445.10	7845.48
445.28	7880.58
445.47	7793.98
445.65	7871.22
445.84	7992.93
446.02	7878.24
446.21	7770.58
446.39	7925.05
446.58	7967.18
446.77	7978.89
446.95	7735.47
447.14	7803.35
447.32	7875.90
447.51	7974.21
447.69	7983.57
447.88	8168.47
448.06	8124.00
448.25	7988.25
448.43	8088.89
448.62	7974.21
448.80	7843.14
448.99	8283.16
449.17	8133.36
449.36	8217.62
449.54	8376.78
449.73	8362.73
449.91	8463.38
450.10	8386.14
450.28	8432.95
450.46	8479.76
450.65	8545.30
450.83	8566.36
451.02	8456.36
451.20	8528.91
451.39	8479.76
451.57	8568.70
451.76	8549.98
451.94	8706.79
452.13	8786.37
452.31	8645.94
452.49	8711.47
452.68	8784.03
452.86	8858.93
453.05	8809.78
453.23	8957.23
453.42	8823.82
453.60	8833.18
453.78	8828.50
453.97	8709.13
454.15	8917.44
454.34	8947.87
454.52	9245.12
454.70	9179.58
454.89	9132.77
455.07	8917.44
455.26	9261.50
455.44	9308.31
455.62	9179.58
455.81	9289.59
455.99	9528.32
456.17	9481.51
456.36	9448.74
456.54	9460.45
456.73	9654.71
456.91	9650.03
457.09	9926.21
457.28	9853.66
457.46	9738.97
457.64	9942.60
457.83	9860.68
458.01	9804.50
458.19	10132.18
458.38	9851.31
458.56	10097.07
458.74	9977.70
458.93	9790.46
459.11	10127.50
459.29	10080.69
459.48	10218.78
459.66	9949.62
459.84	10319.42
460.03	10237.50
460.21	10225.80
460.39	10321.76
460.57	10036.22
460.76	10424.75
460.94	10621.35
461.12	10431.77
461.31	10626.03
461.49	10586.24
461.67	10375.59
461.85	10672.84
462.04	10661.14
462.22	11269.68
462.40	10771.15
462.59	10750.08
462.77	10611.99
462.95	10895.19
463.13	10927.96
463.32	10988.82
463.50	11035.63
463.68	10916.26
463.86	11129.25
464.05	10897.53
464.23	10874.13
464.41	11300.11
464.59	10799.23
464.78	11339.90
464.96	11229.89
465.14	11145.63
465.32	11389.05
465.50	11536.50
465.69	11431.18
465.87	11419.47
466.05	11456.92
466.23	11136.27
466.41	11365.64
466.60	11756.51
466.78	11419.47
466.96	11438.20
467.14	11499.05
467.32	11246.27
467.51	11321.17
467.69	11342.24
467.87	11770.55
468.05	11707.36
468.23	11517.78
468.41	11597.35
468.60	11871.20
468.78	12086.53
468.96	11695.66
469.14	12028.01
469.32	12156.74
469.50	11796.30
469.69	12194.19
469.87	12201.21
470.05	12355.69
470.23	12428.24
470.41	12432.93
470.59	12468.03
470.77	12238.66
470.95	12540.59
471.14	12776.98
471.32	12453.99
471.50	12849.54
471.68	12599.10
471.86	12767.62
472.04	12702.09
472.22	13170.19
472.40	12713.79
472.58	12968.91
472.77	13090.62
472.95	13242.75
473.13	13327.01
473.31	13071.89
473.49	13214.66
473.67	13006.36
473.85	13387.86
474.03	13621.92
474.21	13617.24
474.39	13795.12
474.57	13696.82
474.75	13853.63
474.93	14225.78
475.12	13750.65
475.30	14258.54
475.48	13909.80
475.66	14005.77
475.84	14272.59
476.02	14221.10
476.20	14359.19
476.38	14569.83
476.56	14984.11
476.74	14920.92
476.92	14967.73
477.10	14829.63
477.28	15059.01
477.46	15161.99
477.64	15370.30
477.82	15534.14
478.00	15903.94
478.18	15522.43
478.36	15882.88
478.54	16013.95
478.72	16212.89
478.90	16360.34
479.08	16421.20
479.26	16458.65
479.44	16650.57
479.62	16767.60
479.80	16823.77
479.98	16926.75
480.16	17303.58
480.34	16957.18
480.52	17334.01
480.70	17547.00
480.88	17158.47
481.06	17575.08
481.24	17514.23
481.41	18029.15
481.59	17987.02
481.77	18104.04
481.95	18401.29
482.13	18459.81
482.31	18602.58
482.49	18567.47
482.67	18834.29
482.85	18951.32
483.03	19241.54
483.21	19358.57
483.39	19627.73
483.57	19651.14
483.74	19981.15
483.92	19899.23
484.10	20034.99
484.28	20147.33
484.46	20524.16
484.64	20753.53
484.82	20266.70
485.00	20491.39
485.18	21067.16
485.35	21333.98
485.53	21418.24
485.71	21694.43
485.89	21820.81
486.07	21429.94
486.25	21664.00
486.43	22354.46
486.61	22258.49
486.78	22658.73
486.96	22471.48
487.14	23058.96
487.32	22845.97
487.50	23159.60
487.68	23367.91
487.85	23494.30
488.03	23962.40
488.21	24065.39
488.39	24140.29
488.57	24397.74
488.75	24819.04
488.92	24519.45
489.10	24709.04
489.28	24814.36
489.46	25465.03
489.64	25249.70
489.81	26106.34
489.99	25778.66
490.17	26129.74
490.35	26075.91
490.53	26206.98
490.70	26356.77
490.88	26162.51
491.06	26803.82
491.24	26881.05
491.41	26745.30
491.59	27459.16
491.77	27192.34
491.95	27854.72
492.13	27960.04
492.30	27679.18
492.48	27896.85
492.66	28407.08
492.84	28379.00
493.01	28446.87
493.19	28814.34
493.37	29116.26
493.54	29120.95
493.72	28992.22
493.90	28910.30
494.08	29355.00
494.25	29841.83
494.43	29977.58
494.61	30129.72
494.79	30658.68
494.96	30078.22
495.14	30394.20
495.32	31138.49
495.49	31007.42
495.67	30962.95
495.85	31407.65
496.02	31489.57
496.20	31454.46
496.38	31644.04
496.55	31335.09
496.73	32496.00
496.91	32334.50
497.09	32360.25
497.26	32606.00
497.44	32840.06
497.62	32783.88
497.79	33088.15
497.97	33247.31
498.14	33855.85
498.32	33773.93
498.50	33741.16
498.67	33961.17
498.85	33867.55
499.03	33944.79
499.20	34396.51
499.38	34232.68
499.56	34532.26
499.73	34850.58
499.91	35161.87
500.08	34883.34
500.26	34572.05
500.44	34871.64
500.61	35344.43
500.79	35445.07
500.97	35854.67
501.14	35489.54
501.32	35491.88
501.49	36100.42
501.67	35828.92
501.84	36149.57
502.02	36013.82
502.20	36535.76
502.37	36416.40
502.55	36751.09
502.72	36563.85
502.90	36261.92
503.07	37092.81
503.25	36968.76
503.43	37258.99
503.60	37607.73
503.78	37347.93
503.95	37177.07
504.13	37680.28
504.30	37647.52
504.48	37097.49
504.65	37471.98
504.83	38281.80
505.01	38478.41
505.18	38614.16
505.36	38937.15
505.53	38337.98
505.71	38415.21
505.88	38602.46
506.06	38611.82
506.23	38976.94
506.41	39154.82
506.58	39442.71
506.76	39447.39
506.93	39250.78
507.11	39086.95
507.28	39634.63
507.46	39562.08
507.63	40013.80
507.81	40210.40
507.98	39606.55
508.16	39749.32
508.33	40364.88
508.50	40392.97
508.68	40142.53
508.85	41111.51
509.03	40533.40
509.20	40964.06
509.38	40875.12
509.55	41181.73
509.73	41008.53
509.90	41287.05
510.08	41193.43
510.25	41399.40
510.42	41457.91
510.60	41963.46
510.77	41940.06
510.95	42129.64
511.12	41752.82
511.30	41998.57
511.47	42506.47
511.64	42284.12
511.82	42143.69
511.99	42698.39
512.17	42749.88
512.34	42787.33
512.51	42768.61
512.69	42951.17
512.86	42887.98
513.04	43264.80
513.21	43519.92
513.38	43377.15
513.56	43299.91
513.73	43611.20
513.90	43620.56
514.08	43466.09
514.25	43971.64
514.43	44114.42
514.60	44105.06
514.77	44046.54
514.95	44444.43
515.12	44247.83
515.29	44098.03
515.47	44725.30
515.64	45329.16
515.81	45160.64
515.99	44804.88
516.16	45476.61
516.33	45404.05
516.51	45408.73
516.68	45106.80
516.85	45151.27
517.03	45254.26
517.20	45607.68
517.37	45748.11
517.54	45862.80
517.72	45715.34
517.89	45684.92
518.06	45565.55
518.24	45584.27
518.41	45806.62
518.58	46129.62
518.75	46197.49
518.93	46195.15
519.10	46487.72
519.27	46408.14
519.45	46277.07
519.62	46838.80
519.79	46618.79
519.96	46658.58
520.14	47168.82
520.31	47096.26
520.48	46635.17
520.65	46951.15
520.83	47143.07
521.00	47213.29
521.17	46948.81
521.34	47065.83
521.52	47407.55
521.69	47634.58
521.86	47985.66
522.03	48177.59
522.20	47831.19
522.38	47842.89
522.55	48037.16
522.72	48329.72
522.89	48229.08
523.07	48479.52
523.24	48212.70
523.41	48488.88
523.58	48172.91
523.75	48931.24
523.92	48191.63
524.10	48348.45
524.27	48416.32
524.44	48697.19
524.61	49193.38
524.78	49048.27
524.96	49123.16
525.13	49036.56
525.30	49331.47
525.47	49289.34
525.64	48952.30
525.81	49268.28
525.98	49319.77
526.16	49661.49
526.33	49394.67
526.50	50263.00
526.67	49052.95
526.84	49652.12
527.01	49806.60
527.18	49813.62
527.36	49736.38
527.53	50176.40
527.70	50335.56
527.87	50501.74
528.04	49989.16
528.21	50117.89
528.38	50302.79
528.55	50300.45
528.72	50267.69
528.89	50525.14
529.07	50539.19
529.24	50483.01
529.41	50494.72
529.58	50583.66
529.75	50174.06
529.92	50571.96
530.09	50705.37
530.26	50525.14
530.43	50651.53
530.60	50742.81
530.77	50937.08
530.94	50892.61
531.11	50864.52
531.28	50817.71
531.46	51011.98
531.63	51082.19
531.80	51210.92
531.97	51742.22
532.14	51770.31
532.31	51103.26
532.48	51578.39
532.65	51426.25
532.82	51330.29
532.99	51402.85
533.16	51201.56
533.33	51679.03
533.50	52044.15
533.67	51796.06
533.84	51559.66
534.01	51987.98
534.18	51526.89
534.35	51721.16
534.52	51964.57
534.69	51969.26
534.86	51976.28
535.03	52074.58
535.20	52135.43
535.37	51992.66
535.54	52250.12
535.71	52154.16
535.88	52395.23
536.05	52343.74
536.22	52423.32
536.38	52734.61
536.55	52949.94
536.72	52690.14
536.89	52430.34
537.06	52617.58
537.23	52575.45
537.40	52296.93
537.57	52680.78
537.74	52428.00
537.91	52631.63
538.08	52804.83
538.25	52711.20
538.42	53076.33
538.59	53024.84
538.75	52736.95
538.92	52851.64
539.09	53125.48
539.26	53169.95
539.43	53066.97
539.60	53029.52
539.77	52809.51
539.94	53378.26
540.11	53148.88
540.28	53198.04
540.44	53499.97
540.61	53303.36
540.78	53247.19
540.95	53322.08
541.12	53455.50
541.29	53460.18
541.46	53422.73
541.62	53097.39
541.79	53506.99
541.96	53057.60
542.13	53537.41
542.30	53834.66
542.47	53855.73
542.63	53958.71
542.80	53965.73
542.97	53998.50
543.14	53951.69
543.31	53902.54
543.48	54113.19
543.64	54344.90
543.81	54300.43
543.98	54223.19
544.15	54253.62
544.32	54330.86
544.48	54698.32
544.65	54265.32
544.82	54192.76
544.99	54199.79
545.16	54492.35
545.32	54375.33
545.49	54766.20
545.66	54817.69
545.83	54925.35
546.00	54850.45
546.16	54632.78
546.33	54270.00
546.50	54162.34
546.67	54597.68
546.83	54143.61
547.00	54497.03
547.17	54560.23
547.34	54618.74
547.50	54724.07
547.67	54862.16
547.84	54904.29
548.00	54705.34
548.17	54976.84
548.34	54777.90
548.51	55175.79
548.67	55248.35
548.84	55072.81
549.01	55187.49
549.18	55138.34
549.34	54990.89
549.51	55171.11
549.68	55159.41
549.84	54997.91
550.01	55220.26
550.18	55124.30
550.34	55196.85
550.51	55550.27
550.68	55615.81
550.84	55007.27
551.01	55281.11
551.18	55103.23
551.34	55231.96
551.51	55152.38
551.68	55512.83
551.84	55526.87
552.01	55489.42
552.18	55632.19
552.34	55402.82
552.51	55655.60
552.68	55412.18
552.84	55690.71
553.01	55674.32
553.18	55566.66
553.34	55718.79
553.51	55711.77
553.67	55695.39
553.84	56025.40
554.01	55990.30
554.17	55777.31
554.34	55671.98
554.51	55632.19
554.67	55950.51
554.84	55929.44
555.00	55856.88
555.17	55990.30
555.33	55948.17
555.50	56004.34
555.67	55700.07
555.83	56030.08
556.00	55891.99
556.16	56053.49
556.33	55821.78
556.50	55856.88
556.66	56247.75
556.83	56149.45
556.99	56275.84
557.16	56343.72
557.32	56404.57
557.49	56100.30
557.65	55906.04
557.82	56156.47
557.98	56385.85
558.15	56090.94
558.32	56423.29
558.48	56189.24
558.65	56477.13
558.81	56378.82
558.98	56322.65
559.14	56388.19
559.31	56156.47
559.47	56306.27
559.64	56332.01
559.80	56521.60
559.97	56612.88
560.13	56453.72
560.30	56214.99
560.46	56350.74
560.63	56353.08
560.79	56601.18
560.96	56760.33
561.12	56540.32
561.29	56264.14
561.45	56427.98
561.61	56617.56
561.78	56685.43
561.94	56694.80
562.11	56765.01
562.27	56601.18
562.44	56676.07
562.60	56772.03
562.77	56694.80
562.93	56432.66
563.10	56872.68
563.26	56690.12
563.42	56980.34
563.59	56921.83
563.75	56589.47
563.92	56830.55
564.08	56746.29
564.24	56624.58
564.41	56830.55
564.57	56779.06
564.74	56603.52
564.90	56645.65
565.07	56577.77
565.23	56783.74
565.39	56741.61
565.56	56996.73
565.72	56636.28
565.88	56774.37
566.05	56655.01
566.21	56619.90
566.38	56757.99
566.54	57055.24
566.70	56989.70
566.87	56884.38
567.03	56720.54
567.19	57151.20
567.36	56900.76
567.52	56671.39
567.68	56837.57
567.85	56776.72
568.01	57031.83
568.17	56743.95
568.34	56982.68
568.50	56910.13
568.66	56774.37
568.83	57090.35
568.99	57008.43
569.15	56931.19
569.32	57015.45
569.48	56750.97
569.64	57059.92
569.81	56732.25
569.97	56928.85
570.13	57043.54
570.30	56980.34
570.46	56863.32
570.62	56872.68
570.78	56975.66
570.95	56963.96
571.11	56765.01
571.27	57062.26
571.43	57010.77
571.60	56893.74
571.76	57006.09
571.92	56945.23
572.09	56970.98
572.25	57113.75
572.41	57008.43
572.57	57083.33
572.74	57181.63
572.90	57148.86
573.06	57162.90
573.22	56989.70
573.38	57130.14
573.55	57017.79
573.71	57200.35
573.87	57130.14
574.03	57085.67
574.20	57298.65
574.36	57286.95
574.52	57153.54
574.68	56992.04
574.84	57212.06
575.01	57364.19
575.17	57261.21
575.33	56919.49
575.49	56968.64
575.65	57282.27
575.82	57176.95
575.98	57022.47
576.14	57179.29
576.30	57015.45
576.46	57144.18
576.62	57083.33
576.79	56985.02
576.95	57097.37
577.11	57008.43
577.27	57179.29
577.43	57200.35
577.59	57134.82
577.75	57289.29
577.92	56755.65
578.08	57141.84
578.24	57146.52
578.40	57249.50
578.56	57134.82
578.72	57286.95
578.88	57535.05
579.04	57399.30
579.21	57308.02
579.37	57432.07
579.53	57193.33
579.69	56851.61
579.85	57024.81
580.01	57275.25
580.17	57134.82
580.33	57106.73
580.49	56921.83
580.65	57361.85
580.82	57415.68
580.98	57289.29
581.14	57326.74
581.30	57469.51
581.46	57127.80
581.62	57048.22
581.78	57165.24
581.94	56935.87
582.10	57146.52
582.26	57167.58
582.42	57364.19
582.58	57284.61
582.74	57380.57
582.90	57462.49
583.06	57324.40
583.22	57205.03
583.38	57181.63
583.54	57120.77
583.70	57045.88
583.86	56940.55
584.02	57073.96
584.18	57396.96
584.34	57207.37
584.50	57521.01
584.66	57574.84
584.82	57336.10
584.98	57446.11
585.14	57256.53
585.30	57029.49
585.46	57193.33
585.62	57003.75
585.78	57282.27
585.94	57013.11
586.10	57165.24
586.26	57247.16
586.42	57708.25
586.58	57537.39
586.74	57450.79
586.90	57116.09
587.06	57010.77
587.22	57389.94
587.38	57055.24
587.54	57387.60
587.70	57436.75
587.86	57513.98
588.02	57483.56
588.18	57851.02
588.34	57425.04
588.49	57572.50
588.65	57160.56
588.81	57340.78
588.97	57329.08
589.13	57219.08
589.29	57329.08
589.45	57478.88
589.61	57453.13
