SpectraSuite Data File
++++++++++++++++++++++++++++++++++++
Date: Fri Oct 18 13:55:02 GMT-05:00 2013
User: bianchi
Dark Spectrum Present: No
Reference Spectrum Present: No
Number of Sampled Component Spectra: 1
Spectrometers: USB2+H05261
Integration Time (usec): 100000 (USB2+H05261)
Spectra Averaged: 1 (USB2+H05261)
Boxcar Smoothing: 0 (USB2+H05261)
Correct for Electrical Dark: No (USB2+H05261)
Strobe/Lamp Enabled: No (USB2+H05261)
Correct for Detector Non-linearity: No (USB2+H05261)
Correct for Stray Light: No (USB2+H05261)
Number of Pixels in Processed Spectrum: 2048
>>>>>Begin Processed Spectral Data<<<<<
365.73	0.00
365.92	0.00
366.12	0.00
366.32	0.00
366.52	0.00
366.72	0.00
366.91	0.00
367.11	0.00
367.31	0.00
367.51	0.00
367.70	0.00
367.90	0.00
368.10	0.00
368.30	0.00
368.49	0.00
368.69	0.00
368.89	0.00
369.09	0.00
369.28	0.00
369.48	0.00
369.68	0.00
369.87	0.00
370.07	0.00
370.27	0.00
370.47	14.04
370.66	332.36
370.86	322.99
371.06	311.29
371.25	400.23
371.45	283.20
371.65	351.08
371.84	348.74
372.04	440.02
372.24	390.87
372.44	292.57
372.63	341.72
372.83	458.74
373.03	409.59
373.22	400.23
373.42	327.68
373.62	468.11
373.81	517.26
374.01	447.04
374.21	573.43
374.40	456.40
374.60	573.43
374.79	582.79
374.99	477.47
375.19	533.64
375.38	454.06
375.58	505.56
375.78	552.37
375.97	517.26
376.17	575.77
376.37	507.90
376.56	521.94
376.76	458.74
376.95	514.92
377.15	531.30
377.35	550.03
377.54	533.64
377.74	547.69
377.93	566.41
378.13	571.09
378.33	589.82
378.52	479.81
378.72	521.94
378.91	631.94
379.11	524.28
379.31	564.07
379.50	648.33
379.70	697.48
379.89	667.05
380.09	655.35
380.28	582.79
380.48	564.07
380.68	664.71
380.87	573.43
381.07	744.29
381.26	751.31
381.46	730.25
381.65	748.97
381.85	627.26
382.04	702.16
382.24	662.37
382.43	697.48
382.63	730.25
382.83	702.16
383.02	720.88
383.22	744.29
383.41	784.08
383.61	786.42
383.80	828.55
384.00	692.80
384.19	706.84
384.39	786.42
384.58	739.61
384.78	753.65
384.97	854.30
385.17	826.21
385.36	772.38
385.56	774.72
385.75	744.29
385.95	903.45
386.14	823.87
386.34	765.36
386.53	840.25
386.72	809.83
386.92	884.72
387.11	781.74
387.31	891.74
387.50	781.74
387.70	889.40
387.89	901.11
388.09	833.23
388.28	950.26
388.48	905.79
388.67	868.34
388.86	959.62
389.06	966.64
389.25	858.98
389.45	1004.09
389.64	1008.77
389.84	976.00
390.03	1032.18
390.22	1076.65
390.42	1015.79
390.61	959.62
390.81	973.66
391.00	929.19
391.19	1102.39
391.39	1015.79
391.58	1083.67
391.78	1135.16
391.97	1095.37
392.16	1018.13
392.36	1142.18
392.55	1128.14
392.75	1118.78
392.94	1078.99
393.13	1174.95
393.33	1167.93
393.52	1135.16
393.71	1149.20
393.91	1090.69
394.10	1130.48
394.29	1284.95
394.49	1249.85
394.68	1224.10
394.88	1263.89
395.07	1287.29
395.26	1158.57
395.46	1310.70
395.65	1294.32
395.84	1341.13
396.04	1364.53
396.23	1331.76
396.42	1263.89
396.62	1406.66
396.81	1348.15
397.00	1273.25
397.19	1383.26
397.39	1371.55
397.58	1334.11
397.77	1469.86
397.97	1380.92
398.16	1486.24
398.35	1364.53
398.55	1540.07
398.74	1561.14
398.93	1579.86
399.12	1502.62
399.32	1392.62
399.51	1561.14
399.70	1624.33
399.90	1507.30
400.09	1668.80
400.28	1607.95
400.47	1600.93
400.67	1575.18
400.86	1633.69
401.05	1638.38
401.24	1682.85
401.44	1727.32
401.63	1657.10
401.82	1797.53
402.01	1703.91
402.21	1834.98
402.40	1820.94
402.59	1755.40
402.78	1820.94
402.97	1760.08
403.17	1762.42
403.36	1863.07
403.55	1811.57
403.74	1921.58
403.93	1952.01
404.13	1947.33
404.32	1942.64
404.51	1933.28
404.70	2040.95
404.89	1888.81
405.09	2071.37
405.28	1937.96
405.47	2029.24
405.66	2143.93
405.85	2148.61
406.05	2132.23
406.24	2277.34
406.43	2078.40
406.62	2242.23
406.81	2310.11
407.00	2221.17
407.20	2204.78
407.39	2216.49
407.58	2342.88
407.77	2263.30
407.96	2284.36
408.15	2293.72
408.34	2277.34
408.54	2459.90
408.73	2483.31
408.92	2445.86
409.11	2452.88
409.30	2534.80
409.49	2448.20
409.68	2438.84
409.87	2530.12
410.07	2513.74
410.26	2640.12
410.45	2698.64
410.64	2633.10
410.83	2583.95
411.02	2733.75
411.21	2654.17
411.40	2626.08
411.59	2848.43
411.78	2717.36
411.98	2836.73
412.17	2935.03
412.36	2930.35
412.55	2897.58
412.74	2890.56
412.93	3033.33
413.12	2988.86
413.31	2979.50
413.50	3096.53
413.69	3042.70
413.88	3255.69
414.07	3077.80
414.26	3232.28
414.45	3269.73
414.64	3243.98
414.83	3269.73
415.02	3330.58
415.22	3337.60
415.41	3328.24
415.60	3398.46
415.79	3501.44
415.98	3550.59
416.17	3641.87
416.36	3531.87
416.55	3566.98
416.74	3815.07
416.93	3700.39
417.12	3768.26
417.31	3730.81
417.50	3845.50
417.69	3908.69
417.88	3864.22
418.07	3929.76
418.26	3808.05
418.45	3847.84
418.64	4044.45
418.83	3976.57
419.02	4037.42
419.21	4095.94
419.39	4205.94
419.58	4004.66
419.77	3946.14
419.96	4121.68
420.15	4067.85
420.34	4227.01
420.53	4297.22
420.72	4346.37
420.91	4311.27
421.10	4334.67
421.29	4299.56
421.48	4322.97
421.67	4276.16
421.86	4402.55
422.05	4337.01
422.24	4397.87
422.43	4414.25
422.61	4409.57
422.80	4430.63
422.99	4498.51
423.18	4589.79
423.37	4777.03
423.56	4404.89
423.75	4613.20
423.94	4542.98
424.13	4334.67
424.32	4500.85
424.50	4704.48
424.69	4786.40
424.88	4706.82
425.07	4521.92
425.26	4449.36
425.45	4578.09
425.64	4589.79
425.83	4505.53
426.01	4774.69
426.20	4493.83
426.39	4744.27
426.58	4617.88
426.77	4676.39
426.96	4741.93
427.15	4706.82
427.33	4777.03
427.52	4861.29
427.71	4880.02
427.90	4884.70
428.09	4894.06
428.28	4861.29
428.46	4931.51
428.65	5085.98
428.84	5020.45
429.03	4994.70
429.22	4821.50
429.40	5095.35
429.59	5151.52
429.78	4994.70
429.97	4706.82
430.16	5018.11
430.34	5359.83
430.53	5275.57
430.72	5348.12
430.91	5233.44
431.10	5277.91
431.28	5401.96
431.47	5408.98
431.66	5401.96
431.85	5298.97
432.03	5366.85
432.22	5657.07
432.41	5596.22
432.60	5542.39
432.79	5441.75
432.97	5554.09
433.16	5460.47
433.35	5453.45
433.54	5687.50
433.72	5858.36
433.91	5526.00
434.10	5636.01
434.28	5776.44
434.47	5750.70
434.66	5879.43
434.85	5816.23
435.03	5944.96
435.22	5893.47
435.41	6047.94
435.59	5898.15
435.78	5954.32
435.97	6017.52
436.16	6111.14
436.34	6087.73
436.53	6054.97
436.72	6335.83
436.90	6146.25
437.09	6104.12
437.28	5806.87
437.46	6237.53
437.65	6239.87
437.84	6347.53
438.02	6352.21
438.21	6406.05
438.40	6359.24
438.58	6588.61
438.77	6483.28
438.96	6438.81
439.14	6738.40
439.33	6747.76
439.52	6715.00
439.70	6644.78
439.89	6754.79
440.08	6775.85
440.26	6993.52
440.45	6904.58
440.63	6810.96
440.82	7061.40
441.01	6974.80
441.19	7084.80
441.38	7225.23
441.57	7192.47
441.75	7232.26
441.94	7290.77
442.12	7192.47
442.31	7604.40
442.50	7494.40
442.68	7449.93
442.87	7702.70
443.05	7410.14
443.24	7707.38
443.43	7744.83
443.61	7770.58
443.80	7789.30
443.98	7515.46
444.17	7330.56
444.35	7714.41
444.54	7798.66
444.73	7775.26
444.91	7602.06
445.10	7644.19
445.28	7683.98
445.47	7618.44
445.65	7705.04
445.84	7805.69
446.02	7679.30
446.21	7726.11
446.39	7894.63
446.58	8023.36
446.77	7992.93
446.95	7751.85
447.14	7840.79
447.32	7765.90
447.51	7999.95
447.69	7775.26
447.88	7892.29
448.06	7932.08
448.25	7922.71
448.43	7964.84
448.62	7854.84
448.80	8025.70
448.99	8009.31
449.17	8189.53
449.36	8149.75
449.54	8201.24
449.73	8250.39
449.91	8336.99
450.10	8458.70
450.28	8645.94
450.46	8463.38
450.65	8234.00
450.83	8503.17
451.02	8341.67
451.20	8397.84
451.39	8542.96
451.57	8411.89
451.76	8470.40
451.94	8528.91
452.13	8713.81
452.31	8762.97
452.49	8559.34
452.68	8823.82
452.86	8606.15
453.05	8863.61
453.23	8894.04
453.42	8596.79
453.60	8812.12
453.78	8875.31
453.97	8692.75
454.15	8905.74
454.34	8683.39
454.52	9324.69
454.70	9130.43
454.89	8901.06
455.07	9055.53
455.26	9310.65
455.44	9212.35
455.62	9217.03
455.81	9261.50
455.99	9247.46
456.17	9273.20
456.36	9397.25
456.54	9497.89
456.73	9507.26
456.91	9633.64
457.09	9540.02
457.28	9851.31
457.46	9591.52
457.64	9682.80
457.83	9750.67
458.01	9544.70
458.19	9825.57
458.38	9832.59
458.56	10031.54
458.74	10141.54
458.93	9956.64
459.11	10005.79
459.29	10141.54
459.48	10059.62
459.66	10118.14
459.84	9872.38
460.03	10558.16
460.21	10228.14
460.39	10239.84
460.57	10200.05
460.76	10303.04
460.94	10527.73
461.12	10125.16
461.31	10434.11
461.49	10558.16
461.67	10270.27
461.85	10579.22
462.04	10579.22
462.22	10864.77
462.40	10656.46
462.59	10860.09
462.77	10768.80
462.95	10672.84
463.13	10869.45
463.32	10806.25
463.50	10764.12
463.68	11002.86
463.86	10972.43
464.05	11021.58
464.23	11073.07
464.41	10970.09
464.59	10661.14
464.78	11267.34
464.96	11215.85
465.14	11157.33
465.32	11080.10
465.50	11052.01
465.69	11318.83
465.87	11103.50
466.05	11124.57
466.23	11101.16
466.41	11332.87
466.60	11843.11
466.78	11403.09
466.96	11283.72
467.14	11243.93
467.32	11417.13
467.51	11676.93
467.69	11344.58
467.87	11623.10
468.05	11611.40
468.23	11375.00
468.41	11566.93
468.60	11403.09
468.78	11873.54
468.96	11587.99
469.14	11913.33
469.32	12053.76
469.50	11587.99
469.69	12156.74
469.87	12226.96
470.05	12236.32
470.23	11932.05
470.41	12351.01
470.59	12166.10
470.77	12081.85
470.95	12390.80
471.14	12470.37
471.32	12582.72
471.50	12685.70
471.68	12746.56
471.86	12704.43
472.04	12650.60
472.22	13123.38
472.40	12559.31
472.58	12805.07
472.77	12901.03
472.95	12908.05
473.13	13652.34
473.31	13004.02
473.49	13057.85
473.67	13331.69
473.85	13221.69
474.03	13619.58
474.21	13282.54
474.39	13628.94
474.57	13722.56
474.75	13811.50
474.93	13879.38
475.12	13774.05
475.30	13951.93
475.48	13834.91
475.66	14092.37
475.84	13797.46
476.02	14279.61
476.20	14033.85
476.38	14511.32
476.56	14743.03
476.74	14794.53
476.92	14452.81
477.10	14902.19
477.28	15009.86
477.46	14834.32
477.64	15119.86
477.82	15517.75
478.00	15749.46
478.18	15545.84
478.36	15641.80
478.54	15896.92
478.72	15772.87
478.90	15939.05
479.08	16091.18
479.26	16308.85
479.44	16390.77
479.62	16432.90
479.80	16463.33
479.98	16533.54
480.16	16952.50
480.34	16975.91
480.52	17193.58
480.70	17240.39
480.88	17092.93
481.06	17247.41
481.24	17343.37
481.41	17785.73
481.59	18022.12
481.77	18071.28
481.95	18118.09
482.13	18314.69
482.31	18167.24
482.49	18523.00
482.67	18541.72
482.85	18930.25
483.03	19271.97
483.21	19389.00
483.39	19297.72
483.57	19190.05
483.74	19623.05
483.92	19714.33
484.10	19819.66
484.28	19995.20
484.46	20360.32
484.64	20957.16
484.82	20332.23
485.00	20381.38
485.18	20776.94
485.35	21640.59
485.53	21322.28
485.71	21165.46
485.89	21563.36
486.07	21460.37
486.25	21755.28
486.43	21872.31
486.61	21874.65
486.78	22094.66
486.96	22295.94
487.14	22614.26
487.32	22635.32
487.50	23009.81
487.68	23122.15
487.85	23440.47
488.03	23590.26
488.21	24058.37
488.39	24020.92
488.57	24299.44
488.75	24236.25
488.92	24482.00
489.10	24545.20
489.28	24891.60
489.46	25071.82
489.64	24685.63
489.81	26005.69
489.99	25333.96
490.17	25652.27
490.35	26167.19
490.53	26342.73
490.70	26576.78
490.88	26307.62
491.06	26616.57
491.24	26560.40
491.41	26682.11
491.59	26965.31
491.77	27168.94
491.95	27391.29
492.13	27763.43
492.30	27723.65
492.48	27639.39
492.66	27711.94
492.84	28063.02
493.01	28287.71
493.19	28306.44
493.37	29013.28
493.54	28746.46
493.72	28912.64
493.90	28800.29
494.08	29764.59
494.25	29855.87
494.43	29717.78
494.61	29954.18
494.79	29766.93
494.96	29823.11
495.14	30256.11
495.32	30518.25
495.49	30698.47
495.67	30897.41
495.85	30932.52
496.02	31339.77
496.20	31037.84
496.38	31419.35
496.55	31688.51
496.73	32044.27
496.91	31770.43
497.09	32098.11
497.26	32514.72
497.44	32142.58
497.62	32086.40
497.79	33219.22
497.97	32683.24
498.14	32797.93
498.32	33268.37
498.50	33659.24
498.67	33521.15
498.85	33495.41
499.03	33631.16
499.20	33741.16
499.38	34054.79
499.56	34363.75
499.73	34078.20
499.91	34473.75
500.08	34693.76
500.26	34302.89
500.44	34459.71
500.61	35447.41
500.79	34873.98
500.97	35225.06
501.14	35512.95
501.32	35421.67
501.49	35395.92
501.67	35220.38
501.84	35861.69
502.02	35782.11
502.20	36552.15
502.37	36332.14
502.55	35922.54
502.72	36261.92
502.90	36376.61
503.07	36404.69
503.25	36247.88
503.43	36187.02
503.60	36486.61
503.78	37036.64
503.95	36989.83
504.13	37411.12
504.30	36966.42
504.48	37205.16
504.65	37642.84
504.83	37909.66
505.01	38141.37
505.18	37656.88
505.36	38190.52
505.53	38302.87
505.71	38122.65
505.88	38319.25
506.06	38178.82
506.23	38820.13
506.41	38913.75
506.58	38902.04
506.76	38986.30
506.93	39215.68
507.11	38904.38
507.28	38745.23
507.46	39344.41
507.63	39299.94
507.81	39789.11
507.98	39454.41
508.16	39707.19
508.33	39838.26
508.50	39744.64
508.68	40371.90
508.85	40620.00
509.03	40631.70
509.20	40287.64
509.38	41074.06
509.55	40753.41
509.73	40954.69
509.90	40760.43
510.08	40832.99
510.25	40788.52
510.42	41357.27
510.60	41397.06
510.77	41724.73
510.95	41675.58
511.12	41188.75
511.30	41577.28
511.47	41975.17
511.64	41710.69
511.82	42417.53
511.99	42059.43
512.17	42438.59
512.34	42307.52
512.51	42490.09
512.69	42499.45
512.86	42471.36
513.04	43255.44
513.21	42649.24
513.38	42981.60
513.56	43210.97
513.73	42838.83
513.90	42864.57
514.08	43047.13
514.25	43402.89
514.43	44266.55
514.60	43491.83
514.77	43936.54
514.95	44088.67
515.12	43477.79
515.29	43611.20
515.47	44449.11
515.64	44479.54
515.81	44367.20
515.99	44987.44
516.16	44739.34
516.33	45055.31
516.51	45368.94
516.68	44406.98
516.85	44657.42
517.03	45043.61
517.20	45277.66
517.37	45230.85
517.54	45368.94
517.72	45237.87
517.89	45256.60
518.06	45092.76
518.24	45525.76
518.41	45595.98
518.58	45635.77
518.75	46162.39
518.93	45762.15
519.10	46117.92
519.27	46461.97
519.45	45858.12
519.62	46314.52
519.79	46241.96
519.96	45755.13
520.14	46557.94
520.31	46349.63
520.48	46689.01
520.65	46726.46
520.83	47356.06
521.00	47103.28
521.17	46932.42
521.34	47150.09
521.52	47171.16
521.69	47337.33
521.86	47552.66
522.03	47665.01
522.20	47742.25
522.38	47770.33
522.55	47681.39
522.72	47510.53
522.89	47461.38
523.07	47997.37
523.24	47819.49
523.41	48163.54
523.58	47728.20
523.75	48334.40
523.92	47789.06
524.10	48308.66
524.27	48133.12
524.44	48458.45
524.61	48718.25
524.78	48629.31
524.96	48786.13
525.13	48687.82
525.30	48697.19
525.47	49331.47
525.64	48708.89
525.81	48868.05
525.98	49336.15
526.16	48783.79
526.33	49525.74
526.50	49399.35
526.67	49144.23
526.84	49015.50
527.01	48912.52
527.18	49167.63
527.36	49418.07
527.53	49694.25
527.70	49867.45
527.87	49787.88
528.04	49600.63
528.21	49930.65
528.38	49806.60
528.55	49820.64
528.72	49956.39
528.89	49846.39
529.07	49954.05
529.24	49745.75
529.41	50265.34
529.58	49808.94
529.75	50340.24
529.92	50302.79
530.09	50169.38
530.26	50506.42
530.43	50628.13
530.60	50452.59
530.77	50710.05
530.94	50574.30
531.11	50475.99
531.28	50483.01
531.46	50756.86
531.63	50836.44
531.80	51004.95
531.97	51269.43
532.14	51143.05
532.31	50916.01
532.48	51260.07
532.65	51381.78
532.82	51019.00
532.99	51208.58
533.16	50927.72
533.33	51646.26
533.50	51550.30
533.67	51819.46
533.84	51393.48
534.01	51379.44
534.18	51496.47
534.35	51557.32
534.52	51554.98
534.69	51826.48
534.86	51847.55
535.03	51924.78
535.20	51786.69
535.37	51908.40
535.54	52011.38
535.71	51922.44
535.88	51835.84
536.05	52144.80
536.22	51992.66
536.38	52254.80
536.55	52505.24
536.72	52367.15
536.89	51922.44
537.06	52306.29
537.23	52371.83
537.40	51915.42
537.57	52505.24
537.74	52535.66
537.91	52659.71
538.08	52348.42
538.25	52240.76
538.42	52580.13
538.59	52903.13
538.75	52339.06
538.92	52563.75
539.09	52631.63
539.26	52870.36
539.43	52816.53
539.60	53078.67
539.77	53059.94
539.94	53008.45
540.11	52928.87
540.28	52821.21
540.44	52931.22
540.61	53006.11
540.78	52889.09
540.95	52793.12
541.12	53198.04
541.29	53277.61
541.46	53179.31
541.62	53401.66
541.79	53570.18
541.96	53034.20
542.13	52942.92
542.30	53570.18
542.47	53523.37
542.63	53528.05
542.80	53846.36
542.97	53705.93
543.14	53841.68
543.31	53694.23
543.48	53506.99
543.64	53944.67
543.81	54190.42
543.98	54419.80
544.15	54152.97
544.32	54049.99
544.48	54026.59
544.65	54096.80
544.82	54010.20
544.99	53984.46
545.16	54085.10
545.32	54010.20
545.49	54642.15
545.66	54583.63
545.83	54492.35
546.00	54630.44
546.16	54410.43
546.33	54078.08
546.50	53851.05
546.67	54206.81
546.83	53998.50
547.00	54384.69
547.17	54396.39
547.34	54679.60
547.50	54782.58
547.67	54698.32
547.84	54513.42
548.00	54794.28
548.17	54583.63
548.34	54576.61
548.51	55089.19
548.67	54768.54
548.84	54850.45
549.01	55063.44
549.18	54475.97
549.34	54841.09
549.51	54728.75
549.68	54836.41
549.84	54756.83
550.01	54951.10
550.18	54864.50
550.34	55028.34
550.51	55011.95
550.68	55246.00
550.84	54731.09
551.01	55173.45
551.18	55002.59
551.34	54780.24
551.51	55035.36
551.68	55243.66
551.84	55269.41
552.01	55140.68
552.18	55325.58
552.34	55173.45
552.51	55152.38
552.68	55161.75
552.84	55150.04
553.01	55379.42
553.18	55461.33
553.34	55320.90
553.51	55629.85
553.67	55543.25
553.84	55744.54
554.01	55447.29
554.17	55730.50
554.34	55470.70
554.51	55625.17
554.67	55746.88
554.84	55627.51
555.00	55510.49
555.17	55770.28
555.33	55688.37
555.50	55578.36
555.67	55618.15
555.83	55353.67
556.00	55697.73
556.16	55978.59
556.33	55936.46
556.50	55725.81
556.66	55856.88
556.83	55814.76
556.99	56123.71
557.16	55917.74
557.32	56023.06
557.49	55891.99
557.65	55833.48
557.82	55770.28
557.98	55962.21
558.15	55943.48
558.32	56388.19
558.48	56144.77
558.65	56147.11
558.81	56219.67
558.98	56203.28
559.14	56191.58
559.31	56027.74
559.47	55945.83
559.64	56062.85
559.80	56093.28
559.97	56161.15
560.13	56025.40
560.30	56067.53
560.46	55971.57
560.63	56058.17
560.79	56268.82
560.96	56177.54
561.12	56229.03
561.29	56275.84
561.45	56128.39
561.61	56472.45
561.78	56306.27
561.94	56435.00
562.11	56460.74
562.27	56119.02
562.44	56126.05
562.60	56287.54
562.77	56203.28
562.93	56222.01
563.10	56615.22
563.26	56175.20
563.42	56891.40
563.59	56425.64
563.75	56491.17
563.92	56500.53
564.08	56292.22
564.24	56566.07
564.41	56362.44
564.57	56418.61
564.74	56488.83
564.90	56568.41
565.07	56545.00
565.23	56746.29
565.39	56676.07
565.56	56346.06
565.72	56477.13
565.88	56736.93
566.05	56303.93
566.21	56275.84
566.38	56306.27
566.54	56530.96
566.70	56835.23
566.87	56671.39
567.03	56619.90
567.19	56729.90
567.36	56659.69
567.52	56388.19
567.68	56615.22
567.85	56460.74
568.01	56582.45
568.17	56615.22
568.34	56655.01
568.50	56638.62
568.66	56750.97
568.83	56811.82
568.99	56638.62
569.15	56638.62
569.32	56900.76
569.48	56568.41
569.64	56818.84
569.81	56699.48
569.97	56582.45
570.13	56652.67
570.30	56708.84
570.46	56954.60
570.62	56765.01
570.78	56945.23
570.95	56418.61
571.11	56767.35
571.27	56643.30
571.43	56650.33
571.60	56746.29
571.76	56945.23
571.92	56736.93
572.09	56875.02
572.25	56938.21
572.41	56807.14
572.57	56783.74
572.74	56617.56
572.90	56561.39
573.06	56720.54
573.22	56786.08
573.38	56823.53
573.55	56736.93
573.71	57193.33
573.87	56877.36
574.03	56743.95
574.20	56783.74
574.36	56786.08
574.52	56842.25
574.68	56722.88
574.84	56720.54
575.01	56970.98
575.17	56924.17
575.33	56769.69
575.49	56931.19
575.65	57088.01
575.82	56931.19
575.98	56559.05
576.14	56725.22
576.30	56849.27
576.46	56860.97
576.62	56582.45
576.79	56788.42
576.95	56603.52
577.11	56868.00
577.27	56905.44
577.43	56797.78
577.59	56793.10
577.75	56720.54
577.92	57027.15
578.08	56692.46
578.24	56844.59
578.40	56980.34
578.56	56893.74
578.72	56856.29
578.88	57193.33
579.04	56999.07
579.21	56825.87
579.37	57045.88
579.53	57144.18
579.69	56877.36
579.85	56987.36
580.01	56629.26
580.17	56809.48
580.33	57104.39
580.49	56891.40
580.65	56900.76
580.82	57153.54
580.98	57052.90
581.14	56882.04
581.30	56933.53
581.46	56800.12
581.62	56933.53
581.78	57031.83
581.94	57080.98
582.10	56882.04
582.26	57083.33
582.42	56942.89
582.58	56966.30
582.74	56985.02
582.90	57176.95
583.06	56811.82
583.22	57078.64
583.38	56982.68
583.54	56970.98
583.70	56818.84
583.86	56835.23
584.02	56790.76
584.18	57127.80
584.34	57242.48
584.50	57301.00
584.66	57244.82
584.82	56891.40
584.98	56940.55
585.14	56720.54
585.30	56940.55
585.46	57080.98
585.62	56694.80
585.78	56898.42
585.94	56942.89
586.10	56844.59
586.26	57223.76
586.42	57174.61
586.58	57286.95
586.74	56992.04
586.90	57008.43
587.06	56779.06
587.22	57052.90
587.38	57134.82
587.54	57195.67
587.70	57120.77
587.86	57043.54
588.02	57113.75
588.18	57202.69
588.34	57190.99
588.49	57069.28
588.65	56900.76
588.81	56956.94
588.97	57331.42
589.13	57195.67
589.29	57057.58
589.45	57073.96
