SpectraSuite Data File
++++++++++++++++++++++++++++++++++++
Date: Fri Oct 18 13:55:10 GMT-05:00 2013
User: bianchi
Dark Spectrum Present: No
Reference Spectrum Present: No
Number of Sampled Component Spectra: 1
Spectrometers: USB2+H05261
Integration Time (usec): 100000 (USB2+H05261)
Spectra Averaged: 1 (USB2+H05261)
Boxcar Smoothing: 0 (USB2+H05261)
Correct for Electrical Dark: No (USB2+H05261)
Strobe/Lamp Enabled: No (USB2+H05261)
Correct for Detector Non-linearity: No (USB2+H05261)
Correct for Stray Light: No (USB2+H05261)
Number of Pixels in Processed Spectrum: 2048
>>>>>Begin Processed Spectral Data<<<<<
365.73	0.00
365.92	0.00
366.12	0.00
366.32	0.00
366.52	0.00
366.72	0.00
366.91	0.00
367.11	0.00
367.31	0.00
367.51	0.00
367.70	0.00
367.90	0.00
368.10	0.00
368.30	0.00
368.49	0.00
368.69	0.00
368.89	0.00
369.09	0.00
369.28	0.00
369.48	0.00
369.68	0.00
369.87	0.00
370.07	0.00
370.27	0.00
370.47	95.96
370.66	322.99
370.86	358.10
371.06	367.46
371.25	428.32
371.45	362.78
371.65	451.72
371.84	262.14
372.04	348.74
372.24	482.15
372.44	407.25
372.63	318.31
372.83	472.79
373.03	425.98
373.22	440.02
373.42	400.23
373.62	500.87
373.81	440.02
374.01	510.24
374.21	517.26
374.40	416.62
374.60	596.84
374.79	517.26
374.99	524.28
375.19	477.47
375.38	528.96
375.58	531.30
375.78	550.03
375.97	489.17
376.17	624.92
376.37	433.00
376.56	543.00
376.76	564.07
376.95	589.82
377.15	500.87
377.35	552.37
377.54	613.22
377.74	575.77
377.93	505.56
378.13	543.00
378.33	545.34
378.52	554.71
378.72	627.26
378.91	653.01
379.11	683.44
379.31	524.28
379.50	631.94
379.70	702.16
379.89	711.52
380.09	655.35
380.28	634.29
380.48	610.88
380.68	615.56
380.87	631.94
381.07	688.12
381.26	660.03
381.46	692.80
381.65	608.54
381.85	631.94
382.04	732.59
382.24	767.70
382.43	779.40
382.63	723.23
382.83	695.14
383.02	828.55
383.22	737.27
383.41	795.78
383.61	678.76
383.80	793.44
384.00	711.52
384.19	730.25
384.39	720.88
384.58	718.54
384.78	828.55
384.97	744.29
385.17	723.23
385.36	734.93
385.56	868.34
385.75	784.08
385.95	844.93
386.14	734.93
386.34	833.23
386.53	847.27
386.72	798.12
386.92	926.85
387.11	861.32
387.31	898.77
387.50	812.17
387.70	774.72
387.89	826.21
388.09	903.45
388.28	945.58
388.48	898.77
388.67	926.85
388.86	903.45
389.06	908.13
389.25	997.07
389.45	1018.13
389.64	866.00
389.84	1046.22
390.03	1095.37
390.22	968.98
390.42	1071.97
390.61	976.00
390.81	1078.99
391.00	1046.22
391.19	1100.05
391.39	987.71
391.58	1097.71
391.78	950.26
391.97	1039.20
392.16	1097.71
392.36	1020.47
392.55	1128.14
392.75	1167.93
392.94	1156.22
393.13	1078.99
393.33	1128.14
393.52	1146.86
393.71	1228.78
393.91	1240.48
394.10	1191.33
394.29	1181.97
394.49	1181.97
394.68	1233.46
394.88	1294.32
395.07	1263.89
395.26	1249.85
395.46	1261.55
395.65	1238.14
395.84	1359.85
396.04	1355.17
396.23	1296.66
396.42	1263.89
396.62	1411.34
396.81	1423.05
397.00	1397.30
397.19	1406.66
397.39	1343.47
397.58	1401.98
397.77	1434.75
397.97	1490.92
398.16	1514.33
398.35	1451.13
398.55	1359.85
398.74	1411.34
398.93	1554.12
399.12	1526.03
399.32	1540.07
399.51	1547.09
399.70	1593.90
399.90	1645.40
400.09	1624.33
400.28	1582.20
400.47	1647.74
400.67	1687.53
400.86	1652.42
401.05	1746.04
401.24	1659.44
401.44	1753.06
401.63	1673.48
401.82	1732.00
402.01	1661.78
402.21	1732.00
402.40	1776.47
402.59	1739.02
402.78	1823.28
402.97	1898.17
403.17	1804.55
403.36	1813.92
403.55	1788.17
403.74	1877.11
403.93	1989.46
404.13	1970.73
404.32	1832.64
404.51	2047.97
404.70	2019.88
404.89	1937.96
405.09	2029.24
405.28	2069.03
405.47	2118.18
405.66	2120.53
405.85	2097.12
406.05	1947.33
406.24	2122.87
406.43	2162.66
406.62	2162.66
406.81	2246.91
407.00	2134.57
407.20	2183.72
407.39	2174.36
407.58	2270.32
407.77	2197.76
407.96	2307.77
408.15	2347.56
408.34	2406.07
408.54	2349.90
408.73	2249.25
408.92	2375.64
409.11	2422.45
409.30	2485.65
409.49	2466.92
409.68	2546.50
409.87	2420.11
410.07	2579.27
410.26	2647.15
410.45	2595.65
410.64	2593.31
410.83	2705.66
411.02	2708.00
411.21	2799.28
411.40	2808.64
411.59	2759.49
411.78	2768.85
411.98	2799.28
412.17	2857.79
412.36	2668.21
412.55	3028.65
412.74	2944.39
412.93	2974.82
413.12	2979.50
413.31	3098.87
413.50	2937.37
413.69	3159.72
413.88	3192.49
414.07	3239.30
414.26	3311.86
414.45	3225.26
414.64	3246.32
414.83	3274.41
415.02	3316.54
415.22	3389.10
415.41	3496.76
415.60	3559.95
415.79	3421.86
415.98	3503.78
416.17	3471.01
416.36	3625.49
416.55	3501.44
416.74	3538.89
416.93	3669.96
417.12	3698.05
417.31	3770.60
417.50	3789.33
417.69	3798.69
417.88	3751.88
418.07	3920.40
418.26	3988.27
418.45	3988.27
418.64	3988.27
418.83	3960.19
419.02	4084.23
419.21	4088.92
419.39	4191.90
419.58	3960.19
419.77	4084.23
419.96	4107.64
420.15	4138.07
420.34	4184.88
420.53	4308.93
420.72	4306.59
420.91	4234.03
421.10	4306.59
421.29	4381.48
421.48	4124.02
421.67	4402.55
421.86	4428.29
422.05	4442.34
422.24	4355.74
422.43	4393.19
422.61	4386.16
422.80	4507.87
422.99	4486.81
423.18	4486.81
423.37	4624.90
423.56	4510.21
423.75	4545.32
423.94	4463.40
424.13	4196.58
424.32	4243.39
424.50	4505.53
424.69	4723.20
424.88	4758.31
425.07	4472.76
425.26	4465.74
425.45	4587.45
425.64	4573.41
425.83	4568.73
426.01	4664.69
426.20	4587.45
426.39	4517.23
426.58	4781.71
426.77	4627.24
426.96	4704.48
427.15	4692.77
427.33	4844.91
427.52	4816.82
427.71	4880.02
427.90	4716.18
428.09	4844.91
428.28	4870.65
428.46	4943.21
428.65	4875.34
428.84	5029.81
429.03	5107.05
429.22	4896.40
429.40	5085.98
429.59	5116.41
429.78	4821.50
429.97	4933.85
430.16	5018.11
430.34	5118.75
430.53	5371.53
430.72	5268.55
430.91	5116.41
431.10	5315.36
431.28	5310.68
431.47	5401.96
431.66	5504.94
431.85	5174.92
432.03	5514.30
432.22	5561.11
432.41	5425.36
432.60	5607.92
432.79	5441.75
432.97	5584.52
433.16	5596.22
433.35	5509.62
433.54	5547.07
433.72	5701.54
433.91	5722.61
434.10	5713.25
434.28	5628.99
434.47	5795.17
434.66	5853.68
434.85	5781.12
435.03	5902.83
435.22	5820.91
435.41	6071.35
435.59	5874.74
435.78	6036.24
435.97	5984.75
436.16	6078.37
436.34	6104.12
436.53	6076.03
436.72	6085.39
436.90	6136.88
437.09	6218.80
437.28	6017.52
437.46	6139.23
437.65	6263.27
437.84	6286.68
438.02	6324.13
438.21	6321.79
438.40	6274.98
438.58	6328.81
438.77	6572.22
438.96	6406.05
439.14	6651.80
439.33	6576.91
439.52	6712.66
439.70	6569.88
439.89	6899.90
440.08	6963.09
440.26	6848.41
440.45	6829.68
440.63	6981.82
440.82	6918.62
441.01	6937.35
441.19	6970.12
441.38	7222.89
441.57	7140.97
441.75	7229.91
441.94	7419.50
442.12	7288.43
442.31	7398.43
442.50	7576.31
442.68	7358.64
442.87	7468.65
443.05	7517.80
443.24	7634.83
443.43	7438.22
443.61	7686.32
443.80	7969.52
443.98	7454.61
444.17	7372.69
444.35	7585.68
444.54	7819.73
444.73	7702.70
444.91	7639.51
445.10	7765.90
445.28	7726.11
445.47	7679.30
445.65	7691.00
445.84	7719.09
446.02	7957.82
446.21	7826.75
446.39	7798.66
446.58	7791.64
446.77	7868.88
446.95	7784.62
447.14	7768.24
447.32	7915.69
447.51	7971.86
447.69	7840.79
447.88	8140.38
448.06	7847.82
448.25	7803.35
448.43	7957.82
448.62	7850.16
448.80	7964.84
448.99	7925.05
449.17	8093.57
449.36	8177.83
449.54	8271.45
449.73	8231.66
449.91	8372.10
450.10	8449.33
450.28	8177.83
450.46	8418.91
450.65	8271.45
450.83	8503.17
451.02	8535.93
451.20	8617.85
451.39	8610.83
451.57	8659.98
451.76	8568.70
451.94	8531.25
452.13	8734.88
452.31	8557.00
452.49	8318.26
452.68	8575.72
452.86	8727.86
453.05	8814.46
453.23	9050.85
453.42	8865.95
453.60	8690.41
453.78	8898.72
453.97	8704.45
454.15	8847.22
454.34	8877.65
454.52	8926.80
454.70	9228.73
454.89	9125.75
455.07	8819.14
455.26	9254.48
455.44	9336.40
455.62	9364.48
455.81	9116.39
455.99	9399.59
456.17	9249.80
456.36	9254.48
456.54	9598.54
456.73	9593.86
456.91	9799.82
457.09	9511.94
457.28	9877.06
457.46	9469.81
457.64	9879.40
457.83	9806.84
458.01	9696.84
458.19	9902.81
458.38	9778.76
458.56	9966.00
458.74	9879.40
458.93	9830.25
459.11	10029.20
459.29	9823.23
459.48	10015.15
459.66	10106.43
459.84	10242.18
460.03	10298.36
460.21	9947.28
460.39	10085.37
460.57	10399.00
460.76	10319.42
460.94	10331.12
461.12	10228.14
461.31	10485.60
461.49	10342.83
461.67	10389.64
461.85	10586.24
462.04	10391.98
462.22	10965.41
462.40	10637.73
462.59	10579.22
462.77	10551.14
462.95	10853.06
463.13	10583.90
463.32	10764.12
463.50	10934.98
463.68	11059.03
463.86	10974.77
464.05	10768.80
464.23	10827.32
464.41	11218.19
464.59	10834.34
464.78	11311.81
464.96	10824.98
465.14	11035.63
465.32	11023.92
465.50	11400.75
465.69	11169.04
465.87	11108.18
466.05	11122.23
466.23	11276.70
466.41	11295.43
466.60	11346.92
466.78	11112.86
466.96	11309.47
467.14	11489.69
467.32	11272.02
467.51	11604.38
467.69	11288.40
467.87	11590.33
468.05	11709.70
468.23	11321.17
468.41	11587.99
468.60	11616.08
468.78	11974.18
468.96	11456.92
469.14	11875.88
469.32	11843.11
469.50	11571.61
469.69	11899.28
469.87	12081.85
470.05	11974.18
470.23	12238.66
470.41	11772.89
470.59	11985.88
470.77	12077.16
470.95	12320.58
471.14	12306.54
471.32	12182.49
471.50	12690.38
471.68	12573.36
471.86	12648.26
472.04	12470.37
472.22	12765.28
472.40	12421.22
472.58	12872.95
472.77	12908.05
472.95	12957.21
473.13	13373.82
473.31	13235.73
473.49	13170.19
473.67	13074.23
473.85	13224.03
474.03	13422.97
474.21	13507.23
474.39	13444.04
474.57	13549.36
474.75	13521.27
474.93	13776.39
475.12	13745.97
475.30	13909.80
475.48	13657.03
475.66	14200.03
475.84	14066.62
476.02	14232.80
476.20	14375.57
476.38	14511.32
476.56	14820.27
476.74	14345.14
476.92	14647.07
477.10	14546.43
477.28	14801.55
477.46	14991.13
477.64	15194.76
477.82	15044.96
478.00	15489.67
478.18	15552.86
478.36	15660.52
478.54	15889.90
478.72	15761.17
478.90	16130.97
479.08	16074.80
479.26	16262.04
479.44	16596.74
479.62	16421.20
479.80	16772.28
479.98	16479.71
480.16	17048.46
480.34	16992.29
480.52	17291.88
480.70	16994.63
480.88	16879.94
481.06	17373.80
481.24	17195.92
481.41	17261.45
481.59	17591.47
481.77	17923.82
481.95	17649.98
482.13	18338.10
482.31	18022.12
482.49	18532.36
482.67	18679.82
482.85	18773.44
483.03	19044.94
483.21	19295.38
483.39	19463.90
483.57	19405.38
483.74	19456.87
483.92	19646.46
484.10	19290.70
484.28	20093.50
484.46	20315.85
484.64	20404.79
484.82	20140.31
485.00	20573.31
485.18	20826.09
485.35	21027.37
485.53	21216.96
485.71	21128.02
485.89	21523.57
486.07	21869.97
486.25	21462.71
486.43	21766.98
486.61	22195.30
486.78	22209.34
486.96	22082.95
487.14	22677.45
487.32	22649.36
487.50	22857.67
487.68	22923.21
487.85	23426.42
488.03	23613.66
488.21	23772.82
488.39	23513.02
488.57	23953.04
488.75	24147.31
488.92	24432.85
489.10	24793.29
489.28	24465.62
489.46	25216.93
489.64	24982.88
489.81	25530.56
489.99	25525.88
490.17	25446.30
490.35	26211.66
490.53	25886.32
490.70	26394.22
490.88	26356.77
491.06	26712.53
491.24	26377.84
491.41	26923.18
491.59	26918.50
491.77	26998.08
491.95	27133.83
492.13	27515.34
492.30	27309.37
492.48	27793.86
492.66	27651.09
492.84	27941.32
493.01	28334.53
493.19	28217.50
493.37	28479.64
493.54	28613.05
493.72	28828.38
493.90	28659.86
494.08	29111.58
494.25	29186.48
494.43	29359.68
494.61	29457.98
494.79	30047.80
494.96	30024.39
495.14	30213.98
495.32	30125.04
495.49	30314.62
495.67	30602.50
495.85	31037.84
496.02	31218.07
496.20	31204.02
496.38	31058.91
496.55	31496.59
496.73	31957.67
496.91	31838.31
497.09	32088.74
497.26	32268.97
497.44	31732.98
497.62	32126.19
497.79	32435.14
497.97	32512.38
498.14	33298.80
498.32	33689.67
498.50	33170.07
498.67	33514.13
498.85	33626.48
499.03	33684.99
499.20	33097.52
499.38	33907.34
499.56	33818.40
499.73	34424.60
499.91	34513.54
500.08	34763.98
500.26	34309.91
500.44	34314.59
500.61	34300.55
500.79	34305.23
500.97	34836.53
501.14	35243.79
501.32	35363.15
501.49	35079.95
501.67	35426.35
501.84	35522.31
502.02	35622.95
502.20	35594.87
502.37	36154.26
502.55	36006.80
502.72	35835.94
502.90	36219.79
503.07	36217.45
503.25	36198.73
503.43	36172.98
503.60	36620.02
503.78	36898.55
503.95	37090.47
504.13	36875.14
504.30	37179.41
504.48	37038.98
504.65	37296.44
504.83	37324.52
505.01	37792.63
505.18	38071.15
505.36	38375.42
505.53	37839.44
505.71	37986.89
505.88	38253.72
506.06	38143.71
506.23	38583.73
506.41	38700.76
506.58	38607.14
506.76	38845.87
506.93	38714.80
507.11	38663.31
507.28	38932.47
507.46	39335.04
507.63	39035.45
507.81	39765.70
507.98	39159.50
508.16	39304.62
508.33	39468.45
508.50	39775.06
508.68	40011.46
508.85	40041.88
509.03	40151.89
509.20	40130.83
509.38	40730.00
509.55	40486.59
509.73	40484.25
509.90	40533.40
510.08	40381.26
510.25	40587.23
510.42	40989.80
510.60	41488.34
510.77	41106.83
510.95	41528.13
511.12	41298.75
511.30	41186.41
511.47	41291.73
511.64	42021.98
511.82	41979.85
511.99	41979.85
512.17	42347.31
512.34	41867.50
512.51	42057.09
512.69	42300.50
512.86	42094.53
513.04	42995.64
513.21	42838.83
513.38	43035.43
513.56	42873.93
513.73	42777.97
513.90	42728.82
514.08	43250.76
514.25	43459.07
514.43	43402.89
514.60	43625.25
514.77	43793.76
514.95	44240.81
515.12	43805.47
515.29	43386.51
515.47	44275.91
515.64	44294.64
515.81	44395.28
515.99	44453.79
516.16	44467.84
516.33	44942.97
516.51	44933.60
516.68	44587.21
516.85	44713.59
517.03	45170.00
517.20	44926.58
517.37	44917.22
517.54	45441.50
517.72	45111.49
517.89	44961.69
518.06	45315.11
518.24	45734.07
518.41	45441.50
518.58	45043.61
518.75	45500.01
518.93	45593.64
519.10	45392.35
519.27	46211.54
519.45	45347.88
519.62	45790.24
519.79	45778.54
519.96	45806.62
520.14	46382.40
520.31	46040.68
520.48	46270.05
520.65	46230.26
520.83	46756.88
521.00	46553.26
521.17	46457.29
521.34	46782.63
521.52	46927.74
521.69	46979.23
521.86	47199.24
522.03	46976.89
522.20	47365.42
522.38	47494.15
522.55	47285.84
522.72	47452.02
522.89	47154.77
523.07	47639.26
523.24	47386.49
523.41	48287.59
523.58	47901.40
523.75	48233.76
523.92	47660.33
524.10	47957.58
524.27	48133.12
524.44	48612.93
524.61	48175.25
524.78	48519.31
524.96	48762.72
525.13	48587.18
525.30	48556.75
525.47	48884.43
525.64	48367.17
525.81	49333.81
525.98	48907.83
526.16	48935.92
526.33	49052.95
526.50	49214.44
526.67	48945.28
526.84	49212.10
527.01	49366.58
527.18	49460.20
527.36	49572.55
527.53	49532.76
527.70	49481.27
527.87	49563.18
528.04	49226.15
528.21	49340.83
528.38	49537.44
528.55	49736.38
528.72	49972.78
528.89	49965.76
529.07	50035.97
529.24	50087.46
529.41	50108.53
529.58	49986.82
529.75	50033.63
529.92	49979.80
530.09	50169.38
530.26	50274.71
530.43	50211.51
530.60	50021.93
530.77	50454.93
530.94	50541.53
531.11	50181.09
531.28	50892.61
531.46	50522.80
531.63	50810.69
531.80	50976.87
531.97	50873.88
532.14	50775.58
532.31	50820.05
532.48	51416.89
532.65	51049.42
532.82	50782.60
532.99	51318.59
533.16	50911.33
533.33	51374.76
533.50	51613.49
533.67	51428.59
533.84	51152.41
534.01	51246.03
534.18	51433.27
534.35	51522.21
534.52	51426.25
534.69	51627.54
534.86	51796.06
535.03	51346.67
535.20	51634.56
535.37	51681.37
535.54	51756.27
535.71	51496.47
535.88	51992.66
536.05	51744.56
536.22	52172.88
536.38	52074.58
536.55	52123.73
536.72	52135.43
536.89	51899.04
537.06	52231.40
537.23	52210.33
537.40	52137.77
537.57	52210.33
537.74	52226.71
537.91	52526.30
538.08	52435.02
538.25	52224.37
538.42	52348.42
538.59	52413.96
538.75	52254.80
538.92	52287.57
539.09	52676.10
539.26	52563.75
539.43	52643.33
539.60	52514.60
539.77	52687.80
539.94	52814.19
540.11	52823.55
540.28	52893.77
540.44	52807.17
540.61	52945.26
540.78	52832.91
540.95	52741.63
541.12	53118.46
541.29	52982.71
541.46	53188.67
541.62	53183.99
541.79	53071.65
541.96	52769.72
542.13	52861.00
542.30	53006.11
542.47	53455.50
542.63	53593.59
542.80	53506.99
542.97	53729.34
543.14	53954.03
543.31	53570.18
543.48	53635.72
543.64	53907.22
543.81	53829.98
543.98	53890.83
544.15	54092.12
544.32	53808.92
544.48	54040.63
544.65	53680.19
544.82	53829.98
544.99	53808.92
545.16	53862.75
545.32	53813.60
545.49	54124.89
545.66	54417.46
545.83	54419.80
546.00	54506.40
546.16	54099.14
546.33	54150.63
546.50	53734.02
546.67	54138.93
546.83	53865.09
547.00	54354.26
547.17	54541.50
547.34	54487.67
547.50	54270.00
547.67	54794.28
547.84	54314.47
548.00	54595.34
548.17	54543.84
548.34	54129.57
548.51	54719.38
548.67	54688.96
548.84	54768.54
549.01	54532.14
549.18	54810.67
549.34	54440.86
549.51	54618.74
549.68	54770.88
549.84	54698.32
550.01	54834.07
550.18	54789.60
550.34	54721.72
550.51	54979.18
550.68	54822.37
550.84	54621.08
551.01	54827.05
551.18	54740.45
551.34	54618.74
551.51	55000.25
551.68	55154.72
551.84	55121.96
552.01	54981.52
552.18	55117.28
552.34	54974.50
552.51	54908.97
552.68	54738.11
552.84	55098.55
553.01	55281.11
553.18	55138.34
553.34	55367.71
553.51	55234.30
553.67	55267.07
553.84	55398.14
554.01	55313.88
554.17	55388.78
554.34	55435.59
554.51	55437.93
554.67	55388.78
554.84	55339.63
555.00	55334.95
555.17	55433.25
555.33	55512.83
555.50	55370.05
555.67	55599.43
555.83	55573.68
556.00	55587.72
556.16	55915.40
556.33	55604.11
556.50	55620.49
556.66	55423.89
556.83	55629.85
556.99	55959.87
557.16	55938.80
557.32	55957.53
557.49	55786.67
557.65	55400.48
557.82	55604.11
557.98	55763.26
558.15	55800.71
558.32	56170.52
558.48	55896.67
558.65	56058.17
558.81	55847.52
558.98	55997.32
559.14	56044.13
559.31	56006.68
559.47	55868.59
559.64	56018.38
559.80	56067.53
559.97	56165.84
560.13	55817.10
560.30	56002.00
560.46	56100.30
560.63	55980.93
560.79	55852.20
560.96	56013.70
561.12	55882.63
561.29	56130.73
561.45	56156.47
561.61	56074.55
561.78	56324.99
561.94	56495.85
562.11	56413.93
562.27	56182.22
562.44	56119.02
562.60	56252.44
562.77	56060.51
562.93	56006.68
563.10	56285.20
563.26	56343.72
563.42	56432.66
563.59	56343.72
563.75	56177.54
563.92	56397.55
564.08	56332.01
564.24	56273.50
564.41	56254.78
564.57	56039.45
564.74	56142.43
564.90	56378.82
565.07	56671.39
565.23	56425.64
565.39	56446.70
565.56	56409.25
565.72	56261.80
565.88	56327.33
566.05	56399.89
566.21	56165.84
566.38	56385.85
566.54	56343.72
566.70	56617.56
566.87	56638.62
567.03	56406.91
567.19	56601.18
567.36	56343.72
567.52	56233.71
567.68	56662.03
567.85	56479.47
568.01	56360.10
568.17	56549.68
568.34	56568.41
568.50	56608.20
568.66	56472.45
568.83	56584.79
568.99	56467.76
569.15	56556.70
569.32	56493.51
569.48	56095.62
569.64	56512.23
569.81	56437.34
569.97	56528.62
570.13	56783.74
570.30	56477.13
570.46	56521.60
570.62	56706.50
570.78	56715.86
570.95	56439.68
571.11	56626.92
571.27	56273.50
571.43	56477.13
571.60	56617.56
571.76	56659.69
571.92	56900.76
572.09	56844.59
572.25	56690.12
572.41	56685.43
572.57	56484.15
572.74	56772.03
572.90	56449.04
573.06	56680.75
573.22	56559.05
573.38	56692.46
573.55	56566.07
573.71	56935.87
573.87	57022.47
574.03	56832.89
574.20	56772.03
574.36	56519.26
574.52	56884.38
574.68	56617.56
574.84	56266.48
575.01	56729.90
575.17	56830.55
575.33	56734.59
575.49	56800.12
575.65	57090.35
575.82	56804.80
575.98	56739.27
576.14	57249.50
576.30	56851.61
576.46	56512.23
576.62	56718.20
576.79	56809.48
576.95	56832.89
577.11	56809.48
577.27	56814.16
577.43	56561.39
577.59	56807.14
577.75	56757.99
577.92	56624.58
578.08	56743.95
578.24	56680.75
578.40	56722.88
578.56	56718.20
578.72	56694.80
578.88	57013.11
579.04	56800.12
579.21	56619.90
579.37	56807.14
579.53	57050.56
579.69	56706.50
579.85	56736.93
580.01	56711.18
580.17	56783.74
580.33	56704.16
580.49	56750.97
580.65	56783.74
580.82	56987.36
580.98	57235.46
581.14	56877.36
581.30	57088.01
581.46	56720.54
581.62	56601.18
581.78	56657.35
581.94	56973.32
582.10	56676.07
582.26	56903.10
582.42	56793.10
582.58	56868.00
582.74	56900.76
582.90	56931.19
583.06	57169.93
583.22	56921.83
583.38	56776.72
583.54	56858.63
583.70	56655.01
583.86	56919.49
584.02	56872.68
584.18	56954.60
584.34	57041.20
584.50	57202.69
584.66	56914.81
584.82	56685.43
584.98	56821.19
585.14	56783.74
585.30	56612.88
585.46	56699.48
585.62	56603.52
585.78	57064.60
585.94	56619.90
586.10	56882.04
586.26	56975.66
586.42	57003.75
586.58	57031.83
586.74	56893.74
586.90	56699.48
587.06	56624.58
587.22	56891.40
587.38	56725.22
587.54	56982.68
587.70	57148.86
587.86	56858.63
588.02	57312.70
588.18	57132.48
588.34	56821.19
588.49	57024.81
588.65	56741.61
588.81	56825.87
588.97	57195.67
589.13	56917.15
589.29	56830.55
589.45	57069.28
589.61	57055.24
