SpectraSuite Data File
++++++++++++++++++++++++++++++++++++
Date: Fri Oct 18 13:55:00 GMT-05:00 2013
User: bianchi
Dark Spectrum Present: No
Reference Spectrum Present: No
Number of Sampled Component Spectra: 1
Spectrometers: USB2+H05261
Integration Time (usec): 100000 (USB2+H05261)
Spectra Averaged: 1 (USB2+H05261)
Boxcar Smoothing: 0 (USB2+H05261)
Correct for Electrical Dark: No (USB2+H05261)
Strobe/Lamp Enabled: No (USB2+H05261)
Correct for Detector Non-linearity: No (USB2+H05261)
Correct for Stray Light: No (USB2+H05261)
Number of Pixels in Processed Spectrum: 2048
>>>>>Begin Processed Spectral Data<<<<<
365.73	0.00
365.92	0.00
366.12	0.00
366.32	0.00
366.52	0.00
366.72	0.00
366.91	0.00
367.11	0.00
367.31	0.00
367.51	0.00
367.70	0.00
367.90	0.00
368.10	0.00
368.30	0.00
368.49	0.00
368.69	0.00
368.89	0.00
369.09	0.00
369.28	0.00
369.48	0.00
369.68	0.00
369.87	0.00
370.07	0.00
370.27	0.00
370.47	21.06
370.66	315.97
370.86	330.02
371.06	379.17
371.25	404.91
371.45	322.99
371.65	353.42
371.84	348.74
372.04	337.04
372.24	430.66
372.44	383.85
372.63	390.87
372.83	433.00
373.03	379.17
373.22	444.70
373.42	447.04
373.62	526.62
373.81	470.45
374.01	533.64
374.21	433.00
374.40	430.66
374.60	486.83
374.79	547.69
374.99	561.73
375.19	507.90
375.38	512.58
375.58	463.43
375.78	589.82
375.97	557.05
376.17	578.11
376.37	564.07
376.56	608.54
376.76	587.47
376.95	582.79
377.15	603.86
377.35	486.83
377.54	589.82
377.74	566.41
377.93	662.37
378.13	559.39
378.33	617.90
378.52	559.39
378.72	660.03
378.91	594.50
379.11	552.37
379.31	636.63
379.50	477.47
379.70	638.97
379.89	676.41
380.09	624.92
380.28	601.52
380.48	662.37
380.68	613.22
380.87	697.48
381.07	655.35
381.26	772.38
381.46	678.76
381.65	758.33
381.85	667.05
382.04	699.82
382.24	725.57
382.43	727.91
382.63	634.29
382.83	704.50
383.02	746.63
383.22	755.99
383.41	660.03
383.61	748.97
383.80	741.95
384.00	819.19
384.19	809.83
384.39	730.25
384.58	828.55
384.78	802.80
384.97	788.76
385.17	809.83
385.36	826.21
385.56	779.40
385.75	788.76
385.95	774.72
386.14	819.19
386.34	844.93
386.53	880.04
386.72	772.38
386.92	896.43
387.11	840.25
387.31	940.90
387.50	912.81
387.70	917.49
387.89	896.43
388.09	847.27
388.28	959.62
388.48	940.90
388.67	954.94
388.86	950.26
389.06	983.02
389.25	938.55
389.45	1039.20
389.64	1004.09
389.84	968.98
390.03	1013.45
390.22	1057.92
390.42	1083.67
390.61	1011.11
390.81	1055.58
391.00	1043.88
391.19	1053.24
391.39	1121.12
391.58	1020.47
391.78	1137.50
391.97	1093.03
392.16	1027.50
392.36	1149.20
392.55	1057.92
392.75	1076.65
392.94	1132.82
393.13	1160.91
393.33	1191.33
393.52	1284.95
393.71	1252.19
393.91	1198.35
394.10	1207.72
394.29	1186.65
394.49	1137.50
394.68	1273.25
394.88	1200.69
395.07	1303.68
395.26	1315.38
395.46	1252.19
395.65	1287.29
395.84	1380.92
396.04	1455.81
396.23	1423.05
396.42	1380.92
396.62	1350.49
396.81	1490.92
397.00	1490.92
397.19	1336.45
397.39	1371.55
397.58	1521.35
397.77	1411.34
397.97	1437.09
398.16	1439.43
398.35	1565.82
398.55	1497.94
398.74	1565.82
398.93	1598.59
399.12	1682.85
399.32	1528.37
399.51	1490.92
399.70	1675.82
399.90	1554.12
400.09	1722.63
400.28	1638.38
400.47	1579.86
400.67	1785.83
400.86	1762.42
401.05	1717.95
401.24	1650.08
401.44	1643.06
401.63	1687.53
401.82	1778.81
402.01	1755.40
402.21	1720.29
402.40	1846.68
402.59	1806.89
402.78	1806.89
402.97	1956.69
403.17	1874.77
403.36	1799.87
403.55	1900.52
403.74	1930.94
403.93	1926.26
404.13	1994.14
404.32	1888.81
404.51	2031.58
404.70	2064.35
404.89	1933.28
405.09	2146.27
405.28	2045.63
405.47	2031.58
405.66	1980.09
405.85	2174.36
406.05	2204.78
406.24	2120.53
406.43	2265.64
406.62	2284.36
406.81	2223.51
407.00	2263.30
407.20	2195.42
407.39	2249.25
407.58	2296.07
407.77	2417.77
407.96	2349.90
408.15	2415.43
408.34	2375.64
408.54	2410.75
408.73	2370.96
408.92	2506.71
409.11	2459.90
409.30	2562.89
409.49	2527.78
409.68	2544.16
409.87	2569.91
410.07	2525.44
410.26	2642.46
410.45	2715.02
410.64	2698.64
410.83	2691.62
411.02	2832.05
411.21	2825.03
411.40	2780.56
411.59	2820.35
411.78	2860.13
411.98	2682.25
412.17	2862.48
412.36	2883.54
412.55	3040.36
412.74	3005.25
412.93	3009.93
413.12	3019.29
413.31	3213.56
413.50	3066.10
413.69	3176.11
413.88	3246.32
414.07	3185.47
414.26	3194.83
414.45	3328.24
414.64	3288.45
414.83	3251.00
415.02	3290.79
415.22	3386.76
415.41	3513.14
415.60	3536.55
415.79	3543.57
415.98	3604.42
416.17	3768.26
416.36	3562.30
416.55	3712.09
416.74	3667.62
416.93	3590.38
417.12	3747.20
417.31	3875.93
417.50	3822.09
417.69	3976.57
417.88	3852.52
418.07	3768.26
418.26	3915.72
418.45	4084.23
418.64	4058.49
418.83	4138.07
419.02	4086.58
419.21	4198.92
419.39	4105.30
419.58	4133.39
419.77	4093.60
419.96	4341.69
420.15	4189.56
420.34	4124.02
420.53	4311.27
420.72	4229.35
420.91	4245.73
421.10	4390.84
421.29	4550.00
421.48	4379.14
421.67	4531.28
421.86	4416.59
422.05	4454.04
422.24	4306.59
422.43	4482.13
422.61	4613.20
422.80	4601.49
422.99	4519.57
423.18	4566.39
423.37	4613.20
423.56	4493.83
423.75	4524.26
423.94	4489.15
424.13	4248.07
424.32	4437.66
424.50	4676.39
424.69	4734.90
424.88	4655.33
425.07	4592.13
425.26	4561.70
425.45	4631.92
425.64	4695.11
425.83	4524.26
426.01	4793.42
426.20	4718.52
426.39	4760.65
426.58	4631.92
426.77	4664.69
426.96	4821.50
427.15	4826.18
427.33	4849.59
427.52	4816.82
427.71	4840.23
427.90	4849.59
428.09	4983.00
428.28	5118.75
428.46	4793.42
428.65	4952.57
428.84	5018.11
429.03	5174.92
429.22	4957.25
429.40	5242.80
429.59	5252.16
429.78	4922.15
429.97	4861.29
430.16	5022.79
430.34	5174.92
430.53	5270.89
430.72	5298.97
430.91	5245.14
431.10	5235.78
431.28	5462.81
431.47	5460.47
431.66	5586.86
431.85	5387.91
432.03	5514.30
432.22	5769.42
432.41	5537.71
432.60	5596.22
432.79	5607.92
432.97	5394.93
433.16	5568.13
433.35	5458.13
433.54	5689.84
433.72	5792.83
433.91	5675.80
434.10	5605.58
434.28	5839.64
434.47	5797.51
434.66	5909.85
434.85	6040.92
435.03	5970.71
435.22	5898.15
435.41	6101.78
435.59	5891.13
435.78	6031.56
435.97	6078.37
436.16	6263.27
436.34	6057.31
436.53	6073.69
436.72	6237.53
436.90	6087.73
437.09	6092.41
437.28	6033.90
437.46	6333.49
437.65	6225.82
437.84	6506.69
438.02	6169.65
438.21	6520.73
438.40	6249.23
438.58	6562.86
438.77	6635.42
438.96	6551.16
439.14	6733.72
439.33	6904.58
439.52	6731.38
439.70	6707.98
439.89	6895.22
440.08	6927.99
440.26	6848.41
440.45	6932.67
440.63	7049.69
440.82	7194.81
441.01	7026.29
441.19	7157.36
441.38	7405.46
441.57	7218.21
441.75	7325.88
441.94	7510.78
442.12	7503.76
442.31	7452.27
442.50	7618.44
442.68	7466.31
442.87	7536.52
443.05	7653.55
443.24	7618.44
443.43	7651.21
443.61	7634.83
443.80	7913.35
443.98	7620.78
444.17	7356.30
444.35	7964.84
444.54	7936.76
444.73	7861.86
444.91	7793.98
445.10	7714.41
445.28	7995.27
445.47	7829.09
445.65	7744.83
445.84	7988.25
446.02	7908.67
446.21	7875.90
446.39	7768.24
446.58	7962.50
446.77	8006.97
446.95	7779.94
447.14	7847.82
447.32	8011.65
447.51	8035.06
447.69	7927.39
447.88	7941.44
448.06	7969.52
448.25	7889.95
448.43	8133.36
448.62	7978.89
448.80	8077.19
448.99	8107.62
449.17	8100.59
449.36	8222.30
449.54	8414.23
449.73	8470.40
449.91	8631.90
450.10	8414.23
450.28	8774.67
450.46	8622.53
450.65	8358.05
450.83	8404.86
451.02	8521.89
451.20	8477.42
451.39	8437.63
451.57	8519.55
451.76	8484.44
451.94	8617.85
452.13	8903.40
452.31	8786.37
452.49	8744.24
452.68	8952.55
452.86	8849.57
453.05	8917.44
453.23	8809.78
453.42	8961.91
453.60	8877.65
453.78	8760.63
453.97	8826.16
454.15	8964.25
454.34	9104.68
454.52	9149.15
454.70	8863.61
454.89	9256.82
455.07	9069.58
455.26	9430.02
455.44	9357.46
455.62	9324.69
455.81	9373.85
455.99	9390.23
456.17	9666.41
456.36	9418.32
456.54	9671.09
456.73	9722.59
456.91	9804.50
457.09	9731.95
457.28	9891.10
457.46	9764.72
457.64	9846.63
457.83	9947.28
458.01	9874.72
458.19	10061.96
458.38	10057.28
458.56	10097.07
458.74	9970.68
458.93	10120.48
459.11	10225.80
459.29	10176.65
459.48	10277.29
459.66	10326.44
459.84	10471.56
460.03	10328.78
460.21	10293.68
460.39	10359.21
460.57	10342.83
460.76	10441.13
460.94	10553.48
461.12	10387.30
461.31	10581.56
461.49	10504.32
461.67	10595.61
461.85	10668.16
462.04	10958.39
462.22	10862.43
462.40	10839.02
462.59	10813.28
462.77	10782.85
462.95	10890.51
463.13	10827.32
463.32	10977.11
463.50	11037.97
463.68	11094.14
463.86	11066.05
464.05	11030.94
464.23	11154.99
464.41	11227.55
464.59	10799.23
464.78	11236.91
464.96	11213.51
465.14	11021.58
465.32	11159.67
465.50	11370.32
465.69	11396.07
465.87	11463.94
466.05	11344.58
466.23	11211.17
466.41	11578.63
466.60	11775.24
466.78	11487.35
466.96	11342.24
467.14	11473.31
467.32	11421.81
467.51	11702.68
467.69	11227.55
467.87	11679.27
468.05	11943.75
468.23	11492.03
468.41	11557.57
468.60	11918.01
468.78	11988.22
468.96	11793.96
469.14	11829.07
469.32	12154.40
469.50	11833.75
469.69	12121.63
469.87	12262.07
470.05	12299.52
470.23	12423.56
470.41	12353.35
470.59	12449.31
470.77	12496.12
470.95	12629.53
471.14	12554.63
471.32	12194.19
471.50	12657.62
471.68	12741.88
471.86	12849.54
472.04	12645.91
472.22	13231.05
472.40	12889.33
472.58	12861.24
472.77	12982.95
472.95	13132.75
473.13	13631.28
473.31	13373.82
473.49	13092.96
473.67	13605.53
473.85	13390.20
474.03	13640.64
474.21	13650.00
474.39	13788.10
474.57	13795.12
474.75	13989.38
474.93	14174.28
475.12	13572.77
475.30	14092.37
475.48	14045.55
475.66	14167.26
475.84	14380.25
476.02	14305.35
476.20	14366.21
476.38	14679.84
476.56	14871.76
476.74	14939.64
476.92	14965.39
477.10	14904.53
477.28	15103.48
477.46	15241.57
477.64	15346.89
477.82	15372.64
478.00	15726.06
478.18	15819.68
478.36	16198.85
478.54	16065.44
478.72	15992.88
478.90	16292.47
479.08	16269.06
479.26	16648.23
479.44	16545.25
479.62	16765.26
479.80	17305.92
479.98	16868.24
480.16	17062.51
480.34	17191.23
480.52	17633.60
480.70	17310.60
480.88	17165.49
481.06	17547.00
481.24	17518.91
481.41	17865.31
481.59	18185.96
481.77	18087.66
481.95	18195.32
482.13	18513.64
482.31	18174.26
482.49	18759.39
482.67	18960.68
482.85	19332.82
483.03	19178.35
483.21	19494.32
483.39	19433.47
483.57	19503.68
483.74	19859.45
483.92	20126.27
484.10	19913.28
484.28	20273.72
484.46	20381.38
484.64	20903.32
484.82	20905.66
485.00	20545.22
485.18	21561.02
485.35	21202.91
485.53	21336.32
485.71	21575.06
485.89	22057.21
486.07	21811.45
486.25	21994.01
486.43	22113.38
486.61	22148.49
486.78	22473.82
486.96	22831.93
487.14	22742.99
487.32	23159.60
487.50	23407.70
487.68	23433.44
487.85	23868.78
488.03	23990.49
488.21	23964.75
488.39	24332.21
488.57	24283.06
488.75	24439.87
488.92	24751.17
489.10	24947.77
489.28	25095.22
489.46	25228.63
489.64	25268.42
489.81	25825.47
489.99	25759.94
490.17	26195.28
490.35	26382.52
490.53	26548.70
490.70	26494.86
490.88	26747.64
491.06	26883.39
491.24	26981.70
491.41	26658.70
491.59	27339.80
491.77	27697.90
491.95	27831.31
492.13	27934.29
492.30	27953.02
492.48	28215.16
492.66	28219.84
492.84	28191.75
493.01	28676.24
493.19	28559.22
493.37	28957.11
493.54	29057.75
493.72	29362.02
493.90	29020.30
494.08	29532.88
494.25	30235.04
494.43	29865.24
494.61	30302.92
494.79	30572.08
494.96	30817.83
495.14	30532.29
495.32	31314.03
495.49	30803.79
495.67	30927.84
495.85	31295.30
496.02	31562.12
496.20	31725.96
496.38	31812.56
496.55	31864.05
496.73	32666.86
496.91	32329.82
497.09	32613.02
497.26	32828.35
497.44	32442.17
497.62	32680.90
497.79	33125.60
497.97	32992.19
498.14	33982.24
498.32	33479.02
498.50	33565.62
498.67	33958.83
498.85	33930.75
499.03	34134.37
499.20	34054.79
499.38	34185.86
499.56	34658.65
499.73	34799.08
499.91	34728.87
500.08	35009.73
500.26	34543.97
500.44	34906.75
500.61	35201.66
500.79	34775.68
500.97	35604.23
501.14	35777.43
501.32	35990.42
501.49	36109.78
501.67	36184.68
501.84	36306.39
502.02	36430.44
502.20	36367.24
502.37	36584.91
502.55	36252.56
502.72	37191.11
502.90	36683.22
503.07	36741.73
503.25	36650.45
503.43	36559.17
503.60	37305.80
503.78	37710.71
503.95	37560.92
504.13	37411.12
504.30	37500.06
504.48	38146.05
504.65	38120.31
504.83	38300.53
505.01	38841.19
505.18	38569.69
505.36	38789.70
505.53	38557.99
505.71	38841.19
505.88	38667.99
506.06	38742.89
506.23	38911.41
506.41	38841.19
506.58	39108.01
506.76	38815.44
506.93	39225.04
507.11	38703.10
507.28	39613.57
507.46	39529.31
507.63	40084.01
507.81	40212.74
507.98	39945.92
508.16	40493.61
508.33	40069.97
508.50	40414.03
508.68	40243.17
508.85	40725.32
509.03	40596.59
509.20	40641.06
509.38	41111.51
509.55	41338.54
509.73	41050.66
509.90	41605.36
510.08	41022.57
510.25	41200.45
510.42	41853.46
510.60	41956.44
510.77	42115.60
510.95	42110.92
511.12	41617.07
511.30	41951.76
511.47	42389.44
511.64	41862.82
511.82	42794.36
511.99	42600.09
512.17	43311.61
512.34	42593.07
512.51	43269.48
512.69	42951.17
512.86	42993.30
513.04	43077.56
513.21	43716.53
513.38	43353.74
513.56	43779.72
513.73	43894.41
513.90	43896.75
514.08	43744.61
514.25	43653.33
514.43	44065.27
514.60	44362.51
514.77	44435.07
514.95	44580.18
515.12	43693.12
515.29	44030.16
515.47	44563.80
515.64	44994.46
515.81	44575.50
515.99	45270.64
516.16	45432.14
516.33	45008.50
516.51	45645.13
516.68	45272.98
516.85	45413.41
517.03	45979.82
517.20	45713.00
517.37	45359.58
517.54	45827.69
517.72	45916.63
517.89	45673.21
518.06	45794.92
518.24	45748.11
518.41	45787.90
518.58	46082.81
518.75	46110.89
518.93	46026.63
519.10	46557.94
519.27	46529.85
519.45	46387.08
519.62	46663.26
519.79	46539.21
519.96	46689.01
520.14	47283.50
520.31	46799.01
520.48	47445.00
520.65	47473.09
520.83	47304.57
521.00	47782.04
521.17	47220.31
521.34	47334.99
521.52	47667.35
521.69	47484.79
521.86	48018.43
522.03	48266.53
522.20	48205.67
522.38	48128.44
522.55	48140.14
522.72	48121.41
522.89	48526.33
523.07	48538.03
523.24	48659.74
523.41	48531.01
523.58	48327.38
523.75	48685.48
523.92	48540.37
524.10	48523.99
524.27	48790.81
524.44	48966.35
524.61	49097.42
524.78	49336.15
524.96	49132.53
525.13	49104.44
525.30	49022.52
525.47	49450.84
525.64	49155.93
525.81	49841.71
525.98	49837.03
526.16	49586.59
526.33	49626.38
526.50	49734.04
526.67	49352.54
526.84	49659.15
527.01	50038.31
527.18	49968.10
527.36	50089.80
527.53	50143.64
527.70	50454.93
527.87	50330.88
528.04	50373.01
528.21	50255.98
528.38	50223.22
528.55	50253.64
528.72	50288.75
528.89	50625.79
529.07	50838.78
529.24	50459.61
529.41	50684.30
529.58	50618.77
529.75	50499.40
529.92	50365.99
530.09	50710.05
530.26	50918.35
530.43	51065.81
530.60	50824.73
530.77	50862.18
530.94	51271.78
531.11	50887.93
531.28	51009.64
531.46	51353.69
531.63	51079.85
531.80	51437.95
531.97	51351.35
532.14	51704.77
532.31	51157.09
532.48	51459.02
532.65	51737.54
532.82	51749.24
532.99	51599.45
533.16	51435.61
533.33	51763.29
533.50	52240.76
533.67	51938.83
533.84	51753.93
534.01	51931.81
534.18	51873.29
534.35	51976.28
534.52	52165.86
534.69	52116.71
534.86	52435.02
535.03	52065.22
535.20	52147.14
535.37	52224.37
535.54	52577.79
535.71	52097.98
535.88	51922.44
536.05	52526.30
536.22	52758.02
536.38	52392.89
536.55	52746.31
536.72	52774.40
536.89	52486.51
537.06	52481.83
537.23	52896.11
537.40	52650.35
537.57	52636.31
537.74	52914.83
537.91	53155.91
538.08	53043.56
538.25	52783.76
538.42	53092.71
538.59	53029.52
538.75	52505.24
538.92	52907.81
539.09	53120.80
539.26	53296.34
539.43	53139.52
539.60	53165.27
539.77	53216.76
539.94	53354.85
540.11	53389.96
540.28	53301.02
540.44	53167.61
540.61	53396.98
540.78	53624.01
540.95	53455.50
541.12	53776.15
541.29	53242.51
541.46	53499.97
541.62	53584.22
541.79	53727.00
541.96	53467.20
542.13	53404.00
542.30	53698.91
542.47	54047.65
542.63	54262.98
542.80	53804.24
542.97	54150.63
543.14	54251.28
543.31	54031.27
543.48	54087.44
543.64	54321.49
543.81	54408.09
543.98	54562.57
544.15	54436.18
544.32	54508.74
544.48	54389.37
544.65	54169.36
544.82	54265.32
544.99	54335.54
545.16	54714.70
545.32	54138.93
545.49	54787.26
545.66	54707.68
545.83	54925.35
546.00	54897.27
546.16	54653.85
546.33	54611.72
546.50	54307.45
546.67	54813.01
546.83	54410.43
547.00	54693.64
547.17	54834.07
547.34	54887.90
547.50	55091.53
547.67	55126.64
547.84	55068.12
548.00	54983.86
548.17	55393.46
548.34	55136.00
548.51	55325.58
548.67	55215.58
548.84	55299.84
549.01	55318.56
549.18	55166.43
549.34	55068.12
549.51	55250.69
549.68	55215.58
549.84	55112.59
550.01	55023.65
550.18	55145.36
550.34	55332.60
550.51	55533.89
550.68	55597.09
550.84	55208.56
551.01	55327.92
551.18	54972.16
551.34	55311.54
551.51	55573.68
551.68	55789.01
551.84	55388.78
552.01	55627.51
552.18	55711.77
552.34	55573.68
552.51	55723.47
552.68	55554.96
552.84	55629.85
553.01	55810.07
553.18	55817.10
553.34	55817.10
553.51	55819.44
553.67	55667.30
553.84	55997.32
554.01	55931.78
554.17	55859.23
554.34	55875.61
554.51	55739.86
554.67	56065.19
554.84	55835.82
555.00	55779.65
555.17	56044.13
555.33	55987.95
555.50	55908.38
555.67	55796.03
555.83	56041.79
556.00	56179.88
556.16	56053.49
556.33	56025.40
556.50	55945.83
556.66	56346.06
556.83	56303.93
556.99	56341.38
557.16	56416.27
557.32	56334.35
557.49	56554.36
557.65	56278.18
557.82	55994.98
557.98	56224.35
558.15	56280.52
558.32	56442.02
558.48	56437.34
558.65	56556.70
558.81	56552.02
558.98	56605.86
559.14	56306.27
559.31	56477.13
559.47	56418.61
559.64	56535.64
559.80	56446.70
559.97	56533.30
560.13	56566.07
560.30	56563.73
560.46	56376.48
560.63	56442.02
560.79	56633.94
560.96	56566.07
561.12	56423.29
561.29	56598.83
561.45	56446.70
561.61	56718.20
561.78	56750.97
561.94	56860.97
562.11	57059.92
562.27	56629.26
562.44	56683.09
562.60	56547.34
562.77	56708.84
562.93	56736.93
563.10	56865.66
563.26	56647.99
563.42	56790.76
563.59	57071.62
563.75	56626.92
563.92	56900.76
564.08	56729.90
564.24	56818.84
564.41	56779.06
564.57	56804.80
564.74	56818.84
564.90	56746.29
565.07	56802.46
565.23	56800.12
565.39	57083.33
565.56	57031.83
565.72	56931.19
565.88	56973.32
566.05	56816.50
566.21	56779.06
566.38	56893.74
566.54	56898.42
566.70	57151.20
566.87	57003.75
567.03	56989.70
567.19	56989.70
567.36	57109.07
567.52	57034.17
567.68	57214.40
567.85	57006.09
568.01	57027.15
568.17	56975.66
568.34	57078.64
568.50	57099.71
568.66	57109.07
568.83	57263.55
568.99	57008.43
569.15	57069.28
569.32	57078.64
569.48	56818.84
569.64	57233.12
569.81	56928.85
569.97	57303.34
570.13	57069.28
570.30	56907.79
570.46	57181.63
570.62	57092.69
570.78	57050.56
570.95	57125.46
571.11	57095.03
571.27	57034.17
571.43	57062.26
571.60	57148.86
571.76	56994.39
571.92	57219.08
572.09	57291.63
572.25	57418.02
572.41	57244.82
572.57	56992.04
572.74	57289.29
572.90	57172.27
573.06	57406.32
573.22	57144.18
573.38	57167.58
573.55	57106.73
573.71	57539.73
573.87	57387.60
574.03	57343.12
574.20	57216.74
574.36	57303.34
574.52	56975.66
574.68	57176.95
574.84	57186.31
575.01	57436.75
575.17	57408.66
575.33	57242.48
575.49	57301.00
575.65	57525.69
575.82	57415.68
575.98	57396.96
576.14	57319.72
576.30	57387.60
576.46	57176.95
576.62	57095.03
576.79	57038.86
576.95	57155.88
577.11	57425.04
577.27	57415.68
577.43	57027.15
577.59	57176.95
577.75	57258.87
577.92	57062.26
578.08	57277.59
578.24	57270.57
578.40	57190.99
578.56	57565.48
578.72	57462.49
578.88	57413.34
579.04	57446.11
579.21	57329.08
579.37	57544.41
579.53	57485.90
579.69	57155.88
579.85	57251.84
580.01	57265.89
580.17	57125.46
580.33	57415.68
580.49	57172.27
580.65	57563.14
580.82	57382.91
580.98	57394.62
581.14	57298.65
581.30	57549.09
581.46	57289.29
581.62	57205.03
581.78	57055.24
581.94	57148.86
582.10	57249.50
582.26	57289.29
582.42	57331.42
582.58	57277.59
582.74	57696.55
582.90	57181.63
583.06	57326.74
583.22	57401.64
583.38	57069.28
583.54	57308.02
583.70	57443.77
583.86	57401.64
584.02	57205.03
584.18	57490.58
584.34	57506.96
584.50	57453.13
584.66	57675.48
584.82	57436.75
584.98	57277.59
585.14	57375.89
585.30	57317.38
585.46	57279.93
585.62	57298.65
585.78	57418.02
585.94	57127.80
586.10	57350.15
586.26	57446.11
586.42	57521.01
586.58	57586.54
586.74	57263.55
586.90	57275.25
587.06	57179.29
587.22	57298.65
587.38	57240.14
587.54	57471.85
587.70	57495.26
587.86	57595.90
588.02	57616.97
588.18	57855.70
588.34	57481.22
588.49	57528.03
588.65	57270.57
588.81	57396.96
588.97	57305.68
589.13	57600.58
589.29	57528.03
589.45	57663.78
