SpectraSuite Data File
++++++++++++++++++++++++++++++++++++
Date: Fri Oct 18 13:54:51 GMT-05:00 2013
User: bianchi
Dark Spectrum Present: No
Reference Spectrum Present: No
Number of Sampled Component Spectra: 1
Spectrometers: USB2+H05261
Integration Time (usec): 100000 (USB2+H05261)
Spectra Averaged: 1 (USB2+H05261)
Boxcar Smoothing: 0 (USB2+H05261)
Correct for Electrical Dark: No (USB2+H05261)
Strobe/Lamp Enabled: No (USB2+H05261)
Correct for Detector Non-linearity: No (USB2+H05261)
Correct for Stray Light: No (USB2+H05261)
Number of Pixels in Processed Spectrum: 2048
>>>>>Begin Processed Spectral Data<<<<<
365.73	0.00
365.92	0.00
366.12	0.00
366.32	0.00
366.52	0.00
366.72	0.00
366.91	0.00
367.11	0.00
367.31	0.00
367.51	0.00
367.70	0.00
367.90	0.00
368.10	0.00
368.30	0.00
368.49	0.00
368.69	0.00
368.89	0.00
369.09	0.00
369.28	0.00
369.48	0.00
369.68	0.00
369.87	0.00
370.07	0.00
370.27	0.00
370.47	37.45
370.66	250.44
370.86	360.44
371.06	297.25
371.25	397.89
371.45	358.10
371.65	407.25
371.84	355.76
372.04	372.15
372.24	447.04
372.44	444.70
372.63	454.06
372.83	456.40
373.03	402.57
373.22	418.96
373.42	423.64
373.62	451.72
373.81	468.11
374.01	379.17
374.21	491.51
374.40	425.98
374.60	519.60
374.79	519.60
374.99	552.37
375.19	493.85
375.38	552.37
375.58	585.13
375.78	528.96
375.97	547.69
376.17	566.41
376.37	493.85
376.56	624.92
376.76	559.39
376.95	503.22
377.15	519.60
377.35	622.58
377.54	543.00
377.74	550.03
377.93	564.07
378.13	596.84
378.33	669.39
378.52	580.45
378.72	610.88
378.91	620.24
379.11	615.56
379.31	592.16
379.50	554.71
379.70	615.56
379.89	706.84
380.09	692.80
380.28	620.24
380.48	674.07
380.68	676.41
380.87	734.93
381.07	671.73
381.26	669.39
381.46	702.16
381.65	748.97
381.85	653.01
382.04	760.67
382.24	751.31
382.43	692.80
382.63	620.24
382.83	739.61
383.02	812.17
383.22	856.64
383.41	748.97
383.61	716.20
383.80	791.10
384.00	763.01
384.19	711.52
384.39	765.36
384.58	791.10
384.78	849.61
384.97	802.80
385.17	777.06
385.36	837.91
385.56	861.32
385.75	772.38
385.95	763.01
386.14	800.46
386.34	823.87
386.53	894.08
386.72	842.59
386.92	929.19
387.11	887.06
387.31	898.77
387.50	802.80
387.70	933.87
387.89	891.74
388.09	858.98
388.28	971.32
388.48	891.74
388.67	1015.79
388.86	950.26
389.06	924.51
389.25	1071.97
389.45	1011.11
389.64	933.87
389.84	1029.84
390.03	992.39
390.22	997.07
390.42	1069.62
390.61	1041.54
390.81	929.19
391.00	1149.20
391.19	1078.99
391.39	1043.88
391.58	1139.84
391.78	1034.52
391.97	1153.88
392.16	1071.97
392.36	1156.22
392.55	1144.52
392.75	1179.63
392.94	1057.92
393.13	1142.18
393.33	1177.29
393.52	1081.33
393.71	1170.27
393.91	1153.88
394.10	1186.65
394.29	1200.69
394.49	1174.95
394.68	1301.34
394.88	1261.55
395.07	1364.53
395.26	1289.64
395.46	1308.36
395.65	1371.55
395.84	1287.29
396.04	1329.42
396.23	1289.64
396.42	1336.45
396.62	1362.19
396.81	1364.53
397.00	1369.21
397.19	1479.22
397.39	1441.77
397.58	1493.26
397.77	1444.11
397.97	1469.86
398.16	1504.96
398.35	1570.50
398.55	1483.90
398.74	1488.58
398.93	1631.35
399.12	1507.30
399.32	1502.62
399.51	1568.16
399.70	1643.06
399.90	1596.25
400.09	1568.16
400.28	1682.85
400.47	1617.31
400.67	1755.40
400.86	1736.68
401.05	1713.27
401.24	1664.12
401.44	1832.64
401.63	1809.23
401.82	1849.02
402.01	1764.76
402.21	1781.15
402.40	1767.10
402.59	1809.23
402.78	1785.83
402.97	1778.81
403.17	1902.86
403.36	1813.92
403.55	1856.04
403.74	1923.92
403.93	2066.69
404.13	1916.90
404.32	1973.07
404.51	2115.84
404.70	1947.33
404.89	1921.58
405.09	2094.78
405.28	2024.56
405.47	2050.31
405.66	2317.13
405.85	2129.89
406.05	2040.95
406.24	2125.21
406.43	2134.57
406.62	2291.38
406.81	2307.77
407.00	2218.83
407.20	2129.89
407.39	2190.74
407.58	2373.30
407.77	2356.92
407.96	2284.36
408.15	2373.30
408.34	2366.28
408.54	2546.50
408.73	2473.95
408.92	2497.35
409.11	2487.99
409.30	2424.80
409.49	2520.76
409.68	2483.31
409.87	2553.52
410.07	2590.97
410.26	2661.19
410.45	2700.98
410.64	2729.06
410.83	2708.00
411.02	2560.55
411.21	2794.60
411.40	2745.45
411.59	2813.32
411.78	2799.28
411.98	2782.90
412.17	2916.31
412.36	2857.79
412.55	2942.05
412.74	2965.46
412.93	3080.14
413.12	2963.12
413.31	3063.76
413.50	3091.85
413.69	3115.25
413.88	3122.27
414.07	3180.79
414.26	3213.56
414.45	3276.75
414.64	3358.67
414.83	3346.97
415.02	3344.63
415.22	3496.76
415.41	3538.89
415.60	3517.83
415.79	3569.32
415.98	3590.38
416.17	3510.80
416.36	3527.19
416.55	3627.83
416.74	3679.32
416.93	3761.24
417.12	3669.96
417.31	3695.71
417.50	3700.39
417.69	3889.97
417.88	3990.61
418.07	3857.20
418.26	3948.48
418.45	4004.66
418.64	4189.56
418.83	3974.23
419.02	4056.15
419.21	3995.29
419.39	4203.60
419.58	4135.73
419.77	4147.43
419.96	4138.07
420.15	4355.74
420.34	4154.45
420.53	4238.71
420.72	4404.89
420.91	4381.48
421.10	4344.03
421.29	4409.57
421.48	4332.33
421.67	4325.31
421.86	4421.27
422.05	4484.47
422.24	4388.50
422.43	4587.45
422.61	4423.61
422.80	4482.13
422.99	4327.65
423.18	4524.26
423.37	4741.93
423.56	4587.45
423.75	4411.91
423.94	4454.04
424.13	4280.84
424.32	4353.40
424.50	4727.88
424.69	4683.41
424.88	4765.33
425.07	4699.80
425.26	4550.00
425.45	4524.26
425.64	4505.53
425.83	4667.03
426.01	4699.80
426.20	4657.67
426.39	4683.41
426.58	4594.47
426.77	4739.58
426.96	4774.69
427.15	4997.04
427.33	4795.76
427.52	4875.34
427.71	4760.65
427.90	4851.93
428.09	4931.51
428.28	5078.96
428.46	5081.30
428.65	4992.36
428.84	4957.25
429.03	5242.80
429.22	4910.44
429.40	5128.11
429.59	5144.50
429.78	4959.60
429.97	4873.00
430.16	5233.44
430.34	5284.93
430.53	5345.78
430.72	5268.55
430.91	5263.86
431.10	5228.76
431.28	5605.58
431.47	5446.43
431.66	5404.30
431.85	5479.19
432.03	5640.69
432.22	5607.92
432.41	5614.95
432.60	5671.12
432.79	5537.71
432.97	5724.95
433.16	5753.04
433.35	5535.37
433.54	5720.27
433.72	5734.31
433.91	5802.19
434.10	5827.93
434.28	5659.42
434.47	5666.44
434.66	5872.40
434.85	6033.90
435.03	5970.71
435.22	5769.42
435.41	6061.99
435.59	6031.56
435.78	5942.62
435.97	5954.32
436.16	5870.06
436.34	5989.43
436.53	6045.60
436.72	6347.53
436.90	6059.65
437.09	6188.38
437.28	6022.20
437.46	6272.64
437.65	6363.92
437.84	6289.02
438.02	6331.15
438.21	6422.43
438.40	6277.32
438.58	6590.95
438.77	6560.52
438.96	6612.01
439.14	6548.82
439.33	6691.59
439.52	6764.15
439.70	6820.32
439.89	6850.75
440.08	7005.22
440.26	6829.68
440.45	6853.09
440.63	6853.09
440.82	7140.97
441.01	7183.10
441.19	7159.70
441.38	7356.30
441.57	7323.54
441.75	7379.71
441.94	7424.18
442.12	7513.12
442.31	7590.36
442.50	7667.60
442.68	7304.81
442.87	7536.52
443.05	7585.68
443.24	7571.63
443.43	7485.03
443.61	7775.26
443.80	7875.90
443.98	7637.17
444.17	7508.44
444.35	7925.05
444.54	7852.50
444.73	7875.90
444.91	7913.35
445.10	7749.51
445.28	7847.82
445.47	7840.79
445.65	7740.15
445.84	7976.55
446.02	7777.60
446.21	7971.86
446.39	7658.23
446.58	8070.17
446.77	8046.76
446.95	7751.85
447.14	7932.08
447.32	7875.90
447.51	7955.48
447.69	7950.80
447.88	8021.02
448.06	8018.68
448.25	7866.54
448.43	7901.65
448.62	8037.40
448.80	8025.70
448.99	8056.12
449.17	8346.35
449.36	7939.10
449.54	8381.46
449.73	8287.84
449.91	8271.45
450.10	8582.74
450.28	8540.61
450.46	8458.70
450.65	8498.49
450.83	8489.12
451.02	8510.19
451.20	8554.66
451.39	8650.62
451.57	8531.25
451.76	8409.54
451.94	8697.43
452.13	8753.60
452.31	8713.81
452.49	8643.60
452.68	8683.39
452.86	8798.07
453.05	8606.15
453.23	8875.31
453.42	8826.16
453.60	8849.57
453.78	8908.08
453.97	8784.03
454.15	8938.51
454.34	8980.64
454.52	9069.58
454.70	8762.97
454.89	8978.30
455.07	9364.48
455.26	9418.32
455.44	9408.95
455.62	9261.50
455.81	9441.72
455.99	9432.36
456.17	9568.11
456.36	9373.85
456.54	9507.26
456.73	9607.90
456.91	9788.12
457.09	9830.25
457.28	10040.90
457.46	9797.48
457.64	9900.47
457.83	9769.40
458.01	9617.26
458.19	9720.24
458.38	9916.85
458.56	10125.16
458.74	9893.44
458.93	9991.75
459.11	10001.11
459.29	9994.09
459.48	10157.92
459.66	10188.35
459.84	10225.80
460.03	10686.89
460.21	10366.23
460.39	10328.78
460.57	10239.84
460.76	10389.64
460.94	10532.41
461.12	10487.94
461.31	10565.18
461.49	10539.43
461.67	10604.97
461.85	10836.68
462.04	10698.59
462.22	11293.08
462.40	10780.51
462.59	10979.45
462.77	10743.06
462.95	10939.66
463.13	11009.88
463.32	10848.38
463.50	11162.01
463.68	11082.44
463.86	10991.16
464.05	10918.60
464.23	11110.52
464.41	11154.99
464.59	10979.45
464.78	11255.64
464.96	11269.68
465.14	11225.21
465.32	11218.19
465.50	11564.59
465.69	11459.26
465.87	11302.45
466.05	11344.58
466.23	11325.85
466.41	11541.18
466.60	11632.46
466.78	11192.44
466.96	11480.33
467.14	11382.03
467.32	11545.86
467.51	11894.60
467.69	11445.22
467.87	11569.27
468.05	11840.77
468.23	11700.34
468.41	11625.44
468.60	11414.79
468.78	11978.86
468.96	11789.28
469.14	12023.33
469.32	12077.16
469.50	11880.56
469.69	12229.30
469.87	12217.60
470.05	12306.54
470.23	12432.93
470.41	12259.73
470.59	12159.08
470.77	12329.94
470.95	12627.19
471.14	12554.63
471.32	12325.26
471.50	12723.15
471.68	12730.17
471.86	12482.08
472.04	12837.84
472.22	12950.18
472.40	12711.45
472.58	13025.08
472.77	13170.19
472.95	13114.02
473.13	13682.77
473.31	13280.20
473.49	13212.32
473.67	13088.28
473.85	13219.35
474.03	13619.58
474.21	13343.39
474.39	13682.77
474.57	13846.61
474.75	13965.98
474.93	13942.57
475.12	14040.87
475.30	14281.95
475.48	14064.28
475.66	14295.99
475.84	14214.07
476.02	14347.48
476.20	14501.96
476.38	14822.61
476.56	14824.95
476.74	14890.49
476.92	14696.22
477.10	14693.88
477.28	15033.26
477.46	15274.34
477.64	15360.94
477.82	15356.25
478.00	15695.63
478.18	15943.73
478.36	15999.90
478.54	15936.71
478.72	15889.90
478.90	16170.76
479.08	16149.70
479.26	16538.23
479.44	16353.32
479.62	16828.45
479.80	16776.96
479.98	16933.78
480.16	17240.39
480.34	17071.87
480.52	17383.16
480.70	17394.86
480.88	17418.27
481.06	17654.66
481.24	17493.16
481.41	17848.93
481.59	18349.80
481.77	18097.02
481.95	18251.50
482.13	18422.36
482.31	18211.71
482.49	18867.06
482.67	18799.18
482.85	19140.90
483.03	19407.72
483.21	19461.55
483.39	19693.27
483.57	19449.85
483.74	19777.53
483.92	19805.61
484.10	19999.88
484.28	20376.70
484.46	20643.52
484.64	20844.81
484.82	20575.65
485.00	20910.35
485.18	21472.07
485.35	21516.54
485.53	21207.59
485.71	21717.83
485.89	21862.94
486.07	21617.19
486.25	21895.71
486.43	22438.72
486.61	22300.62
486.78	22700.86
486.96	22586.17
487.14	22920.87
487.32	22862.35
487.50	23126.83
487.68	23517.70
487.85	23700.26
488.03	23843.04
488.21	24133.26
488.39	24482.00
488.57	24493.71
488.75	24624.78
488.92	24751.17
489.10	24840.11
489.28	25160.76
489.46	25345.66
489.64	25125.65
489.81	25542.27
489.99	25790.36
490.17	26232.72
490.35	26185.91
490.53	26017.40
490.70	26899.78
490.88	26834.24
491.06	26937.23
491.24	27051.91
491.41	26965.31
491.59	27501.29
491.77	27274.26
491.95	28116.86
492.13	27964.72
492.30	28114.52
492.48	28297.08
492.66	28009.19
492.84	28205.80
493.01	28994.56
493.19	28624.75
493.37	28914.98
493.54	29514.16
493.72	29537.56
493.90	29235.63
494.08	29682.67
494.25	29673.31
494.43	30054.82
494.61	30092.27
494.79	30455.05
494.96	30284.19
495.14	30848.26
495.32	30878.69
495.49	30771.02
495.67	31037.84
495.85	31398.29
496.02	31552.76
496.20	31791.50
496.38	31838.31
496.55	31988.10
496.73	32357.91
496.91	32034.91
497.09	32746.44
497.26	32617.71
497.44	32627.07
497.62	32627.07
497.79	33251.99
497.97	33144.33
498.14	33666.27
498.32	33975.22
498.50	33752.87
498.67	34103.95
498.85	33750.52
499.03	34122.67
499.20	33865.21
499.38	34410.56
499.56	34513.54
499.73	34649.29
499.91	34806.11
500.08	34960.58
500.26	34738.23
500.44	35122.08
500.61	34967.60
500.79	34850.58
500.97	35688.49
501.14	36027.87
501.32	35901.48
501.49	35929.56
501.67	35831.26
501.84	36065.31
502.02	35913.18
502.20	36762.79
502.37	36671.51
502.55	36540.44
502.72	36556.83
502.90	36360.22
503.07	36514.70
503.25	36980.46
503.43	36622.36
503.60	37163.03
503.78	37479.00
503.95	37258.99
504.13	37769.22
504.30	37614.75
504.48	37574.96
504.65	38036.05
504.83	38197.54
505.01	38902.04
505.18	38307.55
505.36	38717.14
505.53	38433.94
505.71	38527.56
505.88	39110.35
506.06	38206.90
506.23	39014.39
506.41	38918.43
506.58	39299.94
506.76	39187.59
506.93	39742.30
507.11	39262.49
507.28	39260.15
507.46	39798.47
507.63	39945.92
507.81	40535.74
507.98	40233.81
508.16	39758.68
508.33	40107.42
508.50	39964.65
508.68	40250.19
508.85	40910.22
509.03	40627.02
509.20	40818.94
509.38	41172.36
509.55	41958.78
509.73	41088.10
509.90	41574.94
510.08	41195.77
510.25	41598.34
510.42	41649.83
510.60	41846.44
510.77	42127.30
510.95	42326.25
511.12	42033.68
511.30	41820.69
511.47	42209.22
511.64	42108.58
511.82	42693.71
511.99	42756.91
512.17	42864.57
512.34	42646.90
512.51	43084.58
512.69	42880.95
512.86	42843.51
513.04	43470.77
513.21	43398.21
513.38	43866.32
513.56	43681.42
513.73	43414.60
513.90	43871.00
514.08	43643.97
514.25	43693.12
514.43	43929.51
514.60	43943.56
514.77	44285.28
514.95	44708.91
515.12	44219.74
515.29	44357.83
515.47	44774.45
515.64	44444.43
515.81	44690.19
515.99	45242.56
516.16	45109.14
516.33	45343.20
516.51	45588.95
516.68	44973.39
516.85	45062.33
517.03	45446.18
517.20	45382.99
517.37	45762.15
517.54	45656.83
517.72	45846.41
517.89	46195.15
518.06	45942.38
518.24	46000.89
518.41	45949.40
518.58	45881.52
518.75	46223.24
518.93	46288.77
519.10	46443.25
519.27	46478.36
519.45	46309.84
519.62	46515.81
519.79	46611.77
519.96	46674.96
520.14	46932.42
520.31	46995.62
520.48	47133.71
520.65	47613.52
520.83	47330.31
521.00	47182.86
521.17	47098.60
521.34	47379.46
521.52	47922.47
521.69	47459.04
521.86	47412.23
522.03	48002.05
522.20	48076.94
522.38	47789.06
522.55	48053.54
522.72	47983.32
522.89	48090.99
523.07	48413.98
523.24	48573.14
523.41	48430.36
523.58	48137.80
523.75	48952.30
523.92	48549.73
524.10	48809.53
524.27	48523.99
524.44	49059.97
524.61	49240.19
524.78	49373.60
524.96	49251.89
525.13	48807.19
525.30	49272.96
525.47	49214.44
525.64	49270.62
525.81	49411.05
525.98	49883.84
526.16	49701.28
526.33	49757.45
526.50	49610.00
526.67	49338.49
526.84	49846.39
527.01	49822.98
527.18	49818.30
527.36	50057.04
527.53	50237.26
527.70	50309.82
527.87	50438.54
528.04	50227.90
528.21	50314.50
528.38	50288.75
528.55	50415.14
528.72	50078.10
528.89	50396.42
529.07	50452.59
529.24	50642.17
529.41	50586.00
529.58	50623.45
529.75	50380.03
529.92	50604.72
530.09	50436.20
530.26	50997.93
530.43	50784.94
530.60	50777.92
530.77	51194.54
530.94	51267.09
531.11	51047.08
531.28	50983.89
531.46	51051.76
531.63	51482.42
531.80	51374.76
531.97	51302.20
532.14	51519.87
532.31	51711.80
532.48	51449.66
532.65	51950.53
532.82	50972.19
532.99	51517.53
533.16	51611.15
533.33	52013.73
533.50	52147.14
533.67	51971.60
533.84	51964.57
534.01	51782.01
534.18	51735.20
534.35	51945.85
534.52	52083.94
534.69	52142.45
534.86	52474.81
535.03	52292.25
535.20	52472.47
535.37	52416.30
535.54	52226.71
535.71	52051.17
535.88	52086.28
536.05	52271.18
536.22	52734.61
536.38	52739.29
536.55	52680.78
536.72	52598.86
536.89	52266.50
537.06	52640.99
537.23	52678.44
537.40	52296.93
537.57	52596.52
537.74	52795.46
537.91	52743.97
538.08	53331.45
538.25	52900.79
538.42	53090.37
538.59	53006.11
538.75	52872.70
538.92	53162.93
539.09	53183.99
539.26	53375.92
539.43	53127.82
539.60	53216.76
539.77	53315.06
539.94	53394.64
540.11	53429.75
540.28	53474.22
540.44	53364.21
540.61	53254.21
540.78	53474.22
540.95	53427.41
541.12	53469.54
541.29	53492.94
541.46	53556.14
541.62	53464.86
541.79	53600.61
541.96	53364.21
542.13	53495.28
542.30	53361.87
542.47	54078.08
542.63	53998.50
542.80	54337.88
542.97	54122.55
543.14	54300.43
543.31	53935.30
543.48	54190.42
543.64	54394.05
543.81	54356.60
543.98	54485.33
544.15	54597.68
544.32	54398.73
544.48	54234.89
544.65	54232.55
544.82	54354.26
544.99	54148.29
545.16	54518.10
545.32	54410.43
545.49	54740.45
545.66	54866.84
545.83	54674.91
546.00	55070.46
546.16	54684.28
546.33	54515.76
546.50	54326.17
546.67	54712.36
546.83	54480.65
547.00	54637.47
547.17	54894.92
547.34	54740.45
547.50	54775.56
547.67	54864.50
547.84	55075.15
548.00	54796.62
548.17	55117.28
548.34	55025.99
548.51	55323.24
548.67	55112.59
548.84	55051.74
549.01	55114.94
549.18	55114.94
549.34	55306.86
549.51	55133.66
549.68	55194.51
549.84	54969.82
550.01	55302.18
550.18	55299.84
550.34	55334.95
550.51	55433.25
550.68	55363.03
550.84	55107.91
551.01	55416.86
551.18	55288.13
551.34	55220.26
551.51	55667.30
551.68	55482.40
551.84	55798.37
552.01	55505.80
552.18	55674.32
552.34	55779.65
552.51	55721.13
552.68	55503.46
552.84	55604.11
553.01	55796.03
553.18	55789.01
553.34	55978.59
553.51	55641.56
553.67	56142.43
553.84	55913.06
554.01	56102.64
554.17	55845.18
554.34	55730.50
554.51	55667.30
554.67	56090.94
554.84	56142.43
555.00	55875.61
555.17	55891.99
555.33	55920.08
555.50	56062.85
555.67	55931.78
555.83	56076.90
556.00	56095.62
556.16	56182.22
556.33	56142.43
556.50	56062.85
556.66	56381.16
556.83	56100.30
556.99	56442.02
557.16	56610.54
557.32	56343.72
557.49	56603.52
557.65	56196.26
557.82	56355.42
557.98	56357.76
558.15	56435.00
558.32	56535.64
558.48	56357.76
558.65	56605.86
558.81	56411.59
558.98	56324.99
559.14	56413.93
559.31	56566.07
559.47	56542.66
559.64	56406.91
559.80	56526.28
559.97	56610.54
560.13	56418.61
560.30	56484.15
560.46	56348.40
560.63	56584.79
560.79	56779.06
560.96	56729.90
561.12	56626.92
561.29	56786.08
561.45	56678.41
561.61	56783.74
561.78	56676.07
561.94	56666.71
562.11	56968.64
562.27	56762.67
562.44	56619.90
562.60	56676.07
562.77	56917.15
562.93	56603.52
563.10	57008.43
563.26	56788.42
563.42	56823.53
563.59	56830.55
563.75	56816.50
563.92	57043.54
564.08	56849.27
564.24	56821.19
564.41	56465.42
564.57	56638.62
564.74	56896.08
564.90	56781.40
565.07	56933.53
565.23	56989.70
565.39	56828.21
565.56	56912.47
565.72	56662.03
565.88	56872.68
566.05	56750.97
566.21	56868.00
566.38	57006.09
566.54	56823.53
566.70	57111.41
566.87	57102.05
567.03	56924.17
567.19	57083.33
567.36	56868.00
567.52	56954.60
567.68	56837.57
567.85	56886.72
568.01	56973.32
568.17	56779.06
568.34	57123.11
568.50	57193.33
568.66	57055.24
568.83	57340.78
568.99	57024.81
569.15	57080.98
569.32	57104.39
569.48	56912.47
569.64	57001.41
569.81	57052.90
569.97	57233.12
570.13	57085.67
570.30	57212.06
570.46	57219.08
570.62	56907.79
570.78	57066.94
570.95	56954.60
571.11	56907.79
571.27	56853.95
571.43	57165.24
571.60	57186.31
571.76	57083.33
571.92	57333.76
572.09	57059.92
572.25	57212.06
572.41	57263.55
572.57	57251.84
572.74	57350.15
572.90	57062.26
573.06	57190.99
573.22	56919.49
573.38	57127.80
573.55	57174.61
573.71	57464.83
573.87	57382.91
574.03	57186.31
574.20	57455.47
574.36	57001.41
574.52	57179.29
574.68	57301.00
574.84	57324.40
575.01	57118.43
575.17	57289.29
575.33	57434.41
575.49	56999.07
575.65	57499.94
575.82	57350.15
575.98	57340.78
576.14	57467.17
576.30	57221.42
576.46	57261.21
576.62	56987.36
576.79	57268.23
576.95	57078.64
577.11	57207.37
577.27	57228.44
577.43	57331.42
577.59	57293.97
577.75	57375.89
577.92	57371.21
578.08	57235.46
578.24	57338.44
578.40	57249.50
578.56	57186.31
578.72	57389.94
578.88	57425.04
579.04	57338.44
579.21	57319.72
579.37	57455.47
579.53	57345.47
579.69	57254.18
579.85	57137.16
580.01	57354.83
580.17	57052.90
580.33	57462.49
580.49	57062.26
580.65	57434.41
580.82	57317.38
580.98	57396.96
581.14	57226.10
581.30	57256.53
581.46	57394.62
581.62	57186.31
581.78	57235.46
581.94	57579.52
582.10	57420.36
582.26	57401.64
582.42	57326.74
582.58	57092.69
582.74	57352.49
582.90	57436.75
583.06	57396.96
583.22	57361.85
583.38	57357.17
583.54	57303.34
583.70	57235.46
583.86	57399.30
584.02	57277.59
584.18	57382.91
584.34	57453.13
584.50	57455.47
584.66	57443.77
584.82	57296.31
584.98	57422.70
585.14	57326.74
585.30	57375.89
585.46	57279.93
585.62	57312.70
585.78	57523.35
585.94	57240.14
586.10	57310.36
586.26	57485.90
586.42	57570.16
586.58	57652.08
586.74	57406.32
586.90	57268.23
587.06	57078.64
587.22	57399.30
587.38	57261.21
587.54	57352.49
587.70	57698.89
587.86	57588.88
588.02	57588.88
588.18	57652.08
588.34	57661.44
588.49	57593.56
588.65	57614.63
588.81	57621.65
588.97	57336.10
589.13	57631.01
589.29	57371.21
589.45	57448.45
