SpectraSuite Data File
++++++++++++++++++++++++++++++++++++
Date: Fri Oct 18 13:55:43 GMT-05:00 2013
User: bianchi
Dark Spectrum Present: No
Reference Spectrum Present: No
Number of Sampled Component Spectra: 1
Spectrometers: USB2+H05261
Integration Time (usec): 100000 (USB2+H05261)
Spectra Averaged: 1 (USB2+H05261)
Boxcar Smoothing: 0 (USB2+H05261)
Correct for Electrical Dark: No (USB2+H05261)
Strobe/Lamp Enabled: No (USB2+H05261)
Correct for Detector Non-linearity: No (USB2+H05261)
Correct for Stray Light: No (USB2+H05261)
Number of Pixels in Processed Spectrum: 2048
>>>>>Begin Processed Spectral Data<<<<<
365.73	0.00
365.92	0.00
366.12	0.00
366.32	0.00
366.52	0.00
366.72	0.00
366.91	0.00
367.11	0.00
367.31	0.00
367.51	0.00
367.70	0.00
367.90	0.00
368.10	0.00
368.30	0.00
368.49	0.00
368.69	0.00
368.89	0.00
369.09	0.00
369.28	0.00
369.48	0.00
369.68	0.00
369.87	0.00
370.07	0.00
370.27	0.00
370.47	11.70
370.66	196.60
370.86	236.39
371.06	257.46
371.25	383.85
371.45	388.53
371.65	374.49
371.84	311.29
372.04	311.29
372.24	325.33
372.44	365.12
372.63	414.27
372.83	425.98
373.03	397.89
373.22	402.57
373.42	346.40
373.62	400.23
373.81	442.36
374.01	503.22
374.21	440.02
374.40	411.93
374.60	486.83
374.79	442.36
374.99	470.45
375.19	456.40
375.38	477.47
375.58	451.72
375.78	444.70
375.97	561.73
376.17	479.81
376.37	472.79
376.56	540.66
376.76	521.94
376.95	479.81
377.15	472.79
377.35	498.53
377.54	552.37
377.74	489.17
377.93	528.96
378.13	580.45
378.33	603.86
378.52	538.32
378.72	543.00
378.91	613.22
379.11	571.09
379.31	489.17
379.50	566.41
379.70	580.45
379.89	552.37
380.09	517.26
380.28	531.30
380.48	596.84
380.68	578.11
380.87	540.66
381.07	559.39
381.26	599.18
381.46	573.43
381.65	575.77
381.85	561.73
382.04	664.71
382.24	720.88
382.43	695.14
382.63	634.29
382.83	645.99
383.02	648.33
383.22	725.57
383.41	683.44
383.61	667.05
383.80	671.73
384.00	720.88
384.19	713.86
384.39	674.07
384.58	734.93
384.78	692.80
384.97	713.86
385.17	758.33
385.36	702.16
385.56	734.93
385.75	744.29
385.95	709.18
386.14	739.61
386.34	784.08
386.53	809.83
386.72	772.38
386.92	788.76
387.11	793.44
387.31	840.25
387.50	844.93
387.70	744.29
387.89	795.78
388.09	791.10
388.28	847.27
388.48	819.19
388.67	849.61
388.86	870.68
389.06	809.83
389.25	947.92
389.45	866.00
389.64	887.06
389.84	936.21
390.03	957.28
390.22	891.74
390.42	1013.45
390.61	851.96
390.81	840.25
391.00	952.60
391.19	1011.11
391.39	910.47
391.58	1025.15
391.78	1029.84
391.97	1008.77
392.16	931.53
392.36	1053.24
392.55	1158.57
392.75	959.62
392.94	1118.78
393.13	1057.92
393.33	1011.11
393.52	1135.16
393.71	1100.05
393.91	1123.46
394.10	1100.05
394.29	1142.18
394.49	1191.33
394.68	1097.71
394.88	1238.14
395.07	1256.87
395.26	1200.69
395.46	1130.48
395.65	1210.06
395.84	1193.67
396.04	1277.93
396.23	1291.98
396.42	1270.91
396.62	1280.27
396.81	1249.85
397.00	1277.93
397.19	1282.61
397.39	1233.46
397.58	1275.59
397.77	1306.02
397.97	1275.59
398.16	1390.28
398.35	1359.85
398.55	1409.00
398.74	1446.45
398.93	1423.05
399.12	1425.39
399.32	1371.55
399.51	1423.05
399.70	1558.80
399.90	1397.30
400.09	1430.07
400.28	1490.92
400.47	1636.03
400.67	1610.29
400.86	1591.56
401.05	1493.26
401.24	1654.76
401.44	1661.78
401.63	1612.63
401.82	1591.56
402.01	1589.22
402.21	1528.37
402.40	1659.44
402.59	1661.78
402.78	1717.95
402.97	1675.82
403.17	1659.44
403.36	1820.94
403.55	1748.38
403.74	1863.07
403.93	1785.83
404.13	1839.66
404.32	1809.23
404.51	1746.04
404.70	1905.20
404.89	1933.28
405.09	1982.43
405.28	1926.26
405.47	1919.24
405.66	1968.39
405.85	1937.96
406.05	2062.01
406.24	1944.99
406.43	1895.83
406.62	2064.35
406.81	2120.53
407.00	2108.82
407.20	2008.18
407.39	2052.65
407.58	2256.28
407.77	2078.40
407.96	2200.10
408.15	2165.00
408.34	2190.74
408.54	2289.04
408.73	2172.02
408.92	2209.47
409.11	2359.26
409.30	2385.01
409.49	2356.92
409.68	2363.94
409.87	2279.68
410.07	2523.10
410.26	2340.54
410.45	2487.99
410.64	2382.67
410.83	2471.61
411.02	2523.10
411.21	2649.49
411.40	2623.74
411.59	2520.76
411.78	2607.36
411.98	2583.95
412.17	2810.98
412.36	2644.81
412.55	2775.88
412.74	2801.62
412.93	2857.79
413.12	2785.24
413.31	2857.79
413.50	2768.85
413.69	2899.92
413.88	3014.61
414.07	2862.48
414.26	3026.31
414.45	3042.70
414.64	3075.46
414.83	3033.33
415.02	3304.84
415.22	3166.74
415.41	3176.11
415.60	3243.98
415.79	3410.16
415.98	3356.33
416.17	3449.95
416.36	3335.26
416.55	3426.54
416.74	3545.91
416.93	3400.80
417.12	3531.87
417.31	3456.97
417.50	3534.21
417.69	3719.11
417.88	3768.26
418.07	3674.64
418.26	3616.13
418.45	3798.69
418.64	3763.58
418.83	3758.90
419.02	3817.41
419.21	3941.46
419.39	3808.05
419.58	3833.80
419.77	3953.16
419.96	3896.99
420.15	4028.06
420.34	3908.69
420.53	4049.13
420.72	3997.64
420.91	3885.29
421.10	4128.70
421.29	4196.58
421.48	4156.79
421.67	4191.90
421.86	4156.79
422.05	4315.95
422.24	4238.71
422.43	4154.45
422.61	4222.33
422.80	4304.25
422.99	4271.48
423.18	4271.48
423.37	4255.09
423.56	4383.82
423.75	4322.97
423.94	4189.56
424.13	4044.45
424.32	4161.47
424.50	4346.37
424.69	4503.19
424.88	4617.88
425.07	4334.67
425.26	4205.94
425.45	4374.46
425.64	4332.33
425.83	4276.16
426.01	4430.63
426.20	4451.70
426.39	4390.84
426.58	4395.53
426.77	4297.22
426.96	4505.53
427.15	4461.06
427.33	4571.07
427.52	4444.68
427.71	4571.07
427.90	4638.94
428.09	4678.73
428.28	4585.11
428.46	4662.35
428.65	4807.46
428.84	4830.87
429.03	4919.81
429.22	4704.48
429.40	4849.59
429.59	4802.78
429.78	4493.83
429.97	4741.93
430.16	4725.54
430.34	4929.17
430.53	4954.91
430.72	4980.66
430.91	5015.77
431.10	4971.30
431.28	5097.69
431.47	5212.37
431.66	5144.50
431.85	5048.54
432.03	5280.25
432.22	5252.16
432.41	5156.20
432.60	5266.21
432.79	5205.35
432.97	5149.18
433.16	5301.31
433.35	5275.57
433.54	5249.82
433.72	5345.78
433.91	5266.21
434.10	5390.25
434.28	5247.48
434.47	5376.21
434.66	5394.93
434.85	5479.19
435.03	5425.36
435.22	5476.85
435.41	5839.64
435.59	5636.01
435.78	5493.24
435.97	5640.69
436.16	5657.07
436.34	5755.38
436.53	5795.17
436.72	5841.98
436.90	5764.74
437.09	5933.26
437.28	5668.78
437.46	5769.42
437.65	5933.26
437.84	5975.39
438.02	5933.26
438.21	5954.32
438.40	5940.28
438.58	6202.42
438.77	6122.84
438.96	6080.71
439.14	6282.00
439.33	6279.66
439.52	6310.08
439.70	6392.00
439.89	6361.58
440.08	6565.20
440.26	6410.73
440.45	6682.23
440.63	6541.80
440.82	6628.40
441.01	6761.81
441.19	6736.06
441.38	6855.43
441.57	6888.20
441.75	6979.48
441.94	6855.43
442.12	7068.42
442.31	7082.46
442.50	7173.74
442.68	6951.39
442.87	7138.63
443.05	7091.82
443.24	7185.44
443.43	7349.28
443.61	7400.77
443.80	7452.27
443.98	7208.85
444.17	6918.62
444.35	7208.85
444.54	7405.46
444.73	7342.26
444.91	7407.80
445.10	7438.22
445.28	7258.00
445.47	7370.35
445.65	7421.84
445.84	7499.08
446.02	7414.82
446.21	7396.09
446.39	7440.56
446.58	7595.04
446.77	7531.84
446.95	7321.20
447.14	7236.94
447.32	7538.87
447.51	7576.31
447.69	7550.57
447.88	7541.21
448.06	7433.54
448.25	7482.69
448.43	7588.02
448.62	7538.87
448.80	7520.14
448.99	7581.00
449.17	7669.94
449.36	7503.76
449.54	7843.14
449.73	7674.62
449.91	7845.48
450.10	7967.18
450.28	7936.76
450.46	7901.65
450.65	7992.93
450.83	7899.31
451.02	8006.97
451.20	8126.34
451.39	8058.46
451.57	7976.55
451.76	7999.95
451.94	8107.62
452.13	8131.02
452.31	8159.11
452.49	7896.97
452.68	8126.34
452.86	8044.42
453.05	8304.22
453.23	8198.90
453.42	8163.79
453.60	8271.45
453.78	8374.44
453.97	8231.66
454.15	8372.10
454.34	8215.28
454.52	8531.25
454.70	8683.39
454.89	8554.66
455.07	8690.41
455.26	8655.30
455.44	8826.16
455.62	8788.71
455.81	8767.65
455.99	8697.43
456.17	8781.69
456.36	9050.85
456.54	9029.79
456.73	8994.68
456.91	8924.46
457.09	9210.01
457.28	9214.69
457.46	9378.53
457.64	9282.56
457.83	9104.68
458.01	9053.19
458.19	9392.57
458.38	9221.71
458.56	9619.60
458.74	9322.35
458.93	9432.36
459.11	9490.87
459.29	9397.25
459.48	9418.32
459.66	9423.00
459.84	9689.82
460.03	9813.87
460.21	9818.55
460.39	9790.46
460.57	9668.75
460.76	9762.37
460.94	9895.78
461.12	9867.70
461.31	9734.29
461.49	9989.41
461.67	9961.32
461.85	10129.84
462.04	10047.92
462.22	10003.45
462.40	10125.16
462.59	9970.68
462.77	10073.67
462.95	10129.84
463.13	10078.35
463.32	10300.70
463.50	10281.97
463.68	10221.12
463.86	10197.71
464.05	10047.92
464.23	10326.44
464.41	10476.24
464.59	10223.46
464.78	10698.59
464.96	10363.89
465.14	10504.32
465.32	10696.25
465.50	10705.61
465.69	10663.48
465.87	10483.26
466.05	10682.20
466.23	10483.26
466.41	10668.16
466.60	11035.63
466.78	10574.54
466.96	10787.53
467.14	10743.06
467.32	11014.56
467.51	10951.37
467.69	10607.31
467.87	10930.30
468.05	11218.19
468.23	10726.68
468.41	10672.84
468.60	10906.90
468.78	10857.75
468.96	10902.22
469.14	11248.61
469.32	11459.26
469.50	10869.45
469.69	11208.83
469.87	11309.47
470.05	11665.23
470.23	11630.12
470.41	11424.15
470.59	11709.70
470.77	11466.28
470.95	11744.81
471.14	11859.49
471.32	11721.40
471.50	11850.13
471.68	11744.81
471.86	11950.78
472.04	11948.43
472.22	12486.76
472.40	12020.99
472.58	12135.68
472.77	12292.49
472.95	12538.25
473.13	12758.26
473.31	12355.69
473.49	12318.24
473.67	12554.63
473.85	12641.23
474.03	12723.15
474.21	12746.56
474.39	12886.99
474.57	12791.03
474.75	12840.18
474.93	12919.76
475.12	13071.89
475.30	12950.18
475.48	13114.02
475.66	13343.39
475.84	13516.59
476.02	13554.04
476.20	13544.68
476.38	13767.03
476.56	13741.29
476.74	13797.46
476.92	13916.83
477.10	14029.17
477.28	14078.32
477.46	14090.02
477.64	14162.58
477.82	14263.22
478.00	14672.82
478.18	14813.25
478.36	15049.64
478.54	14934.96
478.72	14937.30
478.90	15351.57
479.08	15421.79
479.26	15281.36
479.44	15772.87
479.62	15604.35
479.80	15590.31
479.98	15815.00
480.16	16264.38
480.34	15915.64
480.52	16161.40
480.70	16149.70
480.88	16177.78
481.06	16718.45
481.24	16350.98
481.41	16617.80
481.59	17202.94
481.77	16931.44
481.95	16896.33
482.13	17142.08
482.31	17137.40
482.49	17310.60
482.67	17418.27
482.85	17912.12
483.03	17724.88
483.21	18443.42
483.39	18422.36
483.57	18148.51
483.74	18305.33
483.92	18581.51
484.10	18321.71
484.28	18913.87
484.46	19618.37
484.64	19311.76
484.82	19126.86
485.00	19288.35
485.18	19894.55
485.35	20161.37
485.53	19985.83
485.71	19964.77
485.89	20233.93
486.07	20379.04
486.25	20657.57
486.43	20748.85
486.61	20629.48
486.78	21139.72
486.96	21509.52
487.14	21287.17
487.32	21682.72
487.50	21614.85
487.68	21769.32
487.85	21846.56
488.03	22375.52
488.21	22560.42
488.39	22391.91
488.57	22609.58
488.75	22747.67
488.92	23328.12
489.10	23300.03
489.28	23360.89
489.46	23445.15
489.64	23314.08
489.81	24098.16
489.99	24058.37
490.17	24276.04
490.35	24414.13
490.53	24332.21
490.70	24931.39
490.88	24718.40
491.06	25003.94
491.24	24940.75
491.41	25198.21
491.59	25343.32
491.77	25532.90
491.95	25504.82
492.13	26038.46
492.30	26087.61
492.48	26265.49
492.66	26178.89
492.84	26473.80
493.01	26724.24
493.19	26700.83
493.37	26799.13
493.54	26714.87
493.72	27321.07
493.90	27421.72
494.08	27653.43
494.25	27758.75
494.43	27948.34
494.61	28196.43
494.79	28301.76
494.96	28481.98
495.14	28407.08
495.32	28622.41
495.49	28507.72
495.67	29001.58
495.85	29380.74
496.02	29507.13
496.20	29310.53
496.38	29500.11
496.55	29790.34
496.73	30221.00
496.91	29881.62
497.09	30347.39
497.26	30366.11
497.44	30541.65
497.62	30422.28
497.79	31119.76
497.97	30937.20
498.14	30925.50
498.32	31054.23
498.50	31440.42
498.67	31768.09
498.85	31452.12
499.03	31901.50
499.20	31744.69
499.38	32187.05
499.56	32439.82
499.73	32252.58
499.91	32425.78
500.08	32657.49
500.26	32266.63
500.44	32357.91
500.61	32896.23
500.79	32961.76
500.97	33434.55
501.14	33589.03
501.32	33549.24
501.49	33144.33
501.67	33212.20
501.84	33823.08
502.02	33682.65
502.20	33963.51
502.37	34373.11
502.55	34160.12
502.72	33991.60
502.90	33778.61
503.07	34038.41
503.25	34597.80
503.43	34408.22
503.60	34953.56
503.78	35264.85
503.95	34859.94
504.13	34778.02
504.30	35129.10
504.48	35351.45
504.65	35274.21
504.83	35129.10
505.01	35768.07
505.18	35796.15
505.36	35892.12
505.53	35585.50
505.71	35920.20
505.88	36559.17
506.06	35702.53
506.23	36226.81
506.41	36184.68
506.58	36261.92
506.76	36521.72
506.93	36683.22
507.11	36404.69
507.28	36664.49
507.46	36844.71
507.63	37186.43
507.81	37446.23
507.98	37029.62
508.16	37509.43
508.33	37890.93
508.50	37331.54
508.68	37921.36
508.85	38148.39
509.03	37778.59
509.20	38061.79
509.38	38532.24
509.55	38506.49
509.73	38136.69
509.90	38586.07
510.08	38440.96
510.25	38515.86
510.42	38529.90
510.60	39524.63
510.77	39445.05
510.95	39056.52
511.12	39072.90
511.30	39157.16
511.47	39260.15
511.64	39466.11
511.82	39342.06
511.99	39412.28
512.17	40194.02
512.34	39845.28
512.51	39814.85
512.69	40233.81
512.86	40161.25
513.04	40816.60
513.21	40545.10
513.38	40858.73
513.56	40917.25
513.73	40615.32
513.90	40425.73
514.08	40673.83
514.25	40950.01
514.43	40835.33
514.60	41205.13
514.77	41202.79
514.95	41443.87
515.12	41493.02
515.29	41251.94
515.47	41413.44
515.64	41794.95
515.81	41916.65
515.99	42176.45
516.16	42183.48
516.33	42476.04
516.51	42108.58
516.68	42094.53
516.85	42082.83
517.03	42836.48
517.20	42740.52
517.37	42796.70
517.54	42939.47
517.72	42953.51
517.89	42752.23
518.06	42824.78
518.24	42705.41
518.41	42780.31
518.58	42885.64
518.75	42621.16
518.93	43632.27
519.10	43075.22
519.27	43791.42
519.45	43475.45
519.62	43077.56
519.79	43922.49
519.96	43477.79
520.14	44196.34
520.31	43559.71
520.48	44158.89
520.65	44072.29
520.83	44414.01
521.00	43683.76
521.17	44114.42
521.34	44678.49
521.52	44512.31
521.69	44781.47
521.86	44898.50
522.03	45120.85
522.20	45116.17
522.38	45074.04
522.55	45132.55
522.72	45095.10
522.89	45584.27
523.07	45535.12
523.24	45474.27
523.41	45394.69
523.58	45249.58
523.75	45364.26
523.92	45422.78
524.10	45738.75
524.27	46047.70
524.44	46452.61
524.61	46281.75
524.78	46286.43
524.96	45942.38
525.13	46146.00
525.30	46492.40
525.47	46574.32
525.64	46167.07
525.81	46887.95
525.98	46974.55
526.16	46829.44
526.33	46358.99
526.50	46827.10
526.67	46782.63
526.84	46724.11
527.01	46855.18
527.18	47334.99
527.36	47421.59
527.53	46969.87
527.70	47473.09
527.87	47402.87
528.04	47847.57
528.21	47421.59
528.38	47077.54
528.55	47283.50
528.72	47590.11
528.89	47702.46
529.07	47515.22
529.24	47356.06
529.41	47693.10
529.58	47772.67
529.75	47625.22
529.92	48322.70
530.09	47721.18
530.26	48156.52
530.43	48168.22
530.60	47859.27
530.77	48296.95
530.94	48498.24
531.11	48027.79
531.28	48378.87
531.46	48280.57
531.63	48540.37
531.80	48638.67
531.97	48453.77
532.14	48935.92
532.31	48828.26
532.48	48961.67
532.65	49036.56
532.82	49003.80
532.99	48772.08
533.16	48999.12
533.33	49034.22
533.50	49549.14
533.67	49165.29
533.84	49008.48
534.01	49064.65
534.18	49111.46
534.35	49322.11
534.52	49488.29
534.69	49481.27
534.86	49619.36
535.03	49446.16
535.20	49642.76
535.37	49315.09
535.54	49734.04
535.71	49612.34
535.88	49387.64
536.05	49312.75
536.22	49977.46
536.38	50080.44
536.55	50188.11
536.72	50305.13
536.89	50153.00
537.06	49572.55
537.23	49738.72
537.40	50042.99
537.57	50253.64
537.74	50213.85
537.91	50468.97
538.08	50553.23
538.25	50178.75
538.42	50415.14
538.59	50440.89
538.75	49982.14
538.92	50466.63
539.09	50267.69
539.26	50693.66
539.43	50803.67
539.60	50632.81
539.77	50681.96
539.94	50916.01
540.11	50653.87
540.28	50883.25
540.44	51093.89
540.61	50747.50
540.78	50691.32
540.95	51009.64
541.12	50883.25
541.29	51009.64
541.46	50843.46
541.62	51054.11
541.79	50925.38
541.96	50693.66
542.13	50901.97
542.30	51452.00
542.47	51433.27
542.63	51323.27
542.80	51517.53
542.97	51650.94
543.14	51875.63
543.31	51611.15
543.48	51664.99
543.64	51880.31
543.81	52062.88
543.98	52240.76
544.15	52095.64
544.32	52442.04
544.48	52133.09
544.65	51997.34
544.82	51849.89
544.99	51606.47
545.16	52065.22
545.32	52032.45
545.49	52624.60
545.66	52596.52
545.83	52413.96
546.00	52437.36
546.16	52299.27
546.33	51927.13
546.50	51803.08
546.67	52177.56
546.83	52163.52
547.00	52432.68
547.17	52280.55
547.34	52416.30
547.50	52484.17
547.67	52786.10
547.84	52528.64
548.00	52816.53
548.17	52486.51
548.34	52404.59
548.51	52619.92
548.67	53109.10
548.84	52530.98
549.01	52788.44
549.18	52687.80
549.34	53055.26
549.51	52739.29
549.68	52870.36
549.84	52697.16
550.01	53183.99
550.18	52868.02
550.34	53022.50
550.51	53062.29
550.68	52975.69
550.84	52884.40
551.01	53179.31
551.18	52886.74
551.34	52772.06
551.51	52992.07
551.68	53408.68
551.84	53120.80
552.01	52945.26
552.18	53411.02
552.34	53249.53
552.51	53118.46
552.68	53277.61
552.84	53233.14
553.01	53670.82
553.18	53193.36
553.34	53560.82
553.51	53563.16
553.67	53687.21
553.84	53698.91
554.01	53593.59
554.17	53441.45
554.34	53862.75
554.51	53537.41
554.67	53595.93
554.84	53528.05
555.00	53691.89
555.17	53624.01
555.33	53799.55
555.50	53708.27
555.67	53738.70
555.83	53731.68
556.00	53869.77
556.16	53825.30
556.33	53626.35
556.50	53773.81
556.66	53874.45
556.83	53703.59
556.99	54061.69
557.16	54059.35
557.32	54162.34
557.49	54131.91
557.65	53708.27
557.82	54047.65
557.98	53958.71
558.15	54120.21
558.32	54099.14
558.48	54129.57
558.65	54178.72
558.81	54375.33
558.98	53984.46
559.14	53982.12
559.31	54131.91
559.47	53883.81
559.64	53944.67
559.80	54461.93
559.97	54288.73
560.13	54152.97
560.30	54188.08
560.46	54241.92
560.63	54300.43
560.79	54258.30
560.96	54162.34
561.12	54377.67
561.29	54178.72
561.45	54391.71
561.61	54279.36
561.78	54724.07
561.94	54429.16
562.11	54492.35
562.27	54387.03
562.44	54405.75
562.60	54120.21
562.77	54321.49
562.93	54230.21
563.10	54515.76
563.26	54054.67
563.42	54635.13
563.59	54857.48
563.75	54583.63
563.92	54515.76
564.08	54457.24
564.24	54391.71
564.41	54335.54
564.57	54424.48
564.74	54356.60
564.90	54447.88
565.07	54567.25
565.23	54534.48
565.39	54630.44
565.56	54726.41
565.72	54506.40
565.88	54611.72
566.05	54351.92
566.21	54255.96
566.38	54403.41
566.54	54747.47
566.70	54899.61
566.87	55000.25
567.03	54438.52
567.19	54747.47
567.36	54712.36
567.52	54365.96
567.68	54955.78
567.85	54693.64
568.01	54712.36
568.17	54759.17
568.34	54801.30
568.50	54686.62
568.66	54534.48
568.83	55065.78
568.99	54602.36
569.15	54705.34
569.32	54548.53
569.48	54571.93
569.64	54923.01
569.81	54880.88
569.97	54733.43
570.13	54703.00
570.30	54593.00
570.46	55023.65
570.62	54906.63
570.78	54468.95
570.95	54621.08
571.11	54768.54
571.27	54440.86
571.43	54581.29
571.60	54841.09
571.76	54632.78
571.92	54918.33
572.09	54946.42
572.25	54848.11
572.41	55044.72
572.57	54918.33
572.74	55000.25
572.90	54880.88
573.06	55009.61
573.22	54672.57
573.38	54979.18
573.55	55016.63
573.71	55126.64
573.87	55309.20
574.03	54960.46
574.20	55061.10
574.36	54965.14
574.52	54560.23
574.68	54822.37
574.84	55086.85
575.01	55023.65
575.17	55295.16
575.33	54983.86
575.49	55124.30
575.65	55150.04
575.82	55243.66
575.98	54913.65
576.14	55061.10
576.30	54918.33
576.46	54897.27
576.62	54843.43
576.79	54887.90
576.95	54965.14
577.11	55093.87
577.27	54894.92
577.43	54831.73
577.59	55161.75
577.75	55009.61
577.92	54761.51
578.08	54752.15
578.24	54747.47
578.40	54831.73
578.56	55037.70
578.72	54908.97
578.88	55182.81
579.04	55049.40
579.21	55084.51
579.37	54901.95
579.53	55248.35
579.69	54817.69
579.85	54911.31
580.01	54859.82
580.17	54695.98
580.33	54951.10
580.49	55014.29
580.65	55054.08
580.82	54988.55
580.98	55014.29
581.14	55014.29
581.30	55150.04
581.46	54808.32
581.62	54630.44
581.78	54798.96
581.94	54873.86
582.10	54983.86
582.26	55110.25
582.42	55164.09
582.58	55124.30
582.74	55131.32
582.90	54958.12
583.06	55215.58
583.22	54925.35
583.38	54937.05
583.54	54972.16
583.70	54845.77
583.86	55166.43
584.02	54920.67
584.18	55217.92
584.34	55061.10
584.50	55393.46
584.66	54937.05
584.82	54756.83
584.98	55260.05
585.14	55023.65
585.30	54813.01
585.46	55334.95
585.62	55100.89
585.78	55037.70
585.94	55070.46
586.10	55098.55
586.26	54972.16
586.42	55004.93
586.58	55210.90
586.74	54941.74
586.90	54789.60
587.06	54836.41
587.22	54981.52
587.38	54927.69
587.54	55147.70
587.70	55353.67
587.86	54997.91
588.02	55009.61
588.18	55231.96
588.34	55098.55
588.49	55292.82
588.65	55016.63
588.81	55037.70
588.97	55215.58
589.13	54890.24
589.29	55140.68
589.45	55302.18
589.61	55339.63
589.77	55444.95
