SpectraSuite Data File
++++++++++++++++++++++++++++++++++++
Date: Fri Oct 18 13:54:19 GMT-05:00 2013
User: bianchi
Dark Spectrum Present: No
Reference Spectrum Present: No
Number of Sampled Component Spectra: 1
Spectrometers: USB2+H05261
Integration Time (usec): 100000 (USB2+H05261)
Spectra Averaged: 1 (USB2+H05261)
Boxcar Smoothing: 0 (USB2+H05261)
Correct for Electrical Dark: No (USB2+H05261)
Strobe/Lamp Enabled: No (USB2+H05261)
Correct for Detector Non-linearity: No (USB2+H05261)
Correct for Stray Light: No (USB2+H05261)
Number of Pixels in Processed Spectrum: 2048
>>>>>Begin Processed Spectral Data<<<<<
365.73	0.00
365.92	0.00
366.12	0.00
366.32	0.00
366.52	0.00
366.72	0.00
366.91	0.00
367.11	0.00
367.31	0.00
367.51	0.00
367.70	0.00
367.90	0.00
368.10	0.00
368.30	0.00
368.49	0.00
368.69	0.00
368.89	0.00
369.09	0.00
369.28	0.00
369.48	0.00
369.68	0.00
369.87	0.00
370.07	0.00
370.27	0.00
370.47	0.00
370.66	271.50
370.86	320.65
371.06	395.55
371.25	341.72
371.45	318.31
371.65	292.57
371.84	369.80
372.04	355.76
372.24	402.57
372.44	358.10
372.63	348.74
372.83	528.96
373.03	465.77
373.22	463.43
373.42	409.59
373.62	475.13
373.81	461.09
374.01	486.83
374.21	484.49
374.40	486.83
374.60	533.64
374.79	561.73
374.99	463.43
375.19	402.57
375.38	634.29
375.58	489.17
375.78	463.43
375.97	573.43
376.17	608.54
376.37	507.90
376.56	552.37
376.76	543.00
376.95	475.13
377.15	573.43
377.35	454.06
377.54	517.26
377.74	554.71
377.93	550.03
378.13	613.22
378.33	587.47
378.52	603.86
378.72	615.56
378.91	620.24
379.11	561.73
379.31	589.82
379.50	629.60
379.70	599.18
379.89	657.69
380.09	543.00
380.28	603.86
380.48	671.73
380.68	638.97
380.87	613.22
381.07	688.12
381.26	755.99
381.46	571.09
381.65	648.33
381.85	767.70
382.04	638.97
382.24	706.84
382.43	688.12
382.63	730.25
382.83	706.84
383.02	662.37
383.22	746.63
383.41	692.80
383.61	739.61
383.80	788.76
384.00	840.25
384.19	751.31
384.39	798.12
384.58	791.10
384.78	704.50
384.97	746.63
385.17	704.50
385.36	786.42
385.56	777.06
385.75	851.96
385.95	807.48
386.14	873.02
386.34	753.65
386.53	809.83
386.72	819.19
386.92	889.40
387.11	905.79
387.31	866.00
387.50	905.79
387.70	861.32
387.89	894.08
388.09	908.13
388.28	873.02
388.48	866.00
388.67	1032.18
388.86	933.87
389.06	971.32
389.25	873.02
389.45	957.28
389.64	1043.88
389.84	1046.22
390.03	1001.75
390.22	952.60
390.42	992.39
390.61	940.90
390.81	917.49
391.00	1006.43
391.19	1020.47
391.39	999.41
391.58	1067.28
391.78	1144.52
391.97	978.34
392.16	1076.65
392.36	1088.35
392.55	1064.94
392.75	1067.28
392.94	1097.71
393.13	1118.78
393.33	1132.82
393.52	1170.27
393.71	1233.46
393.91	1217.08
394.10	1137.50
394.29	1107.07
394.49	1214.74
394.68	1240.48
394.88	1188.99
395.07	1249.85
395.26	1207.72
395.46	1280.27
395.65	1263.89
395.84	1263.89
396.04	1423.05
396.23	1406.66
396.42	1270.91
396.62	1207.72
396.81	1371.55
397.00	1348.15
397.19	1416.02
397.39	1303.68
397.58	1387.94
397.77	1329.42
397.97	1467.52
398.16	1383.26
398.35	1413.68
398.55	1432.41
398.74	1488.58
398.93	1469.86
399.12	1476.88
399.32	1455.81
399.51	1530.71
399.70	1556.46
399.90	1551.78
400.09	1631.35
400.28	1636.03
400.47	1600.93
400.67	1645.40
400.86	1729.66
401.05	1593.90
401.24	1694.55
401.44	1774.13
401.63	1849.02
401.82	1687.53
402.01	1729.66
402.21	1589.22
402.40	1806.89
402.59	1797.53
402.78	1729.66
402.97	1659.44
403.17	1944.99
403.36	1748.38
403.55	1853.70
403.74	1867.75
403.93	1942.64
404.13	1956.69
404.32	1914.56
404.51	1909.88
404.70	1982.43
404.89	1846.68
405.09	1898.17
405.28	1921.58
405.47	1984.77
405.66	2019.88
405.85	2024.56
406.05	1998.82
406.24	2172.02
406.43	2125.21
406.62	2179.04
406.81	2239.89
407.00	2113.50
407.20	2207.13
407.39	2115.84
407.58	2204.78
407.77	2298.41
407.96	2270.32
408.15	2354.58
408.34	2373.30
408.54	2520.76
408.73	2377.98
408.92	2464.58
409.11	2516.08
409.30	2457.56
409.49	2478.63
409.68	2518.42
409.87	2464.58
410.07	2509.05
410.26	2605.02
410.45	2665.87
410.64	2637.78
410.83	2696.30
411.02	2647.15
411.21	2698.64
411.40	2717.36
411.59	2780.56
411.78	2874.18
411.98	2775.88
412.17	2827.37
412.36	2860.13
412.55	2855.45
412.74	2939.71
412.93	3038.02
413.12	2909.29
413.31	3119.93
413.50	3047.38
413.69	3112.91
413.88	3241.64
414.07	3112.91
414.26	3192.49
414.45	3194.83
414.64	3206.53
414.83	3286.11
415.02	3316.54
415.22	3358.67
415.41	3531.87
415.60	3431.23
415.79	3632.51
415.98	3548.25
416.17	3463.99
416.36	3609.11
416.55	3515.48
416.74	3749.54
416.93	3588.04
417.12	3590.38
417.31	3639.53
417.50	3784.65
417.69	3798.69
417.88	3861.88
418.07	3679.32
418.26	3733.15
418.45	3887.63
418.64	4086.58
418.83	4058.49
419.02	3889.97
419.21	4021.04
419.39	4014.02
419.58	3960.19
419.77	4124.02
419.96	3957.85
420.15	4194.24
420.34	4058.49
420.53	4205.94
420.72	4299.56
420.91	4250.41
421.10	4315.95
421.29	4355.74
421.48	4313.61
421.67	4411.91
421.86	4418.93
422.05	4449.36
422.24	4383.82
422.43	4418.93
422.61	4435.32
422.80	4517.23
422.99	4603.83
423.18	4629.58
423.37	4592.13
423.56	4606.17
423.75	4320.63
423.94	4376.80
424.13	4227.01
424.32	4255.09
424.50	4442.34
424.69	4571.07
424.88	4692.77
425.07	4409.57
425.26	4517.23
425.45	4491.49
425.64	4524.26
425.83	4456.38
426.01	4772.35
426.20	4723.20
426.39	4709.16
426.58	4557.02
426.77	4557.02
426.96	4730.22
427.15	4519.57
427.33	4737.24
427.52	4521.92
427.71	4732.56
427.90	4753.63
428.09	4964.28
428.28	4737.24
428.46	4837.89
428.65	4889.38
428.84	5100.03
429.03	5018.11
429.22	5011.09
429.40	5071.94
429.59	4912.78
429.78	4816.82
429.97	4847.25
430.16	4910.44
430.34	5032.15
430.53	5177.26
430.72	5165.56
430.91	4994.70
431.10	5298.97
431.28	5224.08
431.47	5221.74
431.66	5406.64
431.85	5460.47
432.03	5404.30
432.22	5586.86
432.41	5214.71
432.60	5448.77
432.79	5579.84
432.97	5493.24
433.16	5600.90
433.35	5451.11
433.54	5631.33
433.72	5605.58
433.91	5518.98
434.10	5731.97
434.28	5689.84
434.47	5771.76
434.66	5727.29
434.85	5762.40
435.03	5865.38
435.22	5802.19
435.41	6019.86
435.59	5991.77
435.78	5841.98
435.97	5914.53
436.16	5975.39
436.34	5944.96
436.53	6024.54
436.72	6090.07
436.90	5858.36
437.09	6139.23
437.28	6160.29
437.46	5944.96
437.65	6176.67
437.84	6328.81
438.02	6424.77
438.21	6108.80
438.40	6120.50
438.58	6429.45
438.77	6270.30
438.96	6403.71
439.14	6485.62
439.33	6457.54
439.52	6677.55
439.70	6651.80
439.89	6740.74
440.08	6906.92
440.26	6977.14
440.45	6684.57
440.63	6972.46
440.82	6927.99
441.01	6808.62
441.19	7143.32
441.38	7335.24
441.57	7194.81
441.75	7204.17
441.94	7396.09
442.12	7332.90
442.31	7611.42
442.50	7419.50
442.68	7410.14
442.87	7449.93
443.05	7447.58
443.24	7456.95
443.43	7442.90
443.61	7499.08
443.80	7810.37
443.98	7679.30
444.17	7314.17
444.35	7658.23
444.54	7683.98
444.73	7604.40
444.91	7702.70
445.10	7588.02
445.28	7723.77
445.47	7714.41
445.65	7637.17
445.84	7819.73
446.02	7749.51
446.21	7810.37
446.39	7749.51
446.58	7866.54
446.77	7941.44
446.95	7571.63
447.14	7733.13
447.32	7939.10
447.51	7786.96
447.69	7889.95
447.88	7929.74
448.06	7719.09
448.25	7796.32
448.43	8011.65
448.62	7927.39
448.80	8081.87
448.99	7817.39
449.17	8070.17
449.36	8002.29
449.54	8119.32
449.73	8353.37
449.91	8264.43
450.10	8283.16
450.28	8439.97
450.46	8318.26
450.65	8259.75
450.83	8461.04
451.02	8322.94
451.20	8500.83
451.39	8573.38
451.57	8332.31
451.76	8411.89
451.94	8641.26
452.13	8741.90
452.31	8470.40
452.49	8557.00
452.68	8587.43
452.86	8524.23
453.05	8723.18
453.23	8849.57
453.42	8697.43
453.60	8636.58
453.78	8898.72
453.97	8561.68
454.15	8814.46
454.34	8882.33
454.52	8938.51
454.70	9036.81
454.89	9032.13
455.07	8950.21
455.26	8901.06
455.44	9263.84
455.62	9092.98
455.81	9048.51
455.99	9188.94
456.17	9123.41
456.36	9331.72
456.54	9589.17
456.73	9432.36
456.91	9638.33
457.09	9703.86
457.28	9659.39
457.46	9603.22
457.64	9757.69
457.83	9682.80
458.01	9577.47
458.19	10047.92
458.38	9827.91
458.56	9729.61
458.74	9905.15
458.93	9975.36
459.11	10036.22
459.29	9928.55
459.48	10139.20
459.66	9912.17
459.84	10061.96
460.03	10387.30
460.21	10001.11
460.39	10270.27
460.57	9928.55
460.76	10239.84
460.94	10197.71
461.12	10321.76
461.31	10274.95
461.49	10420.06
461.67	10382.62
461.85	10675.18
462.04	10228.14
462.22	11190.10
462.40	10654.12
462.59	10518.37
462.77	10630.71
462.95	10670.50
463.13	10766.46
463.32	10934.98
463.50	10551.14
463.68	10757.10
463.86	10981.79
464.05	10693.91
464.23	10546.45
464.41	10911.58
464.59	10647.10
464.78	11061.37
464.96	11080.10
465.14	10874.13
465.32	11066.05
465.50	10967.75
465.69	11094.14
465.87	11332.87
466.05	11089.46
466.23	11152.65
466.41	11166.70
466.60	11557.57
466.78	11021.58
466.96	11143.29
467.14	11162.01
467.32	11447.56
467.51	11492.03
467.69	11197.12
467.87	11459.26
468.05	11576.29
468.23	11335.21
468.41	11396.07
468.60	11360.96
468.78	11569.27
468.96	11410.11
469.14	11779.92
469.32	11868.86
469.50	11545.86
469.69	11899.28
469.87	11943.75
470.05	12142.70
470.23	11950.78
470.41	12175.47
470.59	12086.53
470.77	12018.65
470.95	12238.66
471.14	12339.30
471.32	12126.32
471.50	12641.23
471.68	12187.17
471.86	12425.90
472.04	12608.47
472.22	12912.74
472.40	12444.63
472.58	12901.03
472.77	12823.80
472.95	12978.27
473.13	13291.90
473.31	13013.38
473.49	12854.22
473.67	13165.51
473.85	13029.76
474.03	13603.19
474.21	13422.97
474.39	13603.19
474.57	13584.47
474.75	13495.53
474.93	13973.00
475.12	13741.29
475.30	14104.07
475.48	13591.49
475.66	13891.08
475.84	14057.26
476.02	13984.70
476.20	14225.78
476.38	14494.94
476.56	14672.82
476.74	14630.69
476.92	14319.40
477.10	14377.91
477.28	14874.10
477.46	14417.70
477.64	14888.15
477.82	15197.10
478.00	15580.95
478.18	15382.00
478.36	15501.37
478.54	15609.03
478.72	15758.83
478.90	15925.00
479.08	16051.39
479.26	16025.65
479.44	16154.38
479.62	16437.58
479.80	16535.88
479.98	16566.31
480.16	16854.20
480.34	16945.48
480.52	17144.42
480.70	17418.27
480.88	16833.13
481.06	17114.00
481.24	17029.74
481.41	17390.18
481.59	17783.39
481.77	17909.78
481.95	18118.09
482.13	18078.30
482.31	18352.14
482.49	18363.84
482.67	18590.88
482.85	18794.50
483.03	18728.97
483.21	19449.85
483.39	19407.72
483.57	19438.15
483.74	19274.31
483.92	19548.15
484.10	19641.78
484.28	20100.52
484.46	20077.12
484.64	20381.38
484.82	20084.14
485.00	20673.95
485.18	20704.38
485.35	21010.99
485.53	20922.05
485.71	21202.91
485.89	21376.11
486.07	21106.95
486.25	21628.89
486.43	21713.15
486.61	21706.13
486.78	22164.87
486.96	22527.66
487.14	22448.08
487.32	22661.07
487.50	22806.18
487.68	22808.52
487.85	23168.96
488.03	23721.33
488.21	23653.45
488.39	23864.10
488.57	23875.80
488.75	24493.71
488.92	24383.70
489.10	24608.39
489.28	24463.28
489.46	24676.27
489.64	24608.39
489.81	25507.16
489.99	25240.34
490.17	25404.17
490.35	25762.28
490.53	25797.38
490.70	26134.42
490.88	25956.54
491.06	26295.92
491.24	26300.60
491.41	26698.49
491.59	26827.22
491.77	26792.11
491.95	27197.02
492.13	27456.82
492.30	27517.68
492.48	27505.98
492.66	27819.61
492.84	27866.42
493.01	28027.92
493.19	28013.87
493.37	28348.57
493.54	28477.30
493.72	28599.01
493.90	28599.01
494.08	29268.40
494.25	29261.38
494.43	29729.48
494.61	29621.82
494.79	29628.84
494.96	29797.36
495.14	30008.01
495.32	30223.34
495.49	30567.40
495.67	30609.53
495.85	30710.17
496.02	31103.38
496.20	31227.43
496.38	30976.99
496.55	31381.90
496.73	31440.42
496.91	31489.57
497.09	31857.03
497.26	32423.44
497.44	32041.93
497.62	32088.74
497.79	32474.93
497.97	32472.59
498.14	32950.06
498.32	33256.67
498.50	33109.22
498.67	33266.03
498.85	33055.39
499.03	33846.49
499.20	33446.26
499.38	33598.39
499.56	33921.38
499.73	34017.35
499.91	34307.57
500.08	34742.91
500.26	34068.84
500.44	34433.96
500.61	34473.75
500.79	34361.40
500.97	35007.39
501.14	35257.83
501.32	35044.84
501.49	35306.98
501.67	34944.20
501.84	35318.68
502.02	35330.39
502.20	35842.96
502.37	35990.42
502.55	35725.94
502.72	35782.11
502.90	35981.06
503.07	36673.85
503.25	36226.81
503.43	36278.30
503.60	36362.56
503.78	37029.62
503.95	36687.90
504.13	37212.18
504.30	37104.51
504.48	36783.86
504.65	37172.39
504.83	37446.23
505.01	37897.95
505.18	37736.46
505.36	38227.97
505.53	38057.11
505.71	37766.88
505.88	38286.48
506.06	37710.71
506.23	38174.14
506.41	37673.26
506.58	38450.32
506.76	38490.11
506.93	39178.23
507.11	38433.94
507.28	38534.58
507.46	38663.31
507.63	39250.78
507.81	39290.57
507.98	39316.32
508.16	39522.29
508.33	39599.52
508.50	39360.79
508.68	39505.90
508.85	40081.67
509.03	39892.09
509.20	39880.39
509.38	40615.32
509.55	40449.14
509.73	40701.92
509.90	40088.70
510.08	40580.21
510.25	40549.78
510.42	40570.85
510.60	41113.85
510.77	40889.16
510.95	41586.64
511.12	40879.80
511.30	41308.11
511.47	41502.38
511.64	42190.50
511.82	41890.91
511.99	42155.39
512.17	42380.08
512.34	41858.14
512.51	41731.75
512.69	42412.85
512.86	42300.50
513.04	42925.42
513.21	42820.10
513.38	42721.80
513.56	42731.16
513.73	42906.70
513.90	42792.01
514.08	42838.83
514.25	43065.86
514.43	43634.61
514.60	43658.01
514.77	43751.63
514.95	43915.47
515.12	42904.36
515.29	43093.94
515.47	43896.75
515.64	43646.31
515.81	43945.90
515.99	44694.87
516.16	44657.42
516.33	44304.00
516.51	44830.62
516.68	44254.85
516.85	44425.71
517.03	44811.90
517.20	44795.51
517.37	44935.95
517.54	45043.61
517.72	44971.05
517.89	45303.41
518.06	44978.07
518.24	44912.54
518.41	45085.74
518.58	45071.70
518.75	45448.52
518.93	45890.88
519.10	45254.26
519.27	45890.88
519.45	45729.39
519.62	45794.92
519.79	45708.32
519.96	45556.19
520.14	46068.76
520.31	45886.20
520.48	46822.42
520.65	46045.36
520.83	46466.66
521.00	46674.96
521.17	46174.09
521.34	46457.29
521.52	46457.29
521.69	46740.50
521.86	47098.60
522.03	47159.45
522.20	47349.04
522.38	47332.65
522.55	47154.77
522.72	47330.31
522.89	47653.31
523.07	48037.16
523.24	47606.50
523.41	47716.50
523.58	47487.13
523.75	47878.00
523.92	47533.94
524.10	48079.28
524.27	48123.75
524.44	48121.41
524.61	48526.33
524.78	48732.29
524.96	48554.41
525.13	48376.53
525.30	48484.20
525.47	48605.91
525.64	48851.66
525.81	48624.63
525.98	49223.81
526.16	49146.57
526.33	49158.27
526.50	49317.43
526.67	48629.31
526.84	48900.81
527.01	48964.01
527.18	49160.61
527.36	49331.47
527.53	49226.15
527.70	49865.11
527.87	49822.98
528.04	49434.45
528.21	49553.82
528.38	49425.09
528.55	49680.21
528.72	49214.44
528.89	49769.15
529.07	49865.11
529.24	49790.22
529.41	50124.91
529.58	50101.51
529.75	49846.39
529.92	50148.32
530.09	49811.28
530.26	49986.82
530.43	50223.22
530.60	50024.27
530.77	50220.87
530.94	50564.93
531.11	50012.57
531.28	50291.09
531.46	50401.10
531.63	50586.00
531.80	50534.51
531.97	50777.92
532.14	51019.00
532.31	50801.33
532.48	50873.88
532.65	50864.52
532.82	51044.74
532.99	51033.04
533.16	50901.97
533.33	51309.22
533.50	51435.61
533.67	51784.35
533.84	51091.55
534.01	51054.11
534.18	51093.89
534.35	51239.01
534.52	51173.47
534.69	51634.56
534.86	51784.35
535.03	51594.77
535.20	51688.39
535.37	51491.79
535.54	51480.08
535.71	51655.62
535.88	51487.10
536.05	51716.48
536.22	52116.71
536.38	52020.75
536.55	51899.04
536.72	51959.89
536.89	51877.97
537.06	51697.75
537.23	52165.86
537.40	52023.09
537.57	51938.83
537.74	52526.30
537.91	52322.68
538.08	52530.98
538.25	52067.56
538.42	52130.75
538.59	52477.15
538.75	52289.91
538.92	52119.05
539.09	52530.98
539.26	52463.11
539.43	52823.55
539.60	52591.84
539.77	52846.96
539.94	52905.47
540.11	52617.58
540.28	52736.95
540.44	52853.98
540.61	52516.94
540.78	52898.45
540.95	52963.98
541.12	52996.75
541.29	53141.86
541.46	52814.19
541.62	52966.32
541.79	53085.69
541.96	52734.61
542.13	53015.47
542.30	53020.16
542.47	53223.78
542.63	53387.62
542.80	53483.58
542.97	53635.72
543.14	53567.84
543.31	53654.44
543.48	53682.53
543.64	53867.43
543.81	53656.78
543.98	53762.11
544.15	53921.26
544.32	53900.20
544.48	54209.15
544.65	53577.20
544.82	53659.12
544.99	53567.84
545.16	53872.11
545.32	53755.08
545.49	54026.59
545.66	54164.68
545.83	54305.11
546.00	54092.12
546.16	54188.08
546.33	53872.11
546.50	53846.36
546.67	54052.33
546.83	53862.75
547.00	53923.60
547.17	54129.57
547.34	54178.72
547.50	54398.73
547.67	54415.11
547.84	54295.75
548.00	54220.85
548.17	54468.95
548.34	54342.56
548.51	54548.53
548.67	54899.61
548.84	54482.99
549.01	54473.63
549.18	54497.03
549.34	54515.76
549.51	54394.05
549.68	54562.57
549.84	54354.26
550.01	54834.07
550.18	54717.04
550.34	54841.09
550.51	55128.98
550.68	55051.74
550.84	54438.52
551.01	54637.47
551.18	54646.83
551.34	54712.36
551.51	54780.24
551.68	54983.86
551.84	54794.28
552.01	54986.21
552.18	54719.38
552.34	54859.82
552.51	55049.40
552.68	54798.96
552.84	55241.32
553.01	55112.59
553.18	54951.10
553.34	55339.63
553.51	54890.24
553.67	54976.84
553.84	55461.33
554.01	55267.07
554.17	55295.16
554.34	55519.85
554.51	55103.23
554.67	55271.75
554.84	55365.37
555.00	55489.42
555.17	55262.39
555.33	55517.51
555.50	55515.17
555.67	55351.33
555.83	55494.10
556.00	55554.96
556.16	55920.08
556.33	55391.12
556.50	55360.69
556.66	56041.79
556.83	55494.10
556.99	55707.09
557.16	55700.07
557.32	55695.39
557.49	55742.20
557.65	55629.85
557.82	55358.35
557.98	55594.74
558.15	55838.16
558.32	55913.06
558.48	55877.95
558.65	55922.42
558.81	55929.44
558.98	55683.69
559.14	56126.05
559.31	55796.03
559.47	55732.84
559.64	55845.18
559.80	55784.33
559.97	55971.57
560.13	55774.97
560.30	55959.87
560.46	55772.63
560.63	55964.55
560.79	56109.66
560.96	56123.71
561.12	55913.06
561.29	56128.39
561.45	55779.65
561.61	56023.06
561.78	56271.16
561.94	56102.64
562.11	56222.01
562.27	56032.42
562.44	56048.81
562.60	56072.21
562.77	56236.05
562.93	55985.61
563.10	56360.10
563.26	56065.19
563.42	56339.04
563.59	56030.08
563.75	56395.21
563.92	56203.28
564.08	56264.14
564.24	56530.96
564.41	56016.04
564.57	56079.24
564.74	56020.72
564.90	56104.98
565.07	56622.24
565.23	56231.37
565.39	56287.54
565.56	56608.20
565.72	56254.78
565.88	56271.16
566.05	56294.56
566.21	56446.70
566.38	56268.82
566.54	56273.50
566.70	56350.74
566.87	56435.00
567.03	56392.87
567.19	56559.05
567.36	56219.67
567.52	56296.91
567.68	56495.85
567.85	56186.90
568.01	56423.29
568.17	56453.72
568.34	56631.60
568.50	56715.86
568.66	56545.00
568.83	56362.44
568.99	56301.59
569.15	56680.75
569.32	56409.25
569.48	56097.96
569.64	56383.51
569.81	56299.25
569.97	56362.44
570.13	56495.85
570.30	56498.19
570.46	56645.65
570.62	56458.40
570.78	56598.83
570.95	56306.27
571.11	56493.51
571.27	56247.75
571.43	56566.07
571.60	56514.58
571.76	56395.21
571.92	56626.92
572.09	56669.05
572.25	56678.41
572.41	56715.86
572.57	56605.86
572.74	56741.61
572.90	56521.60
573.06	56488.83
573.22	56746.29
573.38	56762.67
573.55	56521.60
573.71	56788.42
573.87	56811.82
574.03	56591.81
574.20	56779.06
574.36	56390.53
574.52	56556.70
574.68	56158.81
574.84	56619.90
575.01	56533.30
575.17	56678.41
575.33	56507.55
575.49	56704.16
575.65	56790.76
575.82	56968.64
575.98	56638.62
576.14	56659.69
576.30	56671.39
576.46	56458.40
576.62	56666.71
576.79	56650.33
576.95	56563.73
577.11	56772.03
577.27	56669.05
577.43	56711.18
577.59	56645.65
577.75	56547.34
577.92	56547.34
578.08	56427.98
578.24	56444.36
578.40	56589.47
578.56	56676.07
578.72	56631.60
578.88	56788.42
579.04	57052.90
579.21	56793.10
579.37	56872.68
579.53	56650.33
579.69	56491.17
579.85	56584.79
580.01	56652.67
580.17	56521.60
580.33	56781.40
580.49	56711.18
580.65	56790.76
580.82	56788.42
580.98	56629.26
581.14	56549.68
581.30	56851.61
581.46	56629.26
581.62	56563.73
581.78	56554.36
581.94	56790.76
582.10	56739.27
582.26	56956.94
582.42	56853.95
582.58	56811.82
582.74	56830.55
582.90	56807.14
583.06	57048.22
583.22	56753.31
583.38	56626.92
583.54	56605.86
583.70	56617.56
583.86	56594.15
584.02	56605.86
584.18	56575.43
584.34	56966.30
584.50	56760.33
584.66	56706.50
584.82	56694.80
584.98	56708.84
585.14	56631.60
585.30	56671.39
585.46	56608.20
585.62	56685.43
585.78	56676.07
585.94	56650.33
586.10	56968.64
586.26	56713.52
586.42	56851.61
586.58	57092.69
586.74	56816.50
586.90	56725.22
587.06	56722.88
587.22	56692.46
587.38	56566.07
587.54	56870.34
587.70	56996.73
587.86	57235.46
588.02	57073.96
588.18	56877.36
588.34	56828.21
588.49	56678.41
588.65	56451.38
588.81	56746.29
588.97	56795.44
589.13	56790.76
589.29	56905.44
589.45	57066.94
589.61	57144.18
