SpectraSuite Data File
++++++++++++++++++++++++++++++++++++
Date: Fri Oct 18 13:55:33 GMT-05:00 2013
User: bianchi
Dark Spectrum Present: No
Reference Spectrum Present: No
Number of Sampled Component Spectra: 1
Spectrometers: USB2+H05261
Integration Time (usec): 100000 (USB2+H05261)
Spectra Averaged: 1 (USB2+H05261)
Boxcar Smoothing: 0 (USB2+H05261)
Correct for Electrical Dark: No (USB2+H05261)
Strobe/Lamp Enabled: No (USB2+H05261)
Correct for Detector Non-linearity: No (USB2+H05261)
Correct for Stray Light: No (USB2+H05261)
Number of Pixels in Processed Spectrum: 2048
>>>>>Begin Processed Spectral Data<<<<<
365.73	0.00
365.92	0.00
366.12	0.00
366.32	0.00
366.52	0.00
366.72	0.00
366.91	0.00
367.11	0.00
367.31	0.00
367.51	0.00
367.70	0.00
367.90	0.00
368.10	0.00
368.30	0.00
368.49	0.00
368.69	0.00
368.89	0.00
369.09	0.00
369.28	0.00
369.48	0.00
369.68	0.00
369.87	0.00
370.07	0.00
370.27	0.00
370.47	0.00
370.66	292.57
370.86	203.63
371.06	374.49
371.25	355.76
371.45	386.19
371.65	355.76
371.84	322.99
372.04	397.89
372.24	365.12
372.44	367.46
372.63	510.24
372.83	404.91
373.03	334.70
373.22	374.49
373.42	543.00
373.62	456.40
373.81	472.79
374.01	484.49
374.21	472.79
374.40	442.36
374.60	486.83
374.79	517.26
374.99	514.92
375.19	461.09
375.38	524.28
375.58	528.96
375.78	564.07
375.97	498.53
376.17	601.52
376.37	435.34
376.56	589.82
376.76	547.69
376.95	526.62
377.15	561.73
377.35	557.05
377.54	629.60
377.74	594.50
377.93	519.60
378.13	535.98
378.33	601.52
378.52	528.96
378.72	566.41
378.91	634.29
379.11	624.92
379.31	566.41
379.50	582.79
379.70	613.22
379.89	662.37
380.09	557.05
380.28	620.24
380.48	725.57
380.68	620.24
380.87	645.99
381.07	704.50
381.26	669.39
381.46	636.63
381.65	641.31
381.85	730.25
382.04	685.78
382.24	711.52
382.43	660.03
382.63	667.05
382.83	645.99
383.02	685.78
383.22	802.80
383.41	725.57
383.61	758.33
383.80	826.21
384.00	748.97
384.19	704.50
384.39	746.63
384.58	737.27
384.78	753.65
384.97	814.51
385.17	833.23
385.36	727.91
385.56	809.83
385.75	725.57
385.95	704.50
386.14	739.61
386.34	702.16
386.53	875.36
386.72	770.04
386.92	898.77
387.11	798.12
387.31	868.34
387.50	924.51
387.70	887.06
387.89	905.79
388.09	931.53
388.28	870.68
388.48	863.66
388.67	938.55
388.86	908.13
389.06	840.25
389.25	866.00
389.45	964.30
389.64	959.62
389.84	957.28
390.03	990.05
390.22	959.62
390.42	994.73
390.61	917.49
390.81	950.26
391.00	978.34
391.19	1008.77
391.39	1011.11
391.58	1048.56
391.78	1088.35
391.97	1083.67
392.16	1060.26
392.36	1097.71
392.55	1123.46
392.75	1057.92
392.94	1149.20
393.13	1060.26
393.33	1053.24
393.52	1048.56
393.71	1146.86
393.91	1210.06
394.10	1104.73
394.29	1191.33
394.49	1151.54
394.68	1240.48
394.88	1170.27
395.07	1362.19
395.26	1369.21
395.46	1273.25
395.65	1245.16
395.84	1245.16
396.04	1310.70
396.23	1327.08
396.42	1352.83
396.62	1371.55
396.81	1348.15
397.00	1322.40
397.19	1331.76
397.39	1366.87
397.58	1385.60
397.77	1373.89
397.97	1437.09
398.16	1352.83
398.35	1453.47
398.55	1493.26
398.74	1394.96
398.93	1497.94
399.12	1509.65
399.32	1413.68
399.51	1490.92
399.70	1593.90
399.90	1526.03
400.09	1607.95
400.28	1640.72
400.47	1612.63
400.67	1701.57
400.86	1563.48
401.05	1589.22
401.24	1614.97
401.44	1795.19
401.63	1636.03
401.82	1703.91
402.01	1699.23
402.21	1675.82
402.40	1764.76
402.59	1811.57
402.78	1771.79
402.97	1743.70
403.17	1851.36
403.36	1851.36
403.55	1834.98
403.74	1863.07
403.93	1877.11
404.13	1912.22
404.32	1949.67
404.51	1863.07
404.70	1975.41
404.89	1914.56
405.09	2036.27
405.28	1954.35
405.47	2050.31
405.66	1994.14
405.85	1963.71
406.05	2078.40
406.24	2024.56
406.43	2176.70
406.62	2064.35
406.81	2356.92
407.00	2232.87
407.20	2120.53
407.39	2122.87
407.58	2293.72
407.77	2260.96
407.96	2317.13
408.15	2399.05
408.34	2282.02
408.54	2399.05
408.73	2284.36
408.92	2368.62
409.11	2359.26
409.30	2480.97
409.49	2345.22
409.68	2422.45
409.87	2431.82
410.07	2511.39
410.26	2516.08
410.45	2518.42
410.64	2649.49
410.83	2609.70
411.02	2693.96
411.21	2698.64
411.40	2640.12
411.59	2757.15
411.78	2708.00
411.98	2672.89
412.17	2963.12
412.36	2885.88
412.55	2768.85
412.74	2958.44
412.93	3012.27
413.12	2820.35
413.31	3082.49
413.50	3028.65
413.69	3045.04
413.88	3206.53
414.07	3108.23
414.26	3080.14
414.45	3077.80
414.64	3283.77
414.83	3180.79
415.02	3176.11
415.22	3258.03
415.41	3382.07
415.60	3318.88
415.79	3431.23
415.98	3543.57
416.17	3508.46
416.36	3442.93
416.55	3487.40
416.74	3487.40
416.93	3595.06
417.12	3576.34
417.31	3548.25
417.50	3779.97
417.69	3833.80
417.88	3805.71
418.07	3838.48
418.26	3714.43
418.45	3817.41
418.64	3997.64
418.83	3974.23
419.02	3794.01
419.21	4058.49
419.39	3969.55
419.58	3906.35
419.77	4060.83
419.96	3997.64
420.15	4147.43
420.34	4182.54
420.53	4016.36
420.72	4072.53
420.91	4255.09
421.10	4229.35
421.29	4369.78
421.48	4100.62
421.67	4334.67
421.86	4215.30
422.05	4231.69
422.24	4278.50
422.43	4238.71
422.61	4287.86
422.80	4376.80
422.99	4332.33
423.18	4456.38
423.37	4545.32
423.56	4589.79
423.75	4503.19
423.94	4381.48
424.13	4065.51
424.32	4252.75
424.50	4571.07
424.69	4620.22
424.88	4561.70
425.07	4404.89
425.26	4358.08
425.45	4432.97
425.64	4489.15
425.83	4559.36
426.01	4631.92
426.20	4470.42
426.39	4580.43
426.58	4622.56
426.77	4681.07
426.96	4774.69
427.15	4582.77
427.33	4819.16
427.52	4798.10
427.71	4779.37
427.90	4760.65
428.09	4938.53
428.28	4748.95
428.46	4816.82
428.65	4830.87
428.84	4936.19
429.03	5055.56
429.22	4880.02
429.40	5043.85
429.59	4966.62
429.78	4629.58
429.97	4851.93
430.16	4947.89
430.34	4964.28
430.53	5032.15
430.72	5219.39
430.91	5004.07
431.10	5135.14
431.28	5240.46
431.47	5287.27
431.66	5245.14
431.85	5254.50
432.03	5282.59
432.22	5401.96
432.41	5455.79
432.60	5479.19
432.79	5364.51
432.97	5418.34
433.16	5628.99
433.35	5413.66
433.54	5486.22
433.72	5582.18
433.91	5724.95
434.10	5701.54
434.28	5636.01
434.47	5680.48
434.66	5734.31
434.85	5729.63
435.03	5636.01
435.22	5743.67
435.41	6043.26
435.59	5813.89
435.78	5769.42
435.97	5872.40
436.16	5837.30
436.34	5804.53
436.53	5919.21
436.72	6197.74
436.90	6005.81
437.09	6005.81
437.28	6033.90
437.46	6092.41
437.65	6012.84
437.84	6209.44
438.02	6031.56
438.21	6134.54
438.40	6085.39
438.58	6445.84
438.77	6354.55
438.96	6321.79
439.14	6469.24
439.33	6490.31
439.52	6696.27
439.70	6656.48
439.89	6576.91
440.08	6576.91
440.26	6764.15
440.45	6644.78
440.63	6813.30
440.82	6918.62
441.01	6890.54
441.19	7026.29
441.38	7173.74
441.57	7094.16
441.75	7187.79
441.94	7232.26
442.12	7337.58
442.31	7438.22
442.50	7208.85
442.68	7255.66
442.87	7274.38
443.05	7543.55
443.24	7503.76
443.43	7459.29
443.61	7433.54
443.80	7789.30
443.98	7475.67
444.17	7199.49
444.35	7398.43
444.54	7646.53
444.73	7812.71
444.91	7581.00
445.10	7445.24
445.28	7424.18
445.47	7716.75
445.65	7508.44
445.84	7817.39
446.02	7735.47
446.21	7569.29
446.39	7424.18
446.58	7573.97
446.77	7896.97
446.95	7641.85
447.14	7733.13
447.32	7939.10
447.51	7791.64
447.69	7634.83
447.88	7791.64
448.06	7791.64
448.25	7728.45
448.43	7857.18
448.62	7716.75
448.80	7620.78
448.99	7796.32
449.17	7946.12
449.36	7784.62
449.54	8250.39
449.73	8177.83
449.91	8252.73
450.10	8283.16
450.28	8456.36
450.46	8147.40
450.65	8351.03
450.83	8376.78
451.02	8404.86
451.20	8477.42
451.39	8163.79
451.57	8294.86
451.76	8442.31
451.94	8318.26
452.13	8655.30
452.31	8533.59
452.49	8290.18
452.68	8629.56
452.86	8624.87
453.05	8809.78
453.23	8638.92
453.42	8622.53
453.60	8542.96
453.78	8615.51
453.97	8559.34
454.15	8868.29
454.34	8617.85
454.52	8882.33
454.70	8898.72
454.89	8840.20
455.07	8844.88
455.26	8858.93
455.44	8959.57
455.62	8973.61
455.81	8985.32
455.99	9242.78
456.17	9053.19
456.36	9198.31
456.54	9252.14
456.73	9413.63
456.91	9296.61
457.09	9364.48
457.28	9710.88
457.46	9418.32
457.64	9762.37
457.83	9614.92
458.01	9455.76
458.19	9724.93
458.38	9607.90
458.56	9851.31
458.74	9661.73
458.93	9802.16
459.11	9846.63
459.29	9617.26
459.48	9956.64
459.66	9844.29
459.84	9947.28
460.03	10108.77
460.21	10003.45
460.39	10111.11
460.57	10207.08
460.76	10157.92
460.94	10176.65
461.12	10043.24
461.31	10134.52
461.49	10125.16
461.67	10279.63
461.85	10246.87
462.04	10218.78
462.22	10911.58
462.40	10487.94
462.59	10572.20
462.77	10469.22
462.95	10541.77
463.13	10494.96
463.32	10668.16
463.50	10806.25
463.68	10827.32
463.86	10743.06
464.05	10509.01
464.23	10789.87
464.41	10644.76
464.59	10729.02
464.78	10803.91
464.96	10670.50
465.14	10815.62
465.32	11002.86
465.50	10787.53
465.69	10993.50
465.87	10881.15
466.05	10888.17
466.23	11084.78
466.41	11147.97
466.60	11094.14
466.78	11103.50
466.96	11225.21
467.14	10972.43
467.32	11077.76
467.51	11150.31
467.69	11190.10
467.87	11557.57
468.05	11389.05
468.23	11246.27
468.41	11382.03
468.60	11435.86
468.78	11499.05
468.96	11461.60
469.14	11695.66
469.32	11705.02
469.50	11370.32
469.69	11925.03
469.87	11857.15
470.05	11817.36
470.23	12039.72
470.41	11824.39
470.59	11997.59
470.77	11955.46
470.95	11976.52
471.14	12320.58
471.32	12006.95
471.50	12299.52
471.68	12280.79
471.86	12163.76
472.04	12280.79
472.22	12875.29
472.40	12416.54
472.58	12533.57
472.77	12599.10
472.95	13027.42
473.13	13090.62
473.31	12856.56
473.49	12821.45
473.67	12891.67
473.85	13095.30
474.03	13184.24
474.21	13095.30
474.39	13371.48
474.57	13331.69
474.75	13523.62
474.93	13324.67
475.12	13202.96
475.30	13504.89
475.48	13738.94
475.66	13874.70
475.84	13528.30
476.02	13905.12
476.20	13940.23
476.38	14242.16
476.56	14614.30
476.74	14195.35
476.92	14377.91
477.10	14410.68
477.28	14640.05
477.46	14768.78
477.64	14855.38
477.82	15169.01
478.00	15297.74
478.18	15288.38
478.36	15421.79
478.54	15566.90
478.72	15562.22
478.90	15915.64
479.08	15730.74
479.26	15594.99
479.44	16189.49
479.62	16301.83
479.80	16592.06
479.98	16259.70
480.16	16926.75
480.34	16596.74
480.52	16816.75
480.70	16842.50
480.88	16559.29
481.06	16950.16
481.24	17006.33
481.41	17359.75
481.59	17387.84
481.77	17537.63
481.95	17458.06
482.13	17781.05
482.31	17928.50
482.49	18092.34
482.67	18424.70
482.85	18237.45
483.03	18675.13
483.21	18698.54
483.39	19080.05
483.57	19124.52
483.74	19096.43
483.92	19428.79
484.10	18937.27
484.28	19878.17
484.46	19772.85
484.64	20257.34
484.82	19819.66
485.00	20067.75
485.18	20587.35
485.35	20563.95
485.53	20549.90
485.71	20807.36
485.89	21455.69
486.07	21081.21
486.25	21261.43
486.43	21436.97
486.61	21680.38
486.78	21790.39
486.96	21841.88
487.14	22253.81
487.32	22340.41
487.50	22546.38
487.68	22757.03
487.85	23019.17
488.03	23138.54
488.21	23592.60
488.39	23393.65
488.57	23655.79
488.75	23751.76
488.92	23934.32
489.10	24058.37
489.28	24023.26
489.46	24657.54
489.64	24463.28
489.81	24872.87
489.99	25280.13
490.17	25109.27
490.35	25673.34
490.53	25118.63
490.70	25738.87
490.88	25589.08
491.06	25984.63
491.24	26103.99
491.41	26178.89
491.59	26398.90
491.77	26632.96
491.95	26726.58
492.13	27033.19
492.30	27278.94
492.48	27386.61
492.66	27168.94
492.84	27421.72
493.01	27721.30
493.19	27765.78
493.37	27850.03
493.54	28271.33
493.72	28374.31
493.90	28552.20
494.08	29022.64
494.25	28868.17
494.43	28811.99
494.61	29181.80
494.79	29404.15
494.96	29226.27
495.14	29462.66
495.32	30031.41
495.49	30054.82
495.67	30204.61
495.85	30326.32
496.02	30600.16
496.20	30824.86
496.38	30586.12
496.55	30906.77
496.73	31606.59
496.91	31426.37
497.09	31637.02
497.26	31365.52
497.44	31625.32
497.62	31494.25
497.79	32201.09
497.97	32343.86
498.14	32357.91
498.32	32519.40
498.50	32687.92
498.67	32669.20
498.85	32978.15
499.03	32879.85
499.20	33109.22
499.38	32961.76
499.56	33509.45
499.73	33734.14
499.91	33799.68
500.08	33958.83
500.26	33497.75
500.44	33862.87
500.61	34155.44
500.79	33961.17
500.97	34569.71
501.14	35299.96
501.32	34848.24
501.49	34841.21
501.67	34628.23
501.84	34747.59
502.02	34976.97
502.20	35332.73
502.37	35524.65
502.55	35531.67
502.72	35899.14
502.90	35824.24
503.07	35725.94
503.25	35739.98
503.43	35693.17
503.60	35995.10
503.78	35852.33
503.95	36156.60
504.13	36627.04
504.30	36383.63
504.48	36409.37
504.65	36610.66
504.83	37083.45
505.01	37488.36
505.18	37244.94
505.36	37390.06
505.53	37256.65
505.71	37200.47
505.88	37556.24
506.06	37326.86
506.23	37787.95
506.41	38120.31
506.58	37977.53
506.76	38071.15
506.93	38415.21
507.11	37848.80
507.28	38667.99
507.46	38532.24
507.63	38998.01
507.81	38873.96
507.98	38785.02
508.16	38918.43
508.33	38871.62
508.50	39171.21
508.68	38799.06
508.85	39459.09
509.03	39920.18
509.20	39901.45
509.38	40137.85
509.55	40121.46
509.73	40041.88
509.90	40046.57
510.08	39990.39
510.25	39833.58
510.42	40643.40
510.60	40577.87
510.77	40978.10
510.95	40641.06
511.12	40657.45
511.30	40407.01
511.47	40910.22
511.64	41263.64
511.82	41181.73
511.99	41235.56
512.17	41792.61
512.34	41312.80
512.51	41911.97
512.69	41926.02
512.86	41710.69
513.04	42190.50
513.21	42204.54
513.38	42433.91
513.56	42389.44
513.73	42595.41
513.90	42241.99
514.08	42515.83
514.25	43014.37
514.43	42674.99
514.60	42944.15
514.77	43281.19
514.95	43367.79
515.12	42820.10
515.29	43093.94
515.47	43346.72
515.64	42979.26
515.81	43482.47
515.99	43922.49
516.16	44463.16
516.33	44123.78
516.51	44044.20
516.68	43466.09
516.85	43924.83
517.03	44516.99
517.20	44573.16
517.37	44158.89
517.54	44713.59
517.72	44547.42
517.89	44182.29
518.06	44552.10
518.24	44573.16
518.41	44839.98
518.58	44947.65
518.75	44645.72
518.93	44921.90
519.10	44755.72
519.27	44992.12
519.45	44542.74
519.62	45233.19
519.79	45153.62
519.96	45298.73
520.14	45619.38
520.31	45485.97
520.48	45806.62
520.65	46089.83
520.83	46059.40
521.00	45958.76
521.17	45975.14
521.34	46265.37
521.52	46361.33
521.69	46038.34
521.86	46478.36
522.03	46443.25
522.20	46450.27
522.38	46866.89
522.55	46707.73
522.72	46897.31
522.89	46967.53
523.07	47175.84
523.24	47016.68
523.41	47278.82
523.58	47210.95
523.75	47412.23
523.92	47239.03
524.10	46983.91
524.27	47538.62
524.44	47756.29
524.61	47859.27
524.78	47704.80
524.96	47655.65
525.13	47908.43
525.30	48336.74
525.47	48428.02
525.64	47903.74
525.81	48322.70
525.98	48226.74
526.16	48261.85
526.33	48149.50
526.50	48617.61
526.67	48409.30
526.84	48292.27
527.01	48411.64
527.18	48987.41
527.36	48956.99
527.53	48765.06
527.70	49352.54
527.87	49710.64
528.04	48767.40
528.21	48830.60
528.38	49109.12
528.55	49155.93
528.72	49359.56
528.89	49254.23
529.07	49212.10
529.24	49106.78
529.41	49359.56
529.58	49312.75
529.75	49116.14
529.92	49411.05
530.09	49378.28
530.26	49815.96
530.43	49712.98
530.60	49698.94
530.77	49940.01
530.94	49972.78
531.11	49752.77
531.28	49993.84
531.46	49640.42
531.63	50075.76
531.80	50424.50
531.97	50380.03
532.14	50471.31
532.31	50440.89
532.48	50382.37
532.65	50365.99
532.82	50227.90
532.99	50403.44
533.16	50157.68
533.33	50518.12
533.50	50862.18
533.67	51110.28
533.84	50323.86
534.01	50719.41
534.18	50574.30
534.35	51145.39
534.52	50944.10
534.69	51091.55
534.86	50972.19
535.03	51026.02
535.20	51028.36
535.37	51082.19
535.54	51262.41
535.71	51241.35
535.88	51248.37
536.05	51466.04
536.22	51714.14
536.38	51625.20
536.55	51597.11
536.72	51721.16
536.89	51311.56
537.06	51760.95
537.23	51889.68
537.40	51356.03
537.57	51629.88
537.74	51547.96
537.91	51976.28
538.08	52044.15
538.25	51580.73
538.42	51927.13
538.59	51786.69
538.75	51945.85
538.92	51892.02
539.09	52594.18
539.26	52273.52
539.43	52016.07
539.60	52109.69
539.77	52346.08
539.94	52097.98
540.11	52413.96
540.28	52067.56
540.44	52322.68
540.61	52236.08
540.78	52083.94
540.95	52189.27
541.12	52685.46
541.29	52797.80
541.46	52442.04
541.62	52280.55
541.79	52804.83
541.96	52231.40
542.13	52348.42
542.30	52713.55
542.47	53006.11
542.63	52809.51
542.80	53134.84
542.97	53181.65
543.14	53298.68
543.31	52760.36
543.48	52839.93
543.64	53631.04
543.81	53373.58
543.98	53333.79
544.15	53544.44
544.32	53408.68
544.48	53785.51
544.65	52994.41
544.82	53272.93
544.99	53015.47
545.16	53301.02
545.32	53361.87
545.49	53684.87
545.66	53937.65
545.83	53368.90
546.00	53923.60
546.16	53708.27
546.33	53446.13
546.50	53244.85
546.67	53638.06
546.83	53275.27
547.00	53656.78
547.17	53570.18
547.34	53719.98
547.50	53925.94
547.67	54199.79
547.84	54000.84
548.00	53928.28
548.17	53888.49
548.34	53956.37
548.51	54178.72
548.67	54185.74
548.84	54211.49
549.01	54094.46
549.18	54227.87
549.34	54000.84
549.51	54204.47
549.68	54131.91
549.84	54160.00
550.01	54511.08
550.18	53851.05
550.34	54347.24
550.51	54541.50
550.68	54447.88
550.84	53928.28
551.01	54621.08
551.18	54162.34
551.34	54152.97
551.51	54490.01
551.68	54578.95
551.84	54431.50
552.01	54614.06
552.18	54766.20
552.34	54358.94
552.51	54522.78
552.68	54621.08
552.84	54518.10
553.01	54777.90
553.18	54824.71
553.34	54829.39
553.51	54894.92
553.67	54855.14
553.84	55304.52
554.01	54768.54
554.17	54993.23
554.34	54677.25
554.51	54740.45
554.67	54918.33
554.84	54908.97
555.00	55091.53
555.17	54824.71
555.33	54988.55
555.50	54862.16
555.67	55154.72
555.83	55021.31
556.00	55070.46
556.16	55152.38
556.33	54894.92
556.50	54988.55
556.66	55138.34
556.83	54859.82
556.99	55650.92
557.16	55426.23
557.32	55128.98
557.49	55384.10
557.65	55295.16
557.82	55334.95
557.98	55262.39
558.15	55318.56
558.32	55437.93
558.48	55316.22
558.65	55636.87
558.81	55379.42
558.98	55257.71
559.14	55374.73
559.31	55447.29
559.47	55304.52
559.64	55470.70
559.80	55360.69
559.97	55641.56
560.13	55360.69
560.30	55494.10
560.46	55421.55
560.63	55458.99
560.79	55540.91
560.96	55585.38
561.12	55386.44
561.29	55531.55
561.45	55646.24
561.61	55664.96
561.78	55655.60
561.94	55796.03
562.11	55688.37
562.27	55662.62
562.44	55590.06
562.60	55657.94
562.77	55791.35
562.93	55746.88
563.10	55751.56
563.26	55669.64
563.42	56004.34
563.59	55709.43
563.75	55707.09
563.92	55856.88
564.08	55580.70
564.24	55508.14
564.41	55863.91
564.57	55489.42
564.74	55758.58
564.90	56179.88
565.07	55791.35
565.23	55875.61
565.39	56030.08
565.56	55971.57
565.72	55854.54
565.88	55838.16
566.05	55856.88
566.21	55861.57
566.38	55908.38
566.54	56067.53
566.70	56076.90
566.87	56254.78
567.03	55922.42
567.19	56299.25
567.36	55959.87
567.52	55671.98
567.68	56048.81
567.85	55767.94
568.01	55973.91
568.17	56310.95
568.34	56041.79
568.50	56189.24
568.66	56238.39
568.83	56093.28
568.99	56128.39
569.15	55957.53
569.32	56074.55
569.48	55866.25
569.64	56135.41
569.81	55973.91
569.97	56086.26
570.13	56097.96
570.30	56060.51
570.46	56130.73
570.62	56030.08
570.78	55966.89
570.95	55994.98
571.11	56247.75
571.27	55957.53
571.43	55824.12
571.60	56133.07
571.76	55955.19
571.92	56207.97
572.09	56252.44
572.25	56303.93
572.41	56128.39
572.57	55962.21
572.74	56280.52
572.90	56034.77
573.06	56130.73
573.22	56226.69
573.38	56280.52
573.55	56184.56
573.71	56467.76
573.87	56547.34
574.03	56128.39
574.20	56367.12
574.36	56130.73
574.52	56250.09
574.68	56315.63
574.84	56294.56
575.01	56353.08
575.17	56261.80
575.33	56411.59
575.49	56254.78
575.65	56435.00
575.82	56409.25
575.98	56081.58
576.14	56460.74
576.30	56088.60
576.46	56346.06
576.62	56294.56
576.79	56182.22
576.95	55987.95
577.11	56306.27
577.27	56432.66
577.43	56336.69
577.59	56357.76
577.75	56271.16
577.92	56172.86
578.08	56135.41
578.24	56327.33
578.40	56357.76
578.56	56507.55
578.72	56172.86
578.88	56470.11
579.04	56559.05
579.21	56573.09
579.37	56456.06
579.53	56488.83
579.69	55955.19
579.85	56048.81
580.01	56186.90
580.17	56364.78
580.33	56247.75
580.49	56275.84
580.65	56432.66
580.82	56301.59
580.98	56442.02
581.14	56261.80
581.30	56343.72
581.46	56320.31
581.62	56231.37
581.78	56025.40
581.94	56212.65
582.10	56198.60
582.26	56121.37
582.42	56549.68
582.58	56636.28
582.74	56664.37
582.90	56383.51
583.06	56610.54
583.22	56390.53
583.38	56399.89
583.54	56278.18
583.70	56449.04
583.86	56203.28
584.02	56020.72
584.18	56320.31
584.34	56781.40
584.50	56671.39
584.66	56486.49
584.82	56104.98
584.98	56217.33
585.14	56306.27
585.30	56051.15
585.46	56453.72
585.62	56437.34
585.78	56303.93
585.94	56289.88
586.10	56552.02
586.26	56427.98
586.42	56573.09
586.58	56676.07
586.74	56435.00
586.90	56133.07
587.06	56409.25
587.22	56420.95
587.38	56280.52
587.54	56303.93
587.70	56519.26
587.86	56683.09
588.02	56694.80
588.18	56643.30
588.34	56423.29
588.49	56678.41
588.65	56341.38
588.81	56093.28
588.97	56528.62
589.13	56149.45
589.29	56420.95
589.45	56374.14
589.61	56587.13
