SpectraSuite Data File
++++++++++++++++++++++++++++++++++++
Date: Fri Oct 18 13:55:15 GMT-05:00 2013
User: bianchi
Dark Spectrum Present: No
Reference Spectrum Present: No
Number of Sampled Component Spectra: 1
Spectrometers: USB2+H05261
Integration Time (usec): 100000 (USB2+H05261)
Spectra Averaged: 1 (USB2+H05261)
Boxcar Smoothing: 0 (USB2+H05261)
Correct for Electrical Dark: No (USB2+H05261)
Strobe/Lamp Enabled: No (USB2+H05261)
Correct for Detector Non-linearity: No (USB2+H05261)
Correct for Stray Light: No (USB2+H05261)
Number of Pixels in Processed Spectrum: 2048
>>>>>Begin Processed Spectral Data<<<<<
365.73	0.00
365.92	0.00
366.12	0.00
366.32	0.00
366.52	0.00
366.72	0.00
366.91	0.00
367.11	0.00
367.31	0.00
367.51	0.00
367.70	0.00
367.90	0.00
368.10	0.00
368.30	0.00
368.49	0.00
368.69	0.00
368.89	0.00
369.09	0.00
369.28	0.00
369.48	0.00
369.68	0.00
369.87	0.00
370.07	0.00
370.27	0.00
370.47	70.22
370.66	243.42
370.86	320.65
371.06	365.12
371.25	456.40
371.45	269.16
371.65	388.53
371.84	411.93
372.04	306.61
372.24	322.99
372.44	369.80
372.63	442.36
372.83	505.56
373.03	468.11
373.22	418.96
373.42	440.02
373.62	428.32
373.81	447.04
374.01	566.41
374.21	477.47
374.40	489.17
374.60	528.96
374.79	447.04
374.99	500.87
375.19	589.82
375.38	454.06
375.58	517.26
375.78	547.69
375.97	463.43
376.17	547.69
376.37	507.90
376.56	545.34
376.76	461.09
376.95	496.19
377.15	566.41
377.35	587.47
377.54	568.75
377.74	505.56
377.93	606.20
378.13	535.98
378.33	603.86
378.52	547.69
378.72	543.00
378.91	580.45
379.11	575.77
379.31	554.71
379.50	507.90
379.70	678.76
379.89	664.71
380.09	608.54
380.28	592.16
380.48	655.35
380.68	540.66
380.87	732.59
381.07	681.10
381.26	695.14
381.46	585.13
381.65	748.97
381.85	678.76
382.04	704.50
382.24	711.52
382.43	629.60
382.63	624.92
382.83	699.82
383.02	765.36
383.22	732.59
383.41	629.60
383.61	641.31
383.80	788.76
384.00	737.27
384.19	814.51
384.39	713.86
384.58	826.21
384.78	758.33
384.97	737.27
385.17	842.59
385.36	821.53
385.56	758.33
385.75	713.86
385.95	777.06
386.14	870.68
386.34	798.12
386.53	786.42
386.72	840.25
386.92	844.93
387.11	814.51
387.31	898.77
387.50	866.00
387.70	805.14
387.89	791.10
388.09	819.19
388.28	952.60
388.48	849.61
388.67	954.94
388.86	889.40
389.06	1008.77
389.25	943.24
389.45	952.60
389.64	976.00
389.84	999.41
390.03	959.62
390.22	950.26
390.42	990.05
390.61	968.98
390.81	1020.47
391.00	1018.13
391.19	1011.11
391.39	1081.33
391.58	929.19
391.78	1008.77
391.97	1074.31
392.16	1032.18
392.36	1095.37
392.55	1053.24
392.75	1107.07
392.94	1004.09
393.13	1207.72
393.33	1174.95
393.52	1184.31
393.71	1102.39
393.91	1186.65
394.10	1207.72
394.29	1165.59
394.49	1107.07
394.68	1231.12
394.88	1135.16
395.07	1214.74
395.26	1247.51
395.46	1181.97
395.65	1397.30
395.84	1273.25
396.04	1343.47
396.23	1291.98
396.42	1343.47
396.62	1423.05
396.81	1291.98
397.00	1228.78
397.19	1441.77
397.39	1352.83
397.58	1413.68
397.77	1357.51
397.97	1481.56
398.16	1502.62
398.35	1476.88
398.55	1568.16
398.74	1519.01
398.93	1465.18
399.12	1474.54
399.32	1497.94
399.51	1497.94
399.70	1591.56
399.90	1481.56
400.09	1629.01
400.28	1607.95
400.47	1465.18
400.67	1624.33
400.86	1549.43
401.05	1619.65
401.24	1621.99
401.44	1680.50
401.63	1565.82
401.82	1633.69
402.01	1612.63
402.21	1755.40
402.40	1776.47
402.59	1692.21
402.78	1820.94
402.97	1743.70
403.17	1788.17
403.36	1816.26
403.55	1802.21
403.74	1858.39
403.93	1898.17
404.13	1893.49
404.32	1916.90
404.51	1863.07
404.70	1944.99
404.89	1879.45
405.09	1961.37
405.28	1921.58
405.47	1959.03
405.66	2083.08
405.85	2066.69
406.05	2094.78
406.24	2090.10
406.43	2066.69
406.62	2146.27
406.81	2207.13
407.00	2113.50
407.20	2097.12
407.39	2190.74
407.58	2221.17
407.77	2211.81
407.96	2286.70
408.15	2312.45
408.34	2377.98
408.54	2256.28
408.73	2305.43
408.92	2401.39
409.11	2424.80
409.30	2317.13
409.49	2581.61
409.68	2476.29
409.87	2375.64
410.07	2480.97
410.26	2562.89
410.45	2462.24
410.64	2590.97
410.83	2703.32
411.02	2576.93
411.21	2628.42
411.40	2717.36
411.59	2722.04
411.78	2691.62
411.98	2841.41
412.17	2813.32
412.36	2855.45
412.55	2871.84
412.74	2881.20
412.93	2956.10
413.12	2764.17
413.31	3014.61
413.50	2942.05
413.69	2972.48
413.88	3145.68
414.07	3038.02
414.26	3180.79
414.45	3227.60
414.64	3169.09
414.83	3400.80
415.02	3339.94
415.22	3288.45
415.41	3349.31
415.60	3389.10
415.79	3307.18
415.98	3508.46
416.17	3405.48
416.36	3461.65
416.55	3438.25
416.74	3503.78
416.93	3574.00
417.12	3779.97
417.31	3691.02
417.50	3768.26
417.69	3737.84
417.88	3719.11
418.07	3681.66
418.26	3702.73
418.45	3838.48
418.64	4049.13
418.83	4072.53
419.02	3960.19
419.21	4039.76
419.39	3960.19
419.58	3779.97
419.77	4032.74
419.96	4205.94
420.15	4175.52
420.34	4018.70
420.53	4145.09
420.72	4107.64
420.91	4109.98
421.10	4147.43
421.29	4367.44
421.48	4119.34
421.67	4262.12
421.86	4353.40
422.05	4325.31
422.24	4344.03
422.43	4243.39
422.61	4383.82
422.80	4592.13
422.99	4454.04
423.18	4430.63
423.37	4477.44
423.56	4486.81
423.75	4432.97
423.94	4355.74
424.13	4156.79
424.32	4215.30
424.50	4477.44
424.69	4517.23
424.88	4561.70
425.07	4311.27
425.26	4327.65
425.45	4542.98
425.64	4388.50
425.83	4573.41
426.01	4732.56
426.20	4465.74
426.39	4479.79
426.58	4718.52
426.77	4484.47
426.96	4655.33
427.15	4592.13
427.33	4648.30
427.52	4779.37
427.71	4765.33
427.90	4636.60
428.09	4865.97
428.28	4737.24
428.46	4919.81
428.65	4833.21
428.84	4994.70
429.03	5055.56
429.22	4800.44
429.40	4990.02
429.59	4912.78
429.78	4849.59
429.97	4664.69
430.16	4903.42
430.34	5107.05
430.53	5200.67
430.72	5008.75
430.91	5111.73
431.10	5177.26
431.28	5298.97
431.47	5231.10
431.66	5320.04
431.85	5184.29
432.03	5352.81
432.22	5397.28
432.41	5362.17
432.60	5549.41
432.79	5348.12
432.97	5394.93
433.16	5373.87
433.35	5413.66
433.54	5561.11
433.72	5624.31
433.91	5579.84
434.10	5434.72
434.28	5401.96
434.47	5760.06
434.66	5610.26
434.85	5664.10
435.03	5811.55
435.22	5542.39
435.41	5860.70
435.59	5790.49
435.78	5867.72
435.97	5886.45
436.16	5912.19
436.34	5912.19
436.53	5874.74
436.72	6043.26
436.90	5820.91
437.09	6094.76
437.28	5937.94
437.46	5982.41
437.65	6076.03
437.84	6188.38
438.02	6179.01
438.21	6183.70
438.40	6052.63
438.58	6450.52
438.77	6417.75
438.96	6349.87
439.14	6541.80
439.33	6560.52
439.52	6572.22
439.70	6635.42
439.89	6530.09
440.08	6684.57
440.26	6808.62
440.45	6738.40
440.63	6731.38
440.82	6841.39
441.01	6956.07
441.19	6902.24
441.38	7042.67
441.57	7332.90
441.75	7131.61
441.94	7382.05
442.12	7187.79
442.31	7307.15
442.50	7281.41
442.68	7337.58
442.87	7344.60
443.05	7391.41
443.24	7592.70
443.43	7386.73
443.61	7442.90
443.80	7648.87
443.98	7337.58
444.17	7136.29
444.35	7503.76
444.54	7691.00
444.73	7634.83
444.91	7765.90
445.10	7599.72
445.28	7676.96
445.47	7470.99
445.65	7726.11
445.84	7709.72
446.02	7793.98
446.21	7578.65
446.39	7679.30
446.58	7805.69
446.77	7831.43
446.95	7433.54
447.14	7695.68
447.32	7852.50
447.51	7747.17
447.69	7637.17
447.88	7735.47
448.06	7777.60
448.25	7679.30
448.43	7939.10
448.62	7866.54
448.80	7880.58
448.99	7887.61
449.17	7847.82
449.36	7822.07
449.54	8109.96
449.73	8215.28
449.91	8308.90
450.10	8231.66
450.28	8341.67
450.46	8351.03
450.65	8161.45
450.83	8180.17
451.02	8231.66
451.20	8542.96
451.39	8177.83
451.57	8297.20
451.76	8306.56
451.94	8589.77
452.13	8547.64
452.31	8351.03
452.49	8416.57
452.68	8594.45
452.86	8505.51
453.05	8468.06
453.23	8685.73
453.42	8397.84
453.60	8681.05
453.78	8755.94
453.97	8524.23
454.15	8589.77
454.34	8849.57
454.52	8812.12
454.70	8788.71
454.89	8959.57
455.07	9069.58
455.26	8905.74
455.44	9212.35
455.62	8990.00
455.81	9102.34
455.99	8924.46
456.17	9029.79
456.36	9177.24
456.54	9334.06
456.73	9439.38
456.91	9296.61
457.09	9500.23
457.28	9877.06
457.46	9500.23
457.64	9678.12
457.83	9568.11
458.01	9413.63
458.19	9530.66
458.38	9689.82
458.56	9914.51
458.74	9652.37
458.93	9666.41
459.11	9832.59
459.29	9685.14
459.48	9888.76
459.66	9881.74
459.84	9980.04
460.03	9998.77
460.21	9949.62
460.39	9980.04
460.57	9846.63
460.76	10127.50
460.94	10101.75
461.12	10270.27
461.31	10225.80
461.49	10150.90
461.67	10258.57
461.85	10312.40
462.04	10375.59
462.22	10569.86
462.40	10480.92
462.59	10490.28
462.77	10623.69
462.95	10492.62
463.13	10532.41
463.32	10764.12
463.50	10656.46
463.68	10841.36
463.86	10773.49
464.05	10506.66
464.23	10654.12
464.41	10731.36
464.59	10707.95
464.78	11028.60
464.96	10832.00
465.14	10611.99
465.32	11068.39
465.50	10984.13
465.69	10848.38
465.87	10979.45
466.05	10895.19
466.23	11159.67
466.41	11035.63
466.60	11248.61
466.78	10897.53
466.96	11145.63
467.14	11159.67
467.32	11272.02
467.51	11311.81
467.69	11122.23
467.87	11463.94
468.05	11232.23
468.23	11089.46
468.41	11154.99
468.60	11419.47
468.78	11435.86
468.96	11365.64
469.14	11531.82
469.32	11782.26
469.50	11274.36
469.69	11969.50
469.87	11786.94
470.05	11693.32
470.23	11779.92
470.41	11950.78
470.59	11831.41
470.77	11768.21
470.95	11962.48
471.14	12215.26
471.32	11740.13
471.50	12388.46
471.68	12245.68
471.86	12320.58
472.04	12390.80
472.22	12676.34
472.40	12418.88
472.58	12629.53
472.77	12236.32
472.95	12776.98
473.13	13128.06
473.31	12741.88
473.49	12784.01
473.67	12833.16
473.85	12933.80
474.03	13296.58
474.21	13350.42
474.39	13507.23
474.57	13369.14
474.75	13245.09
474.93	13631.28
475.12	13322.33
475.30	13516.59
475.48	13497.87
475.66	13764.69
475.84	13928.53
476.02	14097.05
476.20	14080.66
476.38	14045.55
476.56	14380.25
476.74	14310.04
476.92	14499.62
477.10	14295.99
477.28	14319.40
477.46	14572.18
477.64	14525.36
477.82	15192.42
478.00	15335.19
478.18	15173.69
478.36	15300.08
478.54	15590.31
478.72	15421.79
478.90	15672.23
479.08	15892.24
479.26	15838.41
479.44	15906.28
479.62	15978.84
479.80	16269.06
479.98	16531.20
480.16	16517.16
480.34	16610.78
480.52	16915.05
480.70	16648.23
480.88	16720.79
481.06	16936.12
481.24	17001.65
481.41	17156.13
481.59	17593.81
481.77	17303.58
481.95	17729.56
482.13	17867.65
482.31	17759.98
482.49	18181.28
482.67	18267.88
482.85	18401.29
483.03	18735.99
483.21	19089.41
483.39	18808.54
483.57	18869.40
483.74	19220.48
483.92	19215.80
484.10	18876.42
484.28	19393.68
484.46	19716.67
484.64	19845.40
484.82	19885.19
485.00	19789.23
485.18	20453.94
485.35	20491.39
485.53	20996.95
485.71	20762.89
485.89	21228.66
486.07	20751.19
486.25	21202.91
486.43	21474.42
486.61	21558.67
486.78	22010.40
486.96	22075.93
487.14	22043.17
487.32	22087.64
487.50	22368.50
487.68	22338.07
487.85	23056.62
488.03	22960.66
488.21	23236.84
488.39	23475.57
488.57	23367.91
488.75	23510.68
488.92	23697.92
489.10	23971.77
489.28	24065.39
489.46	24395.40
489.64	24336.89
489.81	24793.29
489.99	25013.31
490.17	24994.58
490.35	25170.12
490.53	25149.06
490.70	25919.09
490.88	26073.57
491.06	25553.97
491.24	25876.96
491.41	25825.47
491.59	26522.95
491.77	26267.83
491.95	26689.13
492.13	26848.29
492.30	27000.42
492.48	26752.32
492.66	27292.99
492.84	27686.20
493.01	27777.48
493.19	27674.49
493.37	28252.61
493.54	28404.74
493.72	27969.40
493.90	28011.53
494.08	29069.45
494.25	29280.10
494.43	28968.81
494.61	29116.26
494.79	29542.24
494.96	29221.59
495.14	29317.55
495.32	29530.54
495.49	29680.33
495.67	30040.78
495.85	30298.23
496.02	30686.76
496.20	30682.08
496.38	30431.65
496.55	30405.90
496.73	31117.42
496.91	30918.48
497.09	31484.89
497.26	31435.74
497.44	31337.43
497.62	31704.90
497.79	31803.20
497.97	31557.44
498.14	32636.43
498.32	32762.82
498.50	32746.44
498.67	33130.28
498.85	32364.93
499.03	32910.27
499.20	32978.15
499.38	33076.45
499.56	33345.61
499.73	33488.38
499.91	33270.72
500.08	33483.70
500.26	33455.62
500.44	33687.33
500.61	34157.78
500.79	33778.61
500.97	34305.23
501.14	34632.91
501.32	34682.06
501.49	34787.38
501.67	34614.18
501.84	35332.73
502.02	35000.37
502.20	35299.96
502.37	35370.18
502.55	35342.09
502.72	35379.54
502.90	35463.80
503.07	35498.91
503.25	35842.96
503.43	35889.77
503.60	36079.36
503.78	36313.41
503.95	36369.58
504.13	36224.47
504.30	36524.06
504.48	36318.09
504.65	36631.72
504.83	36549.81
505.01	37156.00
505.18	36926.63
505.36	37493.04
505.53	37235.58
505.71	37284.73
505.88	37284.73
506.06	37029.62
506.23	37904.98
506.41	37481.34
506.58	38010.30
506.76	38260.74
506.93	37888.59
507.11	38073.49
507.28	38237.33
507.46	38136.69
507.63	38579.05
507.81	38983.96
507.98	38667.99
508.16	38728.84
508.33	39061.20
508.50	38958.22
508.68	39407.60
508.85	39522.29
509.03	39440.37
509.20	40098.06
509.38	39676.76
509.55	39239.08
509.73	39922.52
509.90	39866.34
510.08	39945.92
510.25	39562.08
510.42	40266.58
510.60	40282.96
510.77	40793.20
510.95	40832.99
511.12	40498.29
511.30	40521.69
511.47	40818.94
511.64	41200.45
511.82	41242.58
511.99	41380.67
512.17	41216.83
512.34	41574.94
512.51	41794.95
512.69	41900.27
512.86	41605.36
513.04	42026.66
513.21	42139.00
513.38	42319.23
513.56	42330.93
513.73	42199.86
513.90	42220.92
514.08	42094.53
514.25	42232.63
514.43	42658.60
514.60	42920.74
514.77	42913.72
514.95	42784.99
515.12	42777.97
515.29	43037.77
515.47	42934.79
515.64	43203.95
515.81	43119.69
515.99	43433.32
516.16	43761.00
516.33	43510.56
516.51	44093.35
516.68	43817.17
516.85	43777.38
517.03	44025.48
517.20	43913.13
517.37	44245.49
517.54	44287.62
517.72	44261.87
517.89	44140.16
518.06	44268.89
518.24	44301.66
518.41	44762.75
518.58	44725.30
518.75	44774.45
518.93	45162.98
519.10	45219.15
519.27	45071.70
519.45	44755.72
519.62	45048.29
519.79	44767.43
519.96	45144.25
520.14	45436.82
520.31	45698.96
520.48	45993.87
520.65	45434.48
520.83	45439.16
521.00	45720.02
521.17	45867.48
521.34	45663.85
521.52	46157.70
521.69	46445.59
521.86	46562.62
522.03	46440.91
522.20	46127.28
522.38	46892.63
522.55	46555.60
522.72	46625.81
522.89	46904.34
523.07	46852.84
523.24	46827.10
523.41	46883.27
523.58	47007.32
523.75	47466.06
523.92	46944.12
524.10	47185.20
524.27	47711.82
524.44	47454.36
524.61	47749.27
524.78	47749.27
524.96	48149.50
525.13	47931.83
525.30	47903.74
525.47	47796.08
525.64	47938.85
525.81	48470.15
525.98	48542.71
526.16	48315.68
526.33	47861.61
526.50	48591.86
526.67	47922.47
526.84	48418.66
527.01	48189.29
527.18	48409.30
527.36	48573.14
527.53	48638.67
527.70	49022.52
527.87	49052.95
528.04	49038.90
528.21	48851.66
528.38	48711.23
528.55	48980.39
528.72	49029.54
528.89	49397.01
529.07	49179.34
529.24	49137.21
529.41	49343.17
529.58	49258.91
529.75	49207.42
529.92	49097.42
530.09	49310.41
530.26	49354.88
530.43	49511.69
530.60	49408.71
530.77	49406.37
530.94	49907.24
531.11	49268.28
531.28	49483.61
531.46	49710.64
531.63	49663.83
531.80	50019.59
531.97	50286.41
532.14	50277.05
532.31	50291.09
532.48	50417.48
532.65	50155.34
532.82	49757.45
532.99	50096.83
533.16	49991.50
533.33	50373.01
533.50	50831.75
533.67	50747.50
533.84	50553.23
534.01	50468.97
534.18	50653.87
534.35	50635.15
534.52	50806.01
534.69	50941.76
534.86	51136.02
535.03	50878.57
535.20	50534.51
535.37	50981.55
535.54	51150.07
535.71	50756.86
535.88	50806.01
536.05	51154.75
536.22	51503.49
536.38	51072.83
536.55	51309.22
536.72	51311.56
536.89	51304.54
537.06	51320.93
537.23	51650.94
537.40	51365.40
537.57	51147.73
537.74	51325.61
537.91	51767.97
538.08	52130.75
538.25	51463.70
538.42	51477.74
538.59	51910.74
538.75	51515.19
538.92	51870.95
539.09	52062.88
539.26	51985.64
539.43	51856.91
539.60	52027.77
539.77	51749.24
539.94	52032.45
540.11	51964.57
540.28	52151.82
540.44	52229.05
540.61	52011.38
540.78	52009.04
540.95	52215.01
541.12	52369.49
541.29	52222.03
541.46	52196.29
541.62	52392.89
541.79	52385.87
541.96	52205.65
542.13	52435.02
542.30	52650.35
542.47	52655.03
542.63	52615.24
542.80	53017.82
542.97	52968.66
543.14	52992.07
543.31	52839.93
543.48	52966.32
543.64	53179.31
543.81	53415.71
543.98	53191.01
544.15	53343.15
544.32	53247.19
544.48	53565.50
544.65	53059.94
544.82	53186.33
544.99	53296.34
545.16	53198.04
545.32	53183.99
545.49	53401.66
545.66	53516.35
545.83	53605.29
546.00	53652.10
546.16	53406.34
546.33	53336.13
546.50	52853.98
546.67	53389.96
546.83	53310.38
547.00	53694.23
547.17	53401.66
547.34	53659.12
547.50	54099.14
547.67	53640.40
547.84	53881.47
548.00	53776.15
548.17	53748.06
548.34	53886.15
548.51	53970.41
548.67	54162.34
548.84	54253.62
549.01	53773.81
549.18	53846.36
549.34	54040.63
549.51	54232.55
549.68	53972.75
549.84	54071.06
550.01	53975.09
550.18	53897.86
550.34	54216.17
550.51	54176.38
550.68	54358.94
550.84	53876.79
551.01	54344.90
551.18	54658.53
551.34	54089.78
551.51	54155.32
551.68	54387.03
551.84	54490.01
552.01	54244.26
552.18	54370.64
552.34	54239.57
552.51	54574.27
552.68	54197.44
552.84	54440.86
553.01	54672.57
553.18	54354.26
553.34	54546.18
553.51	54740.45
553.67	54684.28
553.84	54780.24
554.01	54731.09
554.17	54632.78
554.34	54775.56
554.51	54529.80
554.67	54829.39
554.84	54962.80
555.00	54817.69
555.17	54855.14
555.33	54763.85
555.50	55002.59
555.67	54864.50
555.83	54997.91
556.00	54901.95
556.16	54983.86
556.33	55063.44
556.50	54958.12
556.66	55058.76
556.83	55126.64
556.99	55253.03
557.16	55384.10
557.32	55299.84
557.49	55456.65
557.65	54726.41
557.82	55023.65
557.98	55187.49
558.15	55075.15
558.32	55365.37
558.48	55175.79
558.65	55531.55
558.81	55442.61
558.98	55437.93
559.14	55222.60
559.31	55164.09
559.47	55290.48
559.64	55302.18
559.80	55367.71
559.97	55473.04
560.13	55164.09
560.30	55444.95
560.46	55337.29
560.63	55356.01
560.79	55248.35
560.96	55583.04
561.12	55393.46
561.29	55430.91
561.45	55292.82
561.61	55569.00
561.78	55529.21
561.94	55594.74
562.11	55643.90
562.27	55566.66
562.44	55327.92
562.60	55639.22
562.77	55508.14
562.93	55395.80
563.10	55613.47
563.26	55498.78
563.42	56034.77
563.59	55891.99
563.75	55667.30
563.92	55657.94
564.08	55487.08
564.24	55419.20
564.41	55632.19
564.57	55709.43
564.74	55730.50
564.90	55751.56
565.07	55786.67
565.23	56002.00
565.39	55817.10
565.56	55859.23
565.72	55793.69
565.88	55538.57
566.05	55669.64
566.21	55746.88
566.38	55730.50
566.54	55730.50
566.70	55980.93
566.87	55985.61
567.03	55620.49
567.19	55798.37
567.36	56086.26
567.52	55770.28
567.68	55861.57
567.85	55760.92
568.01	55547.93
568.17	55718.79
568.34	56062.85
568.50	55945.83
568.66	55957.53
568.83	55936.46
568.99	55854.54
569.15	55964.55
569.32	55800.71
569.48	55636.87
569.64	55751.56
569.81	55702.41
569.97	55920.08
570.13	56128.39
570.30	56093.28
570.46	56168.18
570.62	56006.68
570.78	56119.02
570.95	55959.87
571.11	55674.32
571.27	55840.50
571.43	55931.78
571.60	56179.88
571.76	56006.68
571.92	56011.36
572.09	56016.04
572.25	56191.58
572.41	55955.19
572.57	55990.30
572.74	55931.78
572.90	55739.86
573.06	56069.87
573.22	55978.59
573.38	56100.30
573.55	56067.53
573.71	56402.23
573.87	56259.46
574.03	56163.50
574.20	56179.88
574.36	56044.13
574.52	56128.39
574.68	55789.01
574.84	55894.33
575.01	55889.65
575.17	56439.68
575.33	56128.39
575.49	56062.85
575.65	56126.05
575.82	56243.07
575.98	55889.65
576.14	56339.04
576.30	56217.33
576.46	56095.62
576.62	55791.35
576.79	56161.15
576.95	56083.92
577.11	56104.98
577.27	56189.24
577.43	56196.26
577.59	56142.43
577.75	56207.97
577.92	55920.08
578.08	56023.06
578.24	56030.08
578.40	56224.35
578.56	56013.70
578.72	56034.77
578.88	56355.42
579.04	56294.56
579.21	56268.82
579.37	56184.56
579.53	56324.99
579.69	56048.81
579.85	55985.61
580.01	56004.34
580.17	56023.06
580.33	56126.05
580.49	56193.92
580.65	56238.39
580.82	56212.65
580.98	56301.59
581.14	56451.38
581.30	56128.39
581.46	56306.27
581.62	56222.01
581.78	55927.10
581.94	56147.11
582.10	55980.93
582.26	56236.05
582.42	56306.27
582.58	56463.08
582.74	56114.34
582.90	56296.91
583.06	56266.48
583.22	56067.53
583.38	56121.37
583.54	56112.00
583.70	56214.99
583.86	56168.18
584.02	56133.07
584.18	56339.04
584.34	56348.40
584.50	56413.93
584.66	56161.15
584.82	56348.40
584.98	56268.82
585.14	56200.94
585.30	56074.55
585.46	56210.31
585.62	56170.52
585.78	56090.94
585.94	56104.98
586.10	56168.18
586.26	56418.61
586.42	56418.61
586.58	56425.64
586.74	56236.05
586.90	55945.83
587.06	56385.85
587.22	56341.38
587.38	56116.68
587.54	56090.94
587.70	56528.62
587.86	56392.87
588.02	56390.53
588.18	56535.64
588.34	56355.42
588.49	56236.05
588.65	56399.89
588.81	56346.06
588.97	56444.36
589.13	56041.79
589.29	56500.53
589.45	56315.63
589.61	56622.24
