SpectraSuite Data File
++++++++++++++++++++++++++++++++++++
Date: Fri Oct 18 13:55:30 GMT-05:00 2013
User: bianchi
Dark Spectrum Present: No
Reference Spectrum Present: No
Number of Sampled Component Spectra: 1
Spectrometers: USB2+H05261
Integration Time (usec): 100000 (USB2+H05261)
Spectra Averaged: 1 (USB2+H05261)
Boxcar Smoothing: 0 (USB2+H05261)
Correct for Electrical Dark: No (USB2+H05261)
Strobe/Lamp Enabled: No (USB2+H05261)
Correct for Detector Non-linearity: No (USB2+H05261)
Correct for Stray Light: No (USB2+H05261)
Number of Pixels in Processed Spectrum: 2048
>>>>>Begin Processed Spectral Data<<<<<
365.73	0.00
365.92	0.00
366.12	0.00
366.32	0.00
366.52	0.00
366.72	0.00
366.91	0.00
367.11	0.00
367.31	0.00
367.51	0.00
367.70	0.00
367.90	0.00
368.10	0.00
368.30	0.00
368.49	0.00
368.69	0.00
368.89	0.00
369.09	0.00
369.28	0.00
369.48	0.00
369.68	0.00
369.87	0.00
370.07	0.00
370.27	0.00
370.47	51.49
370.66	311.29
370.86	276.18
371.06	313.63
371.25	395.55
371.45	278.52
371.65	358.10
371.84	327.68
372.04	348.74
372.24	390.87
372.44	411.93
372.63	493.85
372.83	461.09
373.03	414.27
373.22	397.89
373.42	435.34
373.62	430.66
373.81	425.98
374.01	472.79
374.21	482.15
374.40	489.17
374.60	507.90
374.79	526.62
374.99	589.82
375.19	512.58
375.38	517.26
375.58	510.24
375.78	507.90
375.97	493.85
376.17	582.79
376.37	505.56
376.56	496.19
376.76	589.82
376.95	559.39
377.15	512.58
377.35	538.32
377.54	547.69
377.74	592.16
377.93	559.39
378.13	500.87
378.33	608.54
378.52	552.37
378.72	596.84
378.91	552.37
379.11	580.45
379.31	507.90
379.50	643.65
379.70	669.39
379.89	566.41
380.09	566.41
380.28	620.24
380.48	664.71
380.68	613.22
380.87	594.50
381.07	650.67
381.26	737.27
381.46	678.76
381.65	643.65
381.85	695.14
382.04	643.65
382.24	627.26
382.43	709.18
382.63	706.84
382.83	697.48
383.02	807.48
383.22	786.42
383.41	713.86
383.61	821.53
383.80	772.38
384.00	800.46
384.19	720.88
384.39	685.78
384.58	739.61
384.78	755.99
384.97	866.00
385.17	849.61
385.36	809.83
385.56	814.51
385.75	748.97
385.95	809.83
386.14	858.98
386.34	844.93
386.53	898.77
386.72	875.36
386.92	835.57
387.11	917.49
387.31	877.70
387.50	924.51
387.70	851.96
387.89	971.32
388.09	837.91
388.28	861.32
388.48	882.38
388.67	971.32
388.86	868.34
389.06	917.49
389.25	997.07
389.45	1039.20
389.64	887.06
389.84	999.41
390.03	1006.43
390.22	968.98
390.42	1041.54
390.61	882.38
390.81	961.96
391.00	1046.22
391.19	1062.60
391.39	964.30
391.58	1022.81
391.78	1086.01
391.97	1020.47
392.16	968.98
392.36	1125.80
392.55	1149.20
392.75	1071.97
392.94	1088.35
393.13	1074.31
393.33	1111.75
393.52	1090.69
393.71	1193.67
393.91	1090.69
394.10	1118.78
394.29	1116.44
394.49	1172.61
394.68	1128.14
394.88	1165.59
395.07	1345.81
395.26	1205.38
395.46	1224.10
395.65	1313.04
395.84	1334.11
396.04	1345.81
396.23	1376.24
396.42	1331.76
396.62	1380.92
396.81	1275.59
397.00	1329.42
397.19	1301.34
397.39	1376.24
397.58	1434.75
397.77	1327.08
397.97	1357.51
398.16	1359.85
398.35	1465.18
398.55	1310.70
398.74	1493.26
398.93	1526.03
399.12	1521.35
399.32	1430.07
399.51	1542.41
399.70	1582.20
399.90	1544.75
400.09	1568.16
400.28	1582.20
400.47	1614.97
400.67	1664.12
400.86	1661.78
401.05	1589.22
401.24	1586.88
401.44	1668.80
401.63	1699.23
401.82	1734.34
402.01	1605.61
402.21	1708.59
402.40	1668.80
402.59	1727.32
402.78	1811.57
402.97	1729.66
403.17	1776.47
403.36	1842.00
403.55	1839.66
403.74	1881.79
403.93	1881.79
404.13	1947.33
404.32	1900.52
404.51	1874.77
404.70	1926.26
404.89	1940.30
405.09	2001.16
405.28	2071.37
405.47	1989.46
405.66	2125.21
405.85	1987.11
406.05	1959.03
406.24	2092.44
406.43	2157.97
406.62	2076.06
406.81	2242.23
407.00	2139.25
407.20	2139.25
407.39	2195.42
407.58	2242.23
407.77	2286.70
407.96	2361.60
408.15	2317.13
408.34	2305.43
408.54	2223.51
408.73	2282.02
408.92	2368.62
409.11	2480.97
409.30	2417.77
409.49	2478.63
409.68	2473.95
409.87	2410.75
410.07	2502.03
410.26	2527.78
410.45	2424.80
410.64	2607.36
410.83	2483.31
411.02	2473.95
411.21	2633.10
411.40	2647.15
411.59	2757.15
411.78	2752.47
411.98	2661.19
412.17	2846.09
412.36	2792.26
412.55	2885.88
412.74	2874.18
412.93	2818.00
413.12	2757.15
413.31	3026.31
413.50	3009.93
413.69	2991.20
413.88	3185.47
414.07	3098.87
414.26	3171.43
414.45	3038.02
414.64	3150.36
414.83	3197.17
415.02	3281.43
415.22	3342.28
415.41	3447.61
415.60	3389.10
415.79	3440.59
415.98	3487.40
416.17	3442.93
416.36	3449.95
416.55	3590.38
416.74	3576.34
416.93	3581.02
417.12	3611.45
417.31	3613.79
417.50	3574.00
417.69	3740.18
417.88	3737.84
418.07	3707.41
418.26	3854.86
418.45	3836.14
418.64	3861.88
418.83	3941.46
419.02	3833.80
419.21	4039.76
419.39	4114.66
419.58	3901.67
419.77	3880.61
419.96	4030.40
420.15	4081.89
420.34	3962.53
420.53	4173.18
420.72	4191.90
420.91	4152.11
421.10	4156.79
421.29	4409.57
421.48	4173.18
421.67	4262.12
421.86	4266.80
422.05	4241.05
422.24	4278.50
422.43	4353.40
422.61	4344.03
422.80	4526.60
422.99	4379.14
423.18	4510.21
423.37	4498.51
423.56	4411.91
423.75	4409.57
423.94	4257.43
424.13	4072.53
424.32	4280.84
424.50	4610.86
424.69	4545.32
424.88	4404.89
425.07	4376.80
425.26	4486.81
425.45	4519.57
425.64	4498.51
425.83	4444.68
426.01	4514.89
426.20	4395.53
426.39	4486.81
426.58	4617.88
426.77	4571.07
426.96	4596.81
427.15	4634.26
427.33	4585.11
427.52	4655.33
427.71	4734.90
427.90	4725.54
428.09	4760.65
428.28	4704.48
428.46	4699.80
428.65	4746.61
428.84	5004.07
429.03	4961.94
429.22	4767.67
429.40	4952.57
429.59	4987.68
429.78	4784.06
429.97	4823.84
430.16	4971.30
430.34	5156.20
430.53	5167.90
430.72	5179.61
430.91	5015.77
431.10	5083.64
431.28	5263.86
431.47	5195.99
431.66	5282.59
431.85	5207.69
432.03	5359.83
432.22	5378.55
432.41	5338.76
432.60	5507.28
432.79	5338.76
432.97	5483.88
433.16	5378.55
433.35	5427.70
433.54	5617.29
433.72	5636.01
433.91	5453.45
434.10	5563.45
434.28	5479.19
434.47	5563.45
434.66	5643.03
434.85	5666.44
435.03	5769.42
435.22	5797.51
435.41	5933.26
435.59	5799.85
435.78	5891.13
435.97	5884.11
436.16	5802.19
436.34	5912.19
436.53	6087.73
436.72	6115.82
436.90	5949.64
437.09	6120.50
437.28	6024.54
437.46	6143.91
437.65	6113.48
437.84	6237.53
438.02	6155.61
438.21	6146.25
438.40	5994.11
438.58	6237.53
438.77	6420.09
438.96	6150.93
439.14	6525.41
439.33	6506.69
439.52	6560.52
439.70	6733.72
439.89	6642.44
440.08	6619.04
440.26	6555.84
440.45	6747.76
440.63	6757.13
440.82	6836.70
441.01	6773.51
441.19	6916.28
441.38	6963.09
441.57	6988.84
441.75	7066.08
441.94	7152.68
442.12	7131.61
442.31	7520.14
442.50	7527.16
442.68	7372.69
442.87	7236.94
443.05	7393.75
443.24	7506.10
443.43	7548.23
443.61	7592.70
443.80	7854.84
443.98	7382.05
444.17	7234.60
444.35	7613.76
444.54	7602.06
444.73	7620.78
444.91	7384.39
445.10	7578.65
445.28	7571.63
445.47	7590.36
445.65	7527.16
445.84	7793.98
446.02	7786.96
446.21	7590.36
446.39	7679.30
446.58	7817.39
446.77	7770.58
446.95	7566.95
447.14	7730.79
447.32	7730.79
447.51	7955.48
447.69	7726.11
447.88	7789.30
448.06	7789.30
448.25	7733.13
448.43	7838.45
448.62	7784.62
448.80	7761.22
448.99	7896.97
449.17	7779.94
449.36	7852.50
449.54	8124.00
449.73	8189.53
449.91	8365.07
450.10	8049.10
450.28	8402.52
450.46	8418.91
450.65	8098.25
450.83	8283.16
451.02	8306.56
451.20	8259.75
451.39	8444.65
451.57	8236.35
451.76	8339.33
451.94	8341.67
452.13	8568.70
452.31	8554.66
452.49	8189.53
452.68	8411.89
452.86	8315.92
453.05	8437.63
453.23	8734.88
453.42	8648.28
453.60	8552.32
453.78	8557.00
453.97	8582.74
454.15	8648.28
454.34	8854.25
454.52	8870.63
454.70	8905.74
454.89	8905.74
455.07	8870.63
455.26	9092.98
455.44	8971.27
455.62	8919.78
455.81	8947.87
455.99	9078.94
456.17	9109.36
456.36	9008.72
456.54	9181.92
456.73	9565.77
456.91	9415.98
457.09	9423.00
457.28	9525.98
457.46	9277.88
457.64	9586.83
457.83	9607.90
458.01	9259.16
458.19	9745.99
458.38	9586.83
458.56	9671.09
458.74	9750.67
458.93	9755.35
459.11	9540.02
459.29	9682.80
459.48	9827.91
459.66	9610.24
459.84	9769.40
460.03	10239.84
460.21	10029.20
460.39	10019.83
460.57	9785.78
460.76	9790.46
460.94	10169.63
461.12	10104.09
461.31	10207.08
461.49	10068.98
461.67	10113.45
461.85	10387.30
462.04	10448.15
462.22	11037.97
462.40	10700.93
462.59	10389.64
462.77	10614.33
462.95	10387.30
463.13	10373.25
463.32	10583.90
463.50	10740.72
463.68	10815.62
463.86	10499.64
464.05	10466.88
464.23	10562.84
464.41	10738.38
464.59	10555.82
464.78	10927.96
464.96	10780.51
465.14	10640.08
465.32	10768.80
465.50	11084.78
465.69	11002.86
465.87	10930.30
466.05	10942.00
466.23	10949.03
466.41	11152.65
466.60	11501.39
466.78	11091.80
466.96	11087.12
467.14	10972.43
467.32	11126.91
467.51	11468.62
467.69	11040.31
467.87	11061.37
468.05	11414.79
468.23	11047.33
468.41	11091.80
468.60	11520.12
468.78	11714.38
468.96	11169.04
469.14	11627.78
469.32	11674.59
469.50	11510.75
469.69	11770.55
469.87	11847.79
470.05	11969.50
470.23	11899.28
470.41	11822.05
470.59	12255.04
470.77	11702.68
470.95	12126.32
471.14	12259.73
471.32	11889.92
471.50	12393.14
471.68	12453.99
471.86	12343.99
472.04	12191.85
472.22	12479.74
472.40	12578.04
472.58	12514.84
472.77	12582.72
472.95	12575.70
473.13	13128.06
473.31	12500.80
473.49	13020.40
473.67	12681.02
473.85	12823.80
474.03	13174.88
474.21	13334.03
474.39	13202.96
474.57	13324.67
474.75	13493.19
474.93	13509.57
475.12	13558.72
475.30	13455.74
475.48	13645.32
475.66	13870.01
475.84	13778.73
476.02	13846.61
476.20	13860.65
476.38	14406.00
476.56	14464.51
476.74	14387.27
476.92	14012.79
477.10	14462.17
477.28	14539.41
477.46	14508.98
477.64	14693.88
477.82	15051.99
478.00	15293.06
478.18	14956.02
478.36	15337.53
478.54	15669.89
478.72	15695.63
478.90	15824.36
479.08	15845.43
479.26	16002.24
479.44	16215.23
479.62	16145.02
479.80	16217.57
479.98	16339.28
480.16	16697.38
480.34	16688.02
480.52	16879.94
480.70	16823.77
480.88	16606.10
481.06	16961.86
481.24	17158.47
481.41	17188.89
481.59	17301.24
481.77	17654.66
481.95	17563.38
482.13	17958.93
482.31	17717.86
482.49	18415.34
482.67	18513.64
482.85	18263.20
483.03	18602.58
483.21	18686.84
483.39	18775.78
483.57	18525.34
483.74	19150.26
483.92	19096.43
484.10	19253.25
484.28	19693.27
484.46	20201.16
484.64	20130.95
484.82	19878.17
485.00	20063.07
485.18	20402.45
485.35	20533.52
485.53	20416.49
485.71	20748.85
485.89	21231.00
486.07	21032.05
486.25	21413.56
486.43	21116.31
486.61	21537.61
486.78	21628.89
486.96	21846.56
487.14	22207.00
487.32	22258.49
487.50	22530.00
487.68	22562.76
487.85	23028.53
488.03	22881.08
488.21	23381.95
488.39	23566.85
488.57	23428.76
488.75	23484.94
488.92	23847.72
489.10	24020.92
489.28	24191.78
489.46	24425.83
489.64	24442.21
489.81	24805.00
489.99	24971.18
490.17	24992.24
490.35	25453.33
490.53	25458.01
490.70	25663.97
490.88	25563.33
491.06	25860.58
491.24	25755.26
491.41	26101.65
491.59	26307.62
491.77	26443.37
491.95	27000.42
492.13	27014.46
492.30	26771.05
492.48	27213.41
492.66	27033.19
492.84	26993.40
493.01	27527.04
493.19	27735.35
493.37	28313.46
493.54	28290.06
493.72	28121.54
493.90	28460.91
494.08	28779.23
494.25	28823.70
494.43	29109.24
494.61	29584.37
494.79	29425.22
494.96	29380.74
495.14	29406.49
495.32	29832.47
495.49	29783.32
495.67	30010.35
495.85	30216.32
496.02	29984.60
496.20	30576.76
496.38	30583.78
496.55	30412.92
496.73	31480.21
496.91	30892.73
497.09	31117.42
497.26	31763.41
497.44	31297.64
497.62	31981.08
497.79	31826.60
497.97	31592.55
498.14	32610.68
498.32	32739.41
498.50	32739.41
498.67	32652.81
498.85	32678.56
499.03	33031.98
499.20	33071.77
499.38	33493.07
499.56	33216.88
499.73	33221.56
499.91	33699.03
500.08	34150.76
500.26	33453.28
500.44	33670.95
500.61	33715.42
500.79	34562.69
500.97	34565.03
501.14	34679.72
501.32	34492.47
501.49	34574.39
501.67	34895.05
501.84	35016.75
502.02	34747.59
502.20	35393.58
502.37	35463.80
502.55	35835.94
502.72	35576.14
502.90	35517.63
503.07	35253.15
503.25	35882.75
503.43	35482.52
503.60	36128.51
503.78	35868.71
503.95	36652.79
504.13	35943.61
504.30	36198.73
504.48	36196.38
504.65	36755.77
504.83	36652.79
505.01	37371.33
505.18	37003.87
505.36	37357.29
505.53	37148.98
505.71	37041.32
505.88	37621.77
506.06	36842.37
506.23	38258.40
506.41	37701.35
506.58	38050.09
506.76	37912.00
506.93	38132.01
507.11	38014.98
507.28	38050.09
507.46	37865.19
507.63	38721.82
507.81	38986.30
507.98	38487.77
508.16	38855.23
508.33	38396.49
508.50	39388.88
508.68	38981.62
508.85	39091.63
509.03	39669.74
509.20	39929.54
509.38	39636.97
509.55	40187.00
509.73	40025.50
509.90	40179.98
510.08	39828.90
510.25	39936.56
510.42	39974.01
510.60	40472.54
510.77	40755.75
510.95	40538.08
511.12	40168.27
511.30	40580.21
511.47	41013.21
511.64	40844.69
511.82	41509.40
511.99	40973.42
512.17	41090.44
512.34	41668.56
512.51	41488.34
512.69	41825.37
512.86	42279.44
513.04	42188.16
513.21	41811.33
513.38	41989.21
513.56	42192.84
513.73	41914.31
513.90	42265.39
514.08	42349.65
514.25	42869.25
514.43	42820.10
514.60	42923.08
514.77	43014.37
514.95	42988.62
515.12	42890.32
515.29	42941.81
515.47	43330.34
515.64	43573.75
515.81	43697.80
515.99	43782.06
516.16	43798.44
516.33	44013.77
516.51	44376.56
516.68	43636.95
516.85	43817.17
517.03	44268.89
517.20	43835.89
517.37	44093.35
517.54	44439.75
517.72	44299.32
517.89	44629.34
518.06	44610.61
518.24	44678.49
518.41	44399.96
518.58	44664.44
518.75	44645.72
518.93	44832.96
519.10	45420.44
519.27	45085.74
519.45	45062.33
519.62	45062.33
519.79	45050.63
519.96	45221.49
520.14	45645.13
520.31	45668.53
520.48	45787.90
520.65	45928.33
520.83	45778.54
521.00	45914.29
521.17	45680.24
521.34	46127.28
521.52	45729.39
521.69	46450.27
521.86	46588.36
522.03	47131.37
522.20	46710.07
522.38	46684.33
522.55	46717.09
522.72	46752.20
522.89	46649.22
523.07	47325.63
523.24	47229.67
523.41	46979.23
523.58	46925.40
523.75	47384.15
523.92	46820.08
524.10	47206.26
524.27	47555.00
524.44	47419.25
524.61	47789.06
524.78	48004.39
524.96	47669.69
525.13	47908.43
525.30	48004.39
525.47	47704.80
525.64	47704.80
525.81	48102.69
525.98	48456.11
526.16	48374.19
526.33	48287.59
526.50	48945.28
526.67	48334.40
526.84	48580.16
527.01	48680.80
527.18	48308.66
527.36	48736.98
527.53	48877.41
527.70	48978.05
527.87	49048.27
528.04	48811.87
528.21	49277.64
528.38	48589.52
528.55	49113.80
528.72	48835.28
528.89	49268.28
529.07	49057.63
529.24	49020.18
529.41	49209.76
529.58	48823.58
529.75	48861.02
529.92	48987.41
530.09	49425.09
530.26	49900.22
530.43	49869.79
530.60	49378.28
530.77	49593.61
530.94	49869.79
531.11	49797.24
531.28	49846.39
531.46	49911.92
531.63	50017.25
531.80	50007.89
531.97	50508.76
532.14	50447.91
532.31	50223.22
532.48	50162.36
532.65	50145.98
532.82	50218.53
532.99	50258.32
533.16	49855.75
533.33	50588.34
533.50	50738.13
533.67	50567.27
533.84	50450.25
534.01	50829.41
534.18	50342.58
534.35	50782.60
534.52	50761.54
534.69	51072.83
534.86	51224.96
535.03	50894.95
535.20	51302.20
535.37	51217.94
535.54	51164.11
535.71	50983.89
535.88	51306.88
536.05	50930.06
536.22	51381.78
536.38	51470.72
536.55	51688.39
536.72	51550.30
536.89	51391.14
537.06	51356.03
537.23	51571.36
537.40	51269.43
537.57	51430.93
537.74	51592.43
537.91	52090.96
538.08	51648.60
538.25	51697.75
538.42	51536.26
538.59	52023.09
538.75	51538.60
538.92	51821.80
539.09	51978.62
539.26	51943.51
539.43	51957.55
539.60	52170.54
539.77	51964.57
539.94	52317.99
540.11	52025.43
540.28	52435.02
540.44	51980.96
540.61	52210.33
540.78	52332.04
540.95	52170.54
541.12	52144.80
541.29	52561.41
541.46	52704.18
541.62	52226.71
541.79	52355.44
541.96	52238.42
542.13	52247.78
542.30	52633.97
542.47	52453.75
542.63	52678.44
542.80	52889.09
542.97	53104.41
543.14	52900.79
543.31	52868.02
543.48	52788.44
543.64	53404.00
543.81	53233.14
543.98	53249.53
544.15	53235.48
544.32	53427.41
544.48	53434.43
544.65	53092.71
544.82	53263.57
544.99	52924.19
545.16	53312.72
545.32	53085.69
545.49	53787.85
545.66	53949.35
545.83	53602.95
546.00	53928.28
546.16	53265.91
546.33	53567.84
546.50	53366.55
546.67	53766.79
546.83	53279.96
547.00	53710.61
547.17	53675.51
547.34	53708.27
547.50	53932.96
547.67	53930.62
547.84	53822.96
548.00	53914.24
548.17	53841.68
548.34	53914.24
548.51	54300.43
548.67	54080.42
548.84	54160.00
549.01	53851.05
549.18	54354.26
549.34	54085.10
549.51	54150.63
549.68	53923.60
549.84	54040.63
550.01	54169.36
550.18	54054.67
550.34	54330.86
550.51	54511.08
550.68	54590.66
550.84	53991.48
551.01	54539.16
551.18	54127.23
551.34	54108.50
551.51	54583.63
551.68	54356.60
551.84	54607.04
552.01	54152.97
552.18	54543.84
552.34	54403.41
552.51	54468.95
552.68	54365.96
552.84	54389.37
553.01	54588.31
553.18	54595.34
553.34	54733.43
553.51	54485.33
553.67	54808.32
553.84	54934.71
554.01	54981.52
554.17	54789.60
554.34	54848.11
554.51	54841.09
554.67	54672.57
554.84	54625.76
555.00	54925.35
555.17	54953.44
555.33	54789.60
555.50	54934.71
555.67	54962.80
555.83	55091.53
556.00	54883.22
556.16	55217.92
556.33	54841.09
556.50	55028.34
556.66	54887.90
556.83	55049.40
556.99	55374.73
557.16	55566.66
557.32	55189.83
557.49	55206.22
557.65	54880.88
557.82	54927.69
557.98	55126.64
558.15	55444.95
558.32	55292.82
558.48	55175.79
558.65	55543.25
558.81	55229.62
558.98	55526.87
559.14	55121.96
559.31	55215.58
559.47	55182.81
559.64	55480.06
559.80	55323.24
559.97	55508.14
560.13	55400.48
560.30	55458.99
560.46	55629.85
560.63	55444.95
560.79	55643.90
560.96	55655.60
561.12	55285.79
561.29	55515.17
561.45	55379.42
561.61	55774.97
561.78	55580.70
561.94	55686.03
562.11	55739.86
562.27	55608.79
562.44	55449.63
562.60	55393.46
562.77	55772.63
562.93	55435.59
563.10	55767.94
563.26	55561.98
563.42	55854.54
563.59	55756.24
563.75	55615.81
563.92	55711.77
564.08	55791.35
564.24	55756.24
564.41	55470.70
564.57	55695.39
564.74	55784.33
564.90	55866.25
565.07	55835.82
565.23	55777.31
565.39	55784.33
565.56	55723.47
565.72	55660.28
565.88	55772.63
566.05	55896.67
566.21	55714.11
566.38	55742.20
566.54	55889.65
566.70	55866.25
566.87	55924.76
567.03	55765.60
567.19	55791.35
567.36	55955.19
567.52	55873.27
567.68	55854.54
567.85	55803.05
568.01	55812.41
568.17	55920.08
568.34	56198.60
568.50	56083.92
568.66	55985.61
568.83	56090.94
568.99	56090.94
569.15	55840.50
569.32	55990.30
569.48	55849.86
569.64	55994.98
569.81	55894.33
569.97	56044.13
570.13	55929.44
570.30	55730.50
570.46	55906.04
570.62	56282.86
570.78	56081.58
570.95	55973.91
571.11	55978.59
571.27	55639.22
571.43	56023.06
571.60	56044.13
571.76	56076.90
571.92	56280.52
572.09	56252.44
572.25	56065.19
572.41	56142.43
572.57	56229.03
572.74	56184.56
572.90	55966.89
573.06	55838.16
573.22	55880.29
573.38	56104.98
573.55	56212.65
573.71	56467.76
573.87	56362.44
574.03	56062.85
574.20	56177.54
574.36	56112.00
574.52	56329.67
574.68	56107.32
574.84	56016.04
575.01	56062.85
575.17	56119.02
575.33	56104.98
575.49	56224.35
575.65	56332.01
575.82	56430.32
575.98	56179.88
576.14	56207.97
576.30	56161.15
576.46	55973.91
576.62	55983.27
576.79	56133.07
576.95	56104.98
577.11	56329.67
577.27	56219.67
577.43	56219.67
577.59	55917.74
577.75	56268.82
577.92	56172.86
578.08	55828.80
578.24	56072.21
578.40	56034.77
578.56	56217.33
578.72	56355.42
578.88	56289.88
579.04	56292.22
579.21	56107.32
579.37	56191.58
579.53	56341.38
579.69	56142.43
579.85	56002.00
580.01	56100.30
580.17	56385.85
580.33	56226.69
580.49	56214.99
580.65	56388.19
580.82	56409.25
580.98	56425.64
581.14	56112.00
581.30	56474.79
581.46	56095.62
581.62	56200.94
581.78	55957.53
581.94	56470.11
582.10	56133.07
582.26	56261.80
582.42	56364.78
582.58	56364.78
582.74	56427.98
582.90	56257.12
583.06	56563.73
583.22	56254.78
583.38	56083.92
583.54	56184.56
583.70	56088.60
583.86	56254.78
584.02	56140.09
584.18	56505.21
584.34	56465.42
584.50	56413.93
584.66	56339.04
584.82	56067.53
584.98	56226.69
585.14	56374.14
585.30	56250.09
585.46	56402.23
585.62	56121.37
585.78	56320.31
585.94	56222.01
586.10	56381.16
586.26	56254.78
586.42	56437.34
586.58	56488.83
586.74	56360.10
586.90	56233.71
587.06	56236.05
587.22	56140.09
587.38	56032.42
587.54	56397.55
587.70	56535.64
587.86	56636.28
588.02	56514.58
588.18	56671.39
588.34	56460.74
588.49	56589.47
588.65	56369.46
588.81	56336.69
588.97	56317.97
589.13	56336.69
589.29	56446.70
589.45	56362.44
589.61	56657.35
