SpectraSuite Data File
++++++++++++++++++++++++++++++++++++
Date: Fri Oct 18 13:55:24 GMT-05:00 2013
User: bianchi
Dark Spectrum Present: No
Reference Spectrum Present: No
Number of Sampled Component Spectra: 1
Spectrometers: USB2+H05261
Integration Time (usec): 100000 (USB2+H05261)
Spectra Averaged: 1 (USB2+H05261)
Boxcar Smoothing: 0 (USB2+H05261)
Correct for Electrical Dark: No (USB2+H05261)
Strobe/Lamp Enabled: No (USB2+H05261)
Correct for Detector Non-linearity: No (USB2+H05261)
Correct for Stray Light: No (USB2+H05261)
Number of Pixels in Processed Spectrum: 2048
>>>>>Begin Processed Spectral Data<<<<<
365.73	0.00
365.92	0.00
366.12	0.00
366.32	0.00
366.52	0.00
366.72	0.00
366.91	0.00
367.11	0.00
367.31	0.00
367.51	0.00
367.70	0.00
367.90	0.00
368.10	0.00
368.30	0.00
368.49	0.00
368.69	0.00
368.89	0.00
369.09	0.00
369.28	0.00
369.48	0.00
369.68	0.00
369.87	0.00
370.07	0.00
370.27	0.00
370.47	46.81
370.66	220.01
370.86	297.25
371.06	337.04
371.25	367.46
371.45	315.97
371.65	411.93
371.84	341.72
372.04	374.49
372.24	320.65
372.44	381.51
372.63	447.04
372.83	477.47
373.03	440.02
373.22	402.57
373.42	440.02
373.62	535.98
373.81	475.13
374.01	491.51
374.21	475.13
374.40	451.72
374.60	543.00
374.79	491.51
374.99	540.66
375.19	512.58
375.38	538.32
375.58	491.51
375.78	601.52
375.97	524.28
376.17	592.16
376.37	470.45
376.56	552.37
376.76	528.96
376.95	613.22
377.15	489.17
377.35	554.71
377.54	571.09
377.74	559.39
377.93	596.84
378.13	613.22
378.33	620.24
378.52	585.13
378.72	589.82
378.91	606.20
379.11	543.00
379.31	669.39
379.50	580.45
379.70	643.65
379.89	627.26
380.09	669.39
380.28	653.01
380.48	678.76
380.68	627.26
380.87	653.01
381.07	727.91
381.26	725.57
381.46	648.33
381.65	634.29
381.85	653.01
382.04	645.99
382.24	716.20
382.43	709.18
382.63	699.82
382.83	784.08
383.02	849.61
383.22	741.95
383.41	765.36
383.61	744.29
383.80	727.91
384.00	737.27
384.19	767.70
384.39	805.14
384.58	814.51
384.78	744.29
384.97	837.91
385.17	760.67
385.36	805.14
385.56	772.38
385.75	823.87
385.95	833.23
386.14	858.98
386.34	835.57
386.53	849.61
386.72	856.64
386.92	931.53
387.11	908.13
387.31	884.72
387.50	798.12
387.70	849.61
387.89	866.00
388.09	957.28
388.28	805.14
388.48	966.64
388.67	1013.45
388.86	926.85
389.06	983.02
389.25	973.66
389.45	985.37
389.64	926.85
389.84	1060.26
390.03	954.94
390.22	1046.22
390.42	959.62
390.61	1034.52
390.81	1060.26
391.00	1018.13
391.19	1076.65
391.39	1062.60
391.58	1008.77
391.78	1123.46
391.97	1050.90
392.16	1029.84
392.36	1240.48
392.55	1188.99
392.75	1067.28
392.94	1053.24
393.13	1109.41
393.33	1104.73
393.52	1146.86
393.71	1130.48
393.91	1191.33
394.10	1130.48
394.29	1303.68
394.49	1118.78
394.68	1177.29
394.88	1228.78
395.07	1177.29
395.26	1277.93
395.46	1284.95
395.65	1348.15
395.84	1224.10
396.04	1516.67
396.23	1331.76
396.42	1245.16
396.62	1427.73
396.81	1357.51
397.00	1364.53
397.19	1350.49
397.39	1341.13
397.58	1390.28
397.77	1385.60
397.97	1334.11
398.16	1413.68
398.35	1434.75
398.55	1315.38
398.74	1486.24
398.93	1488.58
399.12	1554.12
399.32	1458.15
399.51	1500.28
399.70	1528.37
399.90	1535.39
400.09	1647.74
400.28	1701.57
400.47	1558.80
400.67	1593.90
400.86	1636.03
401.05	1717.95
401.24	1806.89
401.44	1710.93
401.63	1724.97
401.82	1778.81
402.01	1717.95
402.21	1732.00
402.40	1696.89
402.59	1710.93
402.78	1746.04
402.97	1792.85
403.17	1809.23
403.36	1877.11
403.55	1832.64
403.74	1874.77
403.93	1881.79
404.13	1952.01
404.32	1860.73
404.51	1966.05
404.70	1867.75
404.89	1959.03
405.09	1919.24
405.28	1942.64
405.47	1914.56
405.66	2197.76
405.85	2127.55
406.05	2085.42
406.24	2195.42
406.43	2129.89
406.62	2174.36
406.81	2239.89
407.00	2221.17
407.20	2183.72
407.39	2165.00
407.58	2331.17
407.77	2279.68
407.96	2307.77
408.15	2303.09
408.34	2246.91
408.54	2408.41
408.73	2328.83
408.92	2300.75
409.11	2478.63
409.30	2551.18
409.49	2469.27
409.68	2480.97
409.87	2499.69
410.07	2555.86
410.26	2539.48
410.45	2520.76
410.64	2647.15
410.83	2644.81
411.02	2626.08
411.21	2654.17
411.40	2698.64
411.59	2574.59
411.78	2745.45
411.98	2621.40
412.17	2857.79
412.36	2855.45
412.55	2942.05
412.74	2867.16
412.93	2890.56
413.12	2820.35
413.31	3101.21
413.50	3066.10
413.69	3063.76
413.88	3208.87
414.07	3136.32
414.26	3260.37
414.45	3211.22
414.64	3265.05
414.83	3365.69
415.02	3412.50
415.22	3365.69
415.41	3426.54
415.60	3445.27
415.79	3461.65
415.98	3508.46
416.17	3545.91
416.36	3522.51
416.55	3644.21
416.74	3578.68
416.93	3548.25
417.12	3576.34
417.31	3761.24
417.50	3723.79
417.69	3908.69
417.88	3840.82
418.07	3735.50
418.26	3712.09
418.45	3889.97
418.64	4009.34
418.83	4049.13
419.02	4138.07
419.21	4147.43
419.39	4077.21
419.58	3997.64
419.77	4100.62
419.96	4308.93
420.15	4140.41
420.34	4142.75
420.53	4114.66
420.72	4194.24
420.91	4287.86
421.10	4315.95
421.29	4423.61
421.48	4257.43
421.67	4437.66
421.86	4219.99
422.05	4259.78
422.24	4360.42
422.43	4264.46
422.61	4432.97
422.80	4512.55
422.99	4407.23
423.18	4545.32
423.37	4484.47
423.56	4451.70
423.75	4444.68
423.94	4503.19
424.13	4166.15
424.32	4344.03
424.50	4601.49
424.69	4650.64
424.88	4568.73
425.07	4557.02
425.26	4430.63
425.45	4489.15
425.64	4608.51
425.83	4568.73
426.01	4629.58
426.20	4627.24
426.39	4725.54
426.58	4702.14
426.77	4662.35
426.96	4690.43
427.15	4709.16
427.33	4784.06
427.52	4788.74
427.71	5027.47
427.90	4755.97
428.09	4781.71
428.28	4887.04
428.46	5188.97
428.65	4833.21
428.84	4980.66
429.03	5203.01
429.22	5095.35
429.40	5111.73
429.59	5153.86
429.78	4922.15
429.97	4837.89
430.16	4865.97
430.34	5198.33
430.53	5268.55
430.72	5224.08
430.91	5039.17
431.10	5165.56
431.28	5313.02
431.47	5235.78
431.66	5378.55
431.85	5315.36
432.03	5455.79
432.22	5526.00
432.41	5437.06
432.60	5584.52
432.79	5425.36
432.97	5535.37
433.16	5425.36
433.35	5430.04
433.54	5591.54
433.72	5614.95
433.91	5570.48
434.10	5603.24
434.28	5825.59
434.47	5799.85
434.66	5762.40
434.85	5760.06
435.03	5827.93
435.22	5830.27
435.41	5975.39
435.59	5860.70
435.78	5895.81
435.97	5881.77
436.16	5804.53
436.34	5937.94
436.53	5891.13
436.72	6256.25
436.90	5916.87
437.09	6125.18
437.28	5975.39
437.46	6078.37
437.65	6160.29
437.84	6408.39
438.02	6253.91
438.21	6155.61
438.40	6218.80
438.58	6485.62
438.77	6520.73
438.96	6370.94
439.14	6537.12
439.33	6513.71
439.52	6588.61
439.70	6710.32
439.89	6920.96
440.08	6670.53
440.26	6785.21
440.45	6895.22
440.63	6817.98
440.82	7077.78
441.01	7066.08
441.19	7145.66
441.38	7225.23
441.57	7279.07
441.75	7241.62
441.94	7311.83
442.12	7314.17
442.31	7417.16
442.50	7459.29
442.68	7461.63
442.87	7335.24
443.05	7552.91
443.24	7578.65
443.43	7644.19
443.61	7604.40
443.80	7847.82
443.98	7344.60
444.17	7396.09
444.35	7620.78
444.54	7831.43
444.73	7604.40
444.91	7742.49
445.10	7801.01
445.28	7971.86
445.47	7702.70
445.65	7641.85
445.84	7831.43
446.02	7721.43
446.21	7751.85
446.39	7789.30
446.58	7903.99
446.77	7927.39
446.95	7740.15
447.14	7744.83
447.32	7918.03
447.51	7906.33
447.69	8023.36
447.88	7775.26
448.06	7906.33
448.25	7908.67
448.43	7978.89
448.62	7896.97
448.80	8018.68
448.99	7967.18
449.17	8189.53
449.36	7929.74
449.54	8334.65
449.73	8224.64
449.91	8355.71
450.10	8095.91
450.28	8404.86
450.46	8585.08
450.65	8388.48
450.83	8407.20
451.02	8559.34
451.20	8425.93
451.39	8589.77
451.57	8582.74
451.76	8547.64
451.94	8423.59
452.13	8791.05
452.31	8582.74
452.49	8407.20
452.68	8514.87
452.86	8753.60
453.05	8779.35
453.23	8730.20
453.42	8823.82
453.60	8599.13
453.78	8755.94
453.97	8755.94
454.15	8809.78
454.34	8652.96
454.52	9032.13
454.70	8814.46
454.89	8926.80
455.07	8999.36
455.26	9076.60
455.44	9308.31
455.62	9242.78
455.81	9291.93
455.99	9015.74
456.17	9320.01
456.36	9263.84
456.54	9441.72
456.73	9451.08
456.91	9776.42
457.09	9603.22
457.28	9921.53
457.46	9554.07
457.64	9937.91
457.83	9699.18
458.01	9748.33
458.19	9975.36
458.38	9652.37
458.56	10036.22
458.74	10031.54
458.93	9844.29
459.11	9975.36
459.29	9949.62
459.48	10160.27
459.66	9942.60
459.84	10181.33
460.03	10333.47
460.21	10001.11
460.39	10244.52
460.57	10047.92
460.76	10321.76
460.94	10218.78
461.12	10310.06
461.31	10345.17
461.49	10373.25
461.67	10253.89
461.85	10583.90
462.04	10464.54
462.22	10696.25
462.40	10633.05
462.59	10417.72
462.77	10635.39
462.95	10623.69
463.13	10726.68
463.32	10773.49
463.50	10892.85
463.68	10899.87
463.86	11014.56
464.05	10473.90
464.23	11012.22
464.41	11026.26
464.59	10771.15
464.78	11002.86
464.96	10974.77
465.14	11047.33
465.32	11201.80
465.50	11283.72
465.69	11316.49
465.87	10913.92
466.05	10920.94
466.23	11265.00
466.41	11206.48
466.60	11531.82
466.78	11353.94
466.96	11197.12
467.14	11321.17
467.32	11365.64
467.51	11557.57
467.69	11461.60
467.87	11501.39
468.05	11489.69
468.23	11300.11
468.41	11534.16
468.60	11669.91
468.78	11793.96
468.96	11651.19
469.14	11700.34
469.32	11880.56
469.50	11719.06
469.69	11974.18
469.87	12002.27
470.05	12086.53
470.23	12070.14
470.41	11974.18
470.59	12128.66
470.77	11999.93
470.95	12458.67
471.14	12278.45
471.32	12231.64
471.50	12765.28
471.68	12315.90
471.86	12533.57
472.04	12622.51
472.22	13177.22
472.40	12437.61
472.58	12821.45
472.77	12882.31
472.95	12919.76
473.13	13366.80
473.31	13193.60
473.49	12961.89
473.67	13064.87
473.85	13160.83
474.03	13226.37
474.21	13462.76
474.39	13528.30
474.57	13334.03
474.75	13446.38
474.93	13757.67
475.12	13502.55
475.30	13980.02
475.48	13937.89
475.66	14071.30
475.84	13792.78
476.02	14101.73
476.20	14253.86
476.38	14541.75
476.56	14576.86
476.74	14590.90
476.92	14719.63
477.10	14537.07
477.28	14764.10
477.46	14883.47
477.64	14808.57
477.82	15136.24
478.00	15330.51
478.18	15604.35
478.36	15597.33
478.54	15777.55
478.72	16025.65
478.90	15840.75
479.08	16006.92
479.26	15969.48
479.44	16435.24
479.62	16652.91
479.80	16327.58
479.98	16727.81
480.16	17137.40
480.34	16643.55
480.52	16917.39
480.70	17216.98
480.88	16776.96
481.06	17128.04
481.24	17216.98
481.41	17366.78
481.59	18038.51
481.77	18174.26
481.95	18092.34
482.13	18106.38
482.31	18092.34
482.49	18396.61
482.67	18476.19
482.85	18801.52
483.03	19152.60
483.21	18970.04
483.39	18920.89
483.57	19250.91
483.74	19250.91
483.92	19325.80
484.10	19152.60
484.28	19901.58
484.46	20212.87
484.64	20402.45
484.82	19871.15
485.00	20655.23
485.18	20875.24
485.35	21095.25
485.53	20957.16
485.71	21673.36
485.89	21589.10
486.07	21317.60
486.25	21523.57
486.43	21853.58
486.61	21825.50
486.78	22139.13
486.96	22424.67
487.14	22616.60
487.32	22668.09
487.50	22705.54
487.68	23021.51
487.85	23285.99
488.03	23585.58
488.21	23625.37
488.39	23686.22
488.57	24060.71
488.75	23854.74
488.92	24393.06
489.10	24577.97
489.28	24680.95
489.46	24980.54
489.64	25146.72
489.81	25422.90
489.99	25298.85
490.17	25575.03
490.35	25867.60
490.53	25806.75
490.70	26389.54
490.88	26197.62
491.06	26522.95
491.24	26403.58
491.41	26604.87
491.59	26700.83
491.77	26742.96
491.95	27580.87
492.13	27716.62
492.30	27400.65
492.48	27538.74
492.66	27948.34
492.84	27714.28
493.01	28231.54
493.19	28095.79
493.37	28837.74
493.54	28744.12
493.72	28762.84
493.90	28760.50
494.08	29104.56
494.25	29315.21
494.43	29727.14
494.61	30059.50
494.79	30445.69
494.96	29640.54
495.14	30328.66
495.32	30338.02
495.49	30668.04
495.67	31072.95
495.85	30991.03
496.02	31311.69
496.20	31220.41
496.38	30869.33
496.55	31321.05
496.73	32126.19
496.91	31576.17
497.09	32039.59
497.26	32210.45
497.44	32140.24
497.62	32388.33
497.79	32540.47
497.97	32484.30
498.14	32978.15
498.32	32821.33
498.50	33102.20
498.67	33537.54
498.85	33275.40
499.03	33701.37
499.20	33373.70
499.38	33542.22
499.56	33923.72
499.73	34326.30
499.91	34415.24
500.08	34274.80
500.26	34043.09
500.44	34602.48
500.61	34440.98
500.79	34522.90
500.97	34763.98
501.14	35475.50
501.32	35337.41
501.49	35138.46
501.67	35206.34
501.84	35173.57
502.02	35793.81
502.20	35952.97
502.37	35611.25
502.55	35999.78
502.72	36130.85
502.90	36210.43
503.07	36044.25
503.25	36180.00
503.43	36250.22
503.60	36591.94
503.78	36713.64
503.95	36741.73
504.13	36935.99
504.30	36947.70
504.48	36608.32
504.65	37235.58
504.83	37881.57
505.01	37790.29
505.18	37687.31
505.36	38333.29
505.53	37675.60
505.71	37923.70
505.88	37717.73
506.06	38022.00
506.23	38319.25
506.41	38431.60
506.58	38520.54
506.76	38749.91
506.93	38682.03
507.11	38518.20
507.28	39047.16
507.46	39232.06
507.63	39555.05
507.81	39763.36
507.98	38972.26
508.16	39316.32
508.33	39543.35
508.50	39594.84
508.68	39611.23
508.85	40187.00
509.03	39868.69
509.20	40254.87
509.38	40573.19
509.55	40367.22
509.73	40081.67
509.90	40430.41
510.08	41186.41
510.25	40460.84
510.42	40767.45
510.60	41523.44
510.77	41404.08
510.95	41551.53
511.12	41071.72
511.30	41523.44
511.47	41673.24
511.64	41968.15
511.82	41918.99
511.99	41963.46
512.17	42321.57
512.34	41813.67
512.51	42742.86
512.69	42272.42
512.86	42288.80
513.04	42740.52
513.21	42621.16
513.38	42953.51
513.56	43049.47
513.73	42993.30
513.90	42862.23
514.08	42962.87
514.25	43056.50
514.43	43405.23
514.60	43606.52
514.77	43803.13
514.95	43807.81
515.12	43349.06
515.29	43676.74
515.47	43838.23
515.64	44203.36
515.81	44275.91
515.99	44222.08
516.16	44645.72
516.33	44669.12
516.51	44500.61
516.68	44580.18
516.85	44673.81
517.03	44671.46
517.20	45048.29
517.37	44631.68
517.54	45411.07
517.72	45109.14
517.89	44687.85
518.06	45041.27
518.24	44947.65
518.41	44900.84
518.58	45631.08
518.75	45640.45
518.93	45734.07
519.10	45432.14
519.27	45961.10
519.45	45799.60
519.62	46298.14
519.79	45780.88
519.96	46026.63
520.14	46492.40
520.31	45940.04
520.48	46358.99
520.65	46607.09
520.83	46410.48
521.00	47019.02
521.17	46789.65
521.34	46721.77
521.52	46911.36
521.69	46714.75
521.86	47185.20
522.03	47789.06
522.20	47400.53
522.38	47421.59
522.55	47320.95
522.72	47047.11
522.89	47515.22
523.07	48027.79
523.24	47674.37
523.41	48020.77
523.58	47849.91
523.75	48219.72
523.92	47732.89
524.10	48163.54
524.27	48027.79
524.44	48161.20
524.61	48348.45
524.78	48406.96
524.96	48446.75
525.13	48540.37
525.30	48760.38
525.47	48645.69
525.64	48755.70
525.81	48949.96
525.98	49556.16
526.16	48807.19
526.33	48942.94
526.50	49462.54
526.67	49132.53
526.84	49015.50
527.01	49069.33
527.18	49443.82
527.36	49275.30
527.53	49666.17
527.70	49661.49
527.87	49822.98
528.04	49249.55
528.21	49340.83
528.38	49275.30
528.55	49745.75
528.72	49516.37
528.89	49958.73
529.07	49785.54
529.24	49724.68
529.41	49865.11
529.58	49731.70
529.75	49895.54
529.92	50153.00
530.09	49888.52
530.26	50300.45
530.43	50202.15
530.60	50244.28
530.77	50454.93
530.94	50590.68
531.11	50197.47
531.28	50475.99
531.46	50515.78
531.63	50543.87
531.80	50829.41
531.97	50930.06
532.14	50965.17
532.31	50883.25
532.48	51075.17
532.65	50801.33
532.82	50747.50
532.99	50838.78
533.16	50775.58
533.33	50960.48
533.50	51468.38
533.67	51299.86
533.84	51299.86
534.01	51398.16
534.18	50932.40
534.35	51304.54
534.52	51388.80
534.69	51601.79
534.86	51756.27
535.03	51562.00
535.20	51791.37
535.37	51934.15
535.54	51573.70
535.71	51391.14
535.88	51650.94
536.05	51887.34
536.22	51985.64
536.38	51995.00
536.55	51924.78
536.72	52423.32
536.89	51501.15
537.06	51894.36
537.23	52097.98
537.40	51828.82
537.57	52062.88
537.74	52172.88
537.91	52425.66
538.08	52289.91
538.25	52322.68
538.42	52530.98
538.59	52498.22
538.75	51997.34
538.92	52477.15
539.09	52329.70
539.26	52795.46
539.43	52575.45
539.60	52406.94
539.77	52587.16
539.94	53052.92
540.11	52856.32
540.28	52645.67
540.44	52629.29
540.61	52673.76
540.78	52931.22
540.95	53099.73
541.12	52797.80
541.29	52877.38
541.46	53174.63
541.62	52823.55
541.79	52809.51
541.96	52821.21
542.13	53146.54
542.30	52926.53
542.47	53223.78
542.63	53579.54
542.80	53460.18
542.97	53649.76
543.14	53832.32
543.31	53521.03
543.48	53521.03
543.64	53869.77
543.81	54005.52
543.98	53923.60
544.15	53762.11
544.32	53984.46
544.48	53865.09
544.65	53682.53
544.82	53813.60
544.99	53694.23
545.16	53972.75
545.32	53701.25
545.49	54239.57
545.66	54244.26
545.83	54129.57
546.00	54398.73
546.16	54223.19
546.33	54075.74
546.50	53696.57
546.67	54300.43
546.83	53851.05
547.00	54312.13
547.17	54089.78
547.34	54185.74
547.50	54377.67
547.67	54614.06
547.84	54447.88
548.00	54454.90
548.17	54578.95
548.34	54286.39
548.51	54567.25
548.67	54700.66
548.84	54726.41
549.01	54805.98
549.18	54431.50
549.34	54539.16
549.51	54759.17
549.68	54789.60
549.84	54515.76
550.01	54635.13
550.18	54855.14
550.34	54974.50
550.51	54848.11
550.68	54897.27
550.84	54394.05
551.01	54759.17
551.18	54770.88
551.34	54637.47
551.51	54780.24
551.68	55178.13
551.84	55136.00
552.01	55002.59
552.18	55124.30
552.34	55136.00
552.51	55323.24
552.68	55011.95
552.84	54906.63
553.01	55283.45
553.18	55206.22
553.34	55400.48
553.51	55119.62
553.67	55260.05
553.84	55515.17
554.01	55503.46
554.17	55391.12
554.34	55468.36
554.51	55311.54
554.67	55484.74
554.84	55299.84
555.00	55580.70
555.17	55477.72
555.33	55391.12
555.50	55569.00
555.67	55407.50
555.83	55547.93
556.00	55700.07
556.16	55524.53
556.33	55803.05
556.50	55313.88
556.66	55585.38
556.83	55756.24
556.99	55835.82
557.16	55976.25
557.32	55948.17
557.49	55973.91
557.65	55669.64
557.82	55444.95
557.98	55749.22
558.15	55561.98
558.32	56172.86
558.48	55735.18
558.65	56189.24
558.81	55964.55
558.98	56020.72
559.14	55870.93
559.31	55730.50
559.47	56039.45
559.64	56041.79
559.80	55938.80
559.97	56095.62
560.13	55917.74
560.30	55922.42
560.46	55971.57
560.63	56072.21
560.79	56207.97
560.96	55994.98
561.12	55856.88
561.29	55784.33
561.45	56142.43
561.61	56072.21
561.78	56339.04
561.94	56322.65
562.11	56301.59
562.27	56245.41
562.44	56158.81
562.60	55978.59
562.77	55945.83
562.93	56243.07
563.10	56505.21
563.26	56107.32
563.42	56561.39
563.59	56381.16
563.75	56203.28
563.92	56355.42
564.08	56147.11
564.24	56336.69
564.41	56128.39
564.57	56179.88
564.74	55971.57
564.90	56442.02
565.07	56292.22
565.23	56458.40
565.39	56296.91
565.56	56444.36
565.72	56364.78
565.88	56540.32
566.05	56432.66
566.21	56231.37
566.38	56186.90
566.54	56416.27
566.70	56547.34
566.87	56767.35
567.03	56512.23
567.19	56493.51
567.36	56552.02
567.52	56200.94
567.68	56346.06
567.85	56404.57
568.01	56388.19
568.17	56774.37
568.34	56427.98
568.50	56640.96
568.66	56692.46
568.83	56755.65
568.99	56339.04
569.15	56203.28
569.32	56301.59
569.48	55987.95
569.64	56339.04
569.81	56554.36
569.97	56561.39
570.13	56484.15
570.30	56505.21
570.46	56743.95
570.62	56708.84
570.78	56584.79
570.95	56416.27
571.11	56530.96
571.27	56315.63
571.43	56395.21
571.60	56645.65
571.76	56603.52
571.92	56666.71
572.09	56830.55
572.25	56694.80
572.41	56743.95
572.57	56666.71
572.74	56760.33
572.90	56465.42
573.06	56582.45
573.22	56549.68
573.38	56633.94
573.55	56598.83
573.71	56882.04
573.87	56889.06
574.03	56685.43
574.20	56823.53
574.36	56818.84
574.52	56474.79
574.68	56664.37
574.84	56741.61
575.01	56542.66
575.17	56797.78
575.33	56980.34
575.49	56729.90
575.65	56844.59
575.82	56945.23
575.98	56669.05
576.14	56830.55
576.30	56821.19
576.46	56591.81
576.62	56605.86
576.79	56708.84
576.95	56587.13
577.11	56708.84
577.27	56860.97
577.43	56554.36
577.59	56626.92
577.75	56757.99
577.92	56722.88
578.08	56683.09
578.24	56570.75
578.40	56530.96
578.56	56856.29
578.72	56924.17
578.88	56947.57
579.04	56928.85
579.21	56699.48
579.37	56858.63
579.53	56952.26
579.69	56622.24
579.85	56601.18
580.01	56767.35
580.17	56570.75
580.33	56757.99
580.49	56647.99
580.65	57045.88
580.82	56872.68
580.98	56704.16
581.14	57069.28
581.30	56772.03
581.46	56811.82
581.62	56795.44
581.78	56669.05
581.94	56835.23
582.10	56671.39
582.26	56741.61
582.42	56954.60
582.58	56769.69
582.74	56814.16
582.90	56884.38
583.06	56999.07
583.22	56868.00
583.38	56853.95
583.54	56860.97
583.70	56545.00
583.86	56736.93
584.02	56765.01
584.18	57078.64
584.34	56968.64
584.50	56938.21
584.66	56830.55
584.82	56725.22
584.98	56914.81
585.14	56690.12
585.30	56846.93
585.46	56706.50
585.62	56893.74
585.78	57179.29
585.94	56919.49
586.10	57027.15
586.26	56790.76
586.42	56935.87
586.58	56910.13
586.74	56802.46
586.90	56636.28
587.06	56589.47
587.22	56856.29
587.38	56446.70
587.54	56900.76
587.70	56978.00
587.86	56928.85
588.02	56938.21
588.18	56940.55
588.34	56893.74
588.49	56994.39
588.65	56699.48
588.81	57045.88
588.97	57001.41
589.13	56919.49
589.29	57022.47
589.45	57097.37
589.61	57036.51
