SpectraSuite Data File
++++++++++++++++++++++++++++++++++++
Date: Fri Oct 18 13:54:44 GMT-05:00 2013
User: bianchi
Dark Spectrum Present: No
Reference Spectrum Present: No
Number of Sampled Component Spectra: 1
Spectrometers: USB2+H05261
Integration Time (usec): 100000 (USB2+H05261)
Spectra Averaged: 1 (USB2+H05261)
Boxcar Smoothing: 0 (USB2+H05261)
Correct for Electrical Dark: No (USB2+H05261)
Strobe/Lamp Enabled: No (USB2+H05261)
Correct for Detector Non-linearity: No (USB2+H05261)
Correct for Stray Light: No (USB2+H05261)
Number of Pixels in Processed Spectrum: 2048
>>>>>Begin Processed Spectral Data<<<<<
365.73	0.00
365.92	0.00
366.12	0.00
366.32	0.00
366.52	0.00
366.72	0.00
366.91	0.00
367.11	0.00
367.31	0.00
367.51	0.00
367.70	0.00
367.90	0.00
368.10	0.00
368.30	0.00
368.49	0.00
368.69	0.00
368.89	0.00
369.09	0.00
369.28	0.00
369.48	0.00
369.68	0.00
369.87	0.00
370.07	0.00
370.27	0.00
370.47	0.00
370.66	255.12
370.86	184.90
371.06	292.57
371.25	414.27
371.45	318.31
371.65	299.59
371.84	411.93
372.04	339.38
372.24	388.53
372.44	353.42
372.63	496.19
372.83	416.62
373.03	400.23
373.22	552.37
373.42	489.17
373.62	470.45
373.81	449.38
374.01	496.19
374.21	519.60
374.40	512.58
374.60	468.11
374.79	500.87
374.99	566.41
375.19	521.94
375.38	524.28
375.58	498.53
375.78	610.88
375.97	503.22
376.17	573.43
376.37	482.15
376.56	465.77
376.76	566.41
376.95	533.64
377.15	498.53
377.35	653.01
377.54	540.66
377.74	617.90
377.93	580.45
378.13	582.79
378.33	606.20
378.52	622.58
378.72	648.33
378.91	627.26
379.11	627.26
379.31	624.92
379.50	636.63
379.70	723.23
379.89	655.35
380.09	606.20
380.28	599.18
380.48	589.82
380.68	627.26
380.87	664.71
381.07	688.12
381.26	699.82
381.46	669.39
381.65	690.46
381.85	662.37
382.04	737.27
382.24	706.84
382.43	704.50
382.63	770.04
382.83	711.52
383.02	760.67
383.22	779.40
383.41	755.99
383.61	741.95
383.80	704.50
384.00	772.38
384.19	770.04
384.39	753.65
384.58	784.08
384.78	830.89
384.97	791.10
385.17	898.77
385.36	784.08
385.56	800.46
385.75	791.10
385.95	891.74
386.14	954.94
386.34	826.21
386.53	868.34
386.72	936.21
386.92	915.15
387.11	856.64
387.31	908.13
387.50	910.47
387.70	793.44
387.89	943.24
388.09	809.83
388.28	866.00
388.48	954.94
388.67	952.60
388.86	961.96
389.06	952.60
389.25	1001.75
389.45	1036.86
389.64	961.96
389.84	1022.81
390.03	901.11
390.22	1074.31
390.42	1036.86
390.61	968.98
390.81	992.39
391.00	1011.11
391.19	1015.79
391.39	1015.79
391.58	1109.41
391.78	1135.16
391.97	950.26
392.16	1121.12
392.36	1107.07
392.55	1142.18
392.75	1188.99
392.94	1156.22
393.13	1100.05
393.33	1104.73
393.52	1191.33
393.71	1252.19
393.91	1284.95
394.10	1160.91
394.29	1137.50
394.49	1146.86
394.68	1296.66
394.88	1231.12
395.07	1308.36
395.26	1174.95
395.46	1378.58
395.65	1350.49
395.84	1266.23
396.04	1320.06
396.23	1315.38
396.42	1247.51
396.62	1383.26
396.81	1369.21
397.00	1259.21
397.19	1369.21
397.39	1322.40
397.58	1348.15
397.77	1427.73
397.97	1488.58
398.16	1474.54
398.35	1556.46
398.55	1495.60
398.74	1387.94
398.93	1633.69
399.12	1535.39
399.32	1633.69
399.51	1582.20
399.70	1617.31
399.90	1631.35
400.09	1549.43
400.28	1774.13
400.47	1701.57
400.67	1778.81
400.86	1516.67
401.05	1710.93
401.24	1736.68
401.44	1689.87
401.63	1605.61
401.82	1710.93
402.01	1792.85
402.21	1804.55
402.40	1902.86
402.59	1654.76
402.78	1727.32
402.97	1750.72
403.17	1802.21
403.36	1771.79
403.55	1937.96
403.74	1877.11
403.93	1893.49
404.13	2022.22
404.32	1900.52
404.51	1933.28
404.70	1947.33
404.89	2043.29
405.09	2085.42
405.28	1996.48
405.47	2143.93
405.66	2094.78
405.85	2141.59
406.05	2165.00
406.24	2083.08
406.43	2160.31
406.62	2174.36
406.81	2246.91
407.00	2146.27
407.20	2202.44
407.39	2342.88
407.58	2260.96
407.77	2193.08
407.96	2296.07
408.15	2340.54
408.34	2324.15
408.54	2525.44
408.73	2368.62
408.92	2359.26
409.11	2544.16
409.30	2572.25
409.49	2579.27
409.68	2450.54
409.87	2457.56
410.07	2541.82
410.26	2593.31
410.45	2621.40
410.64	2696.30
410.83	2689.28
411.02	2789.92
411.21	2722.04
411.40	2719.70
411.59	2778.22
411.78	2792.26
411.98	2717.36
412.17	2857.79
412.36	2928.01
412.55	2939.71
412.74	2937.37
412.93	2974.82
413.12	2843.75
413.31	3105.89
413.50	3026.31
413.69	3077.80
413.88	3171.43
414.07	3370.37
414.26	3229.94
414.45	3185.47
414.64	3353.99
414.83	3283.77
415.02	3375.05
415.22	3307.18
415.41	3517.83
415.60	3531.87
415.79	3522.51
415.98	3616.13
416.17	3468.67
416.36	3655.92
416.55	3660.60
416.74	3639.53
416.93	3578.68
417.12	3698.05
417.31	3719.11
417.50	3756.56
417.69	3920.40
417.88	3822.09
418.07	3840.82
418.26	3826.78
418.45	3894.65
418.64	4124.02
418.83	3950.82
419.02	3950.82
419.21	4215.30
419.39	4032.74
419.58	4007.00
419.77	4175.52
419.96	4196.58
420.15	4102.96
420.34	4142.75
420.53	4320.63
420.72	4381.48
420.91	4264.46
421.10	4353.40
421.29	4493.83
421.48	4362.76
421.67	4346.37
421.86	4432.97
422.05	4365.10
422.24	4482.13
422.43	4423.61
422.61	4531.28
422.80	4542.98
422.99	4564.04
423.18	4374.46
423.37	4624.90
423.56	4444.68
423.75	4542.98
423.94	4470.42
424.13	4173.18
424.32	4315.95
424.50	4533.62
424.69	4732.56
424.88	4732.56
425.07	4638.94
425.26	4526.60
425.45	4568.73
425.64	4660.01
425.83	4559.36
426.01	4678.73
426.20	4716.18
426.39	4690.43
426.58	4784.06
426.77	4610.86
426.96	4603.83
427.15	4732.56
427.33	4842.57
427.52	4779.37
427.71	4896.40
427.90	4739.58
428.09	4947.89
428.28	5008.75
428.46	5008.75
428.65	4781.71
428.84	5093.01
429.03	4975.98
429.22	4868.31
429.40	4999.38
429.59	5151.52
429.78	4823.84
429.97	4905.76
430.16	5139.82
430.34	5149.18
430.53	5219.39
430.72	5191.31
430.91	5034.49
431.10	5132.79
431.28	5408.98
431.47	5310.68
431.66	5504.94
431.85	5296.63
432.03	5621.97
432.22	5572.82
432.41	5479.19
432.60	5586.86
432.79	5341.10
432.97	5685.16
433.16	5537.71
433.35	5579.84
433.54	5673.46
433.72	5699.20
433.91	5657.07
434.10	5650.05
434.28	5540.05
434.47	5664.10
434.66	5879.43
434.85	5858.36
435.03	5755.38
435.22	6139.23
435.41	6171.99
435.59	5942.62
435.78	6029.22
435.97	5973.05
436.16	5980.07
436.34	5881.77
436.53	6125.18
436.72	6253.91
436.90	5980.07
437.09	6132.20
437.28	6052.63
437.46	6162.63
437.65	6239.87
437.84	6122.84
438.02	6279.66
438.21	6363.92
438.40	6223.48
438.58	6647.12
438.77	6401.37
438.96	6450.52
439.14	6518.39
439.33	6691.59
439.52	6595.63
439.70	6665.85
439.89	6801.60
440.08	6892.88
440.26	6700.95
440.45	6843.73
440.63	6977.14
440.82	6935.01
441.01	7073.10
441.19	7045.01
441.38	7323.54
441.57	7091.82
441.75	7384.39
441.94	7534.18
442.12	7379.71
442.31	7473.33
442.50	7550.57
442.68	7421.84
442.87	7578.65
443.05	7648.87
443.24	7541.21
443.43	7637.17
443.61	7646.53
443.80	7833.77
443.98	7552.91
444.17	7520.14
444.35	7908.67
444.54	7934.42
444.73	7892.29
444.91	7826.75
445.10	7737.81
445.28	7702.70
445.47	7833.77
445.65	7971.86
445.84	7812.71
446.02	8023.36
446.21	7758.88
446.39	8098.25
446.58	7960.16
446.77	8044.42
446.95	7693.34
447.14	7918.03
447.32	8152.09
447.51	7822.07
447.69	7985.91
447.88	7899.31
448.06	7960.16
448.25	7911.01
448.43	8112.30
448.62	8016.33
448.80	7868.88
448.99	8154.43
449.17	8067.83
449.36	8051.44
449.54	8198.90
449.73	8299.54
449.91	8271.45
450.10	8355.71
450.28	8449.33
450.46	8484.44
450.65	8468.06
450.83	8383.80
451.02	8325.29
451.20	8692.75
451.39	8531.25
451.57	8461.04
451.76	8545.30
451.94	8580.40
452.13	8957.23
452.31	8599.13
452.49	8615.51
452.68	8755.94
452.86	8734.88
453.05	8833.18
453.23	8840.20
453.42	8685.73
453.60	8791.05
453.78	8812.12
453.97	8865.95
454.15	8851.91
454.34	8777.01
454.52	9130.43
454.70	9018.08
454.89	9149.15
455.07	9165.54
455.26	9078.94
455.44	9352.78
455.62	9174.90
455.81	9280.22
455.99	9387.89
456.17	9437.04
456.36	9521.30
456.54	9444.06
456.73	9745.99
456.91	9839.61
457.09	9692.16
457.28	9951.96
457.46	9806.84
457.64	9666.41
457.83	9863.02
458.01	9558.75
458.19	9724.93
458.38	9783.44
458.56	9968.34
458.74	10068.98
458.93	10090.05
459.11	9998.77
459.29	9907.49
459.48	10129.84
459.66	10178.99
459.84	10258.57
460.03	10349.85
460.21	10207.08
460.39	10132.18
460.57	10200.05
460.76	10317.08
460.94	10375.59
461.12	10427.09
461.31	10263.25
461.49	10127.50
461.67	10438.79
461.85	10696.25
462.04	10501.98
462.22	11276.70
462.40	10799.23
462.59	10670.50
462.77	10768.80
462.95	10766.46
463.13	11012.22
463.32	10909.24
463.50	10906.90
463.68	10988.82
463.86	10806.25
464.05	10892.85
464.23	10937.32
464.41	11115.20
464.59	10923.28
464.78	11304.79
464.96	10988.82
465.14	10977.11
465.32	11379.68
465.50	11342.24
465.69	11520.12
465.87	11269.68
466.05	11569.27
466.23	11023.92
466.41	11386.71
466.60	11693.32
466.78	11241.59
466.96	11365.64
467.14	11442.88
467.32	11566.93
467.51	11522.46
467.69	11204.14
467.87	11508.41
468.05	11559.91
468.23	11550.54
468.41	11815.02
468.60	11690.98
468.78	11761.19
468.96	11667.57
469.14	11962.48
469.32	11964.82
469.50	11658.21
469.69	12257.39
469.87	12072.48
470.05	12336.96
470.23	12074.82
470.41	12226.96
470.59	12425.90
470.77	12353.35
470.95	12184.83
471.14	12362.71
471.32	12329.94
471.50	12535.91
471.68	12730.17
471.86	12601.44
472.04	12636.55
472.22	13001.68
472.40	12800.39
472.58	12723.15
472.77	13074.23
472.95	13083.59
473.13	13394.89
473.31	12933.80
473.49	13067.21
473.67	13088.28
473.85	13151.47
474.03	13687.45
474.21	13322.33
474.39	13490.85
474.57	13338.71
474.75	13778.73
474.93	13708.52
475.12	13851.29
475.30	14094.71
475.48	13832.57
475.66	14031.51
475.84	14214.07
476.02	14401.32
476.20	14352.16
476.38	14579.20
476.56	14796.87
476.74	14764.10
476.92	15012.20
477.10	14808.57
477.28	14668.14
477.46	14843.68
477.64	15152.63
477.82	15445.20
478.00	15789.25
478.18	15625.42
478.36	15620.74
478.54	16009.26
478.72	15871.17
478.90	16208.21
479.08	16393.11
479.26	16395.45
479.44	16542.91
479.62	16706.74
479.80	16769.94
479.98	16751.21
480.16	17074.21
480.34	17132.72
480.52	17137.40
480.70	17411.25
480.88	17027.40
481.06	17460.40
481.24	17413.59
481.41	17809.14
481.59	17809.14
481.77	17848.93
481.95	18265.54
482.13	18450.44
482.31	18185.96
482.49	18679.82
482.67	18941.96
482.85	18766.42
483.03	19248.57
483.21	19396.02
483.39	19527.09
483.57	19330.48
483.74	19695.61
483.92	20123.93
484.10	19709.65
484.28	20224.57
484.46	20566.29
484.64	21081.21
484.82	20439.90
485.00	20444.58
485.18	21289.51
485.35	20996.95
485.53	21233.34
485.71	21528.25
485.89	21858.26
486.07	21593.78
486.25	21525.91
486.43	22043.17
486.61	22405.95
486.78	22403.61
486.96	22438.72
487.14	22848.31
487.32	22707.88
487.50	23096.41
487.68	23152.58
487.85	23302.37
488.03	23601.96
488.21	23992.83
488.39	24095.82
488.57	24231.57
488.75	24329.87
488.92	24716.06
489.10	24638.82
489.28	25039.05
489.46	25205.23
489.64	25474.39
489.81	25523.54
489.99	25481.41
490.17	25979.95
490.35	25940.16
490.53	26579.12
490.70	26185.91
490.88	26204.64
491.06	26731.26
491.24	26630.62
491.41	27040.21
491.59	27164.26
491.77	27112.77
491.95	27676.83
492.13	27927.27
492.30	27735.35
492.48	27913.23
492.66	27927.27
492.84	27936.63
493.01	28212.82
493.19	28643.48
493.37	28479.64
493.54	28971.15
493.72	29160.73
493.90	29144.35
494.08	29500.11
494.25	29654.59
494.43	29783.32
494.61	30038.44
494.79	29982.26
494.96	30082.91
495.14	30377.81
495.32	30504.20
495.49	30600.16
495.67	30616.55
495.85	30899.75
496.02	31056.57
496.20	31150.19
496.38	31311.69
496.55	31751.71
496.73	32084.06
496.91	31866.39
497.09	32542.81
497.26	32428.12
497.44	32467.91
497.62	32596.64
497.79	33141.99
497.97	32620.05
498.14	33280.08
498.32	33614.77
498.50	33799.68
498.67	33879.25
498.85	33582.01
499.03	33741.16
499.20	33979.90
499.38	34419.92
499.56	34548.65
499.73	34553.33
499.91	34712.49
500.08	34876.32
500.26	34649.29
500.44	34703.12
500.61	34866.96
500.79	35349.11
500.97	35182.93
501.14	35569.12
501.32	35517.63
501.49	35398.26
501.67	35559.76
501.84	35908.50
502.02	36231.49
502.20	36259.58
502.37	36470.23
502.55	36481.93
502.72	36432.78
502.90	36477.25
503.07	36650.45
503.25	36795.56
503.43	36746.41
503.60	36814.29
503.78	37001.53
503.95	37179.41
504.13	36825.99
504.30	37198.13
504.48	37212.18
504.65	37560.92
504.83	37982.21
505.01	38391.81
505.18	38061.79
505.36	38958.22
505.53	38040.73
505.71	38291.16
505.88	38499.47
506.06	38405.85
506.23	38724.16
506.41	38749.91
506.58	39323.34
506.76	39175.89
506.93	38990.98
507.11	38962.90
507.28	39489.52
507.46	39166.52
507.63	39377.17
507.81	39786.77
507.98	39981.03
508.16	39824.22
508.33	40376.58
508.50	40442.12
508.68	39997.41
508.85	40725.32
509.03	40538.08
509.20	40741.71
509.38	41015.55
509.55	40926.61
509.73	41153.64
509.90	41312.80
510.08	40861.07
510.25	41303.43
510.42	41350.24
510.60	41593.66
510.77	41361.95
510.95	42036.02
511.12	41743.45
511.30	41532.81
511.47	42234.97
511.64	42052.41
511.82	42618.81
511.99	42211.56
512.17	42534.56
512.34	42279.44
512.51	43021.39
512.69	42733.50
512.86	42667.97
513.04	42937.13
513.21	42920.74
513.38	43316.29
513.56	43187.56
513.73	43288.21
513.90	43416.94
514.08	43182.88
514.25	43594.82
514.43	43878.02
514.60	43929.51
514.77	44130.80
514.95	44456.14
515.12	44179.95
515.29	44245.49
515.47	44360.17
515.64	44439.75
515.81	44793.17
515.99	44519.33
516.16	45146.59
516.33	45027.23
516.51	44975.73
516.68	45015.52
516.85	45132.55
517.03	45088.08
517.20	45207.45
517.37	45038.93
517.54	45457.88
517.72	45436.82
517.89	45584.27
518.06	45235.53
518.24	45897.91
518.41	45474.27
518.58	45724.71
518.75	46057.06
518.93	46454.95
519.10	46401.12
519.27	45961.10
519.45	46131.96
519.62	46349.63
519.79	46169.41
519.96	46553.26
520.14	46784.97
520.31	46607.09
520.48	47056.47
520.65	46705.39
520.83	47112.64
521.00	46583.68
521.17	47215.63
521.34	46918.38
521.52	47042.43
521.69	47405.21
521.86	47529.26
522.03	47779.70
522.20	47824.17
522.38	47938.85
522.55	47676.71
522.72	48051.20
522.89	47742.25
523.07	48191.63
523.24	48182.27
523.41	48037.16
523.58	47852.25
523.75	48678.46
523.92	47803.10
524.10	48428.02
524.27	48411.64
524.44	48594.20
524.61	49090.40
524.78	49191.04
524.96	49177.00
525.13	48938.26
525.30	48725.27
525.47	49174.66
525.64	49155.93
525.81	49404.03
525.98	49921.29
526.16	49301.04
526.33	49242.53
526.50	49600.63
526.67	49343.17
526.84	49488.29
527.01	49471.90
527.18	49411.05
527.36	49635.74
527.53	49720.00
527.70	50218.53
527.87	50284.07
528.04	50071.08
528.21	49932.99
528.38	50115.55
528.55	50295.77
528.72	50358.97
528.89	50330.88
529.07	50260.66
529.24	50609.40
529.41	50312.16
529.58	50431.52
529.75	50454.93
529.92	50522.80
530.09	50562.59
530.26	50539.19
530.43	50735.79
530.60	50677.28
530.77	50609.40
530.94	51203.90
531.11	50632.81
531.28	50752.18
531.46	50864.52
531.63	51037.72
531.80	51112.62
531.97	51529.23
532.14	51508.17
532.31	51339.65
532.48	51402.85
532.65	51159.43
532.82	51159.43
532.99	51419.23
533.16	51187.52
533.33	51496.47
533.50	51737.54
533.67	51662.64
533.84	51742.22
534.01	51536.26
534.18	51250.71
534.35	51674.35
534.52	51971.60
534.69	52200.97
534.86	52296.93
535.03	51842.87
535.20	52147.14
535.37	52191.61
535.54	51831.16
535.71	52226.71
535.88	51973.94
536.05	51903.72
536.22	52200.97
536.38	52435.02
536.55	52205.65
536.72	52758.02
536.89	52322.68
537.06	52126.07
537.23	52479.49
537.40	52259.48
537.57	52690.14
537.74	52486.51
537.91	52685.46
538.08	52945.26
538.25	52350.76
538.42	52659.71
538.59	52767.38
538.75	52488.85
538.92	52598.86
539.09	52814.19
539.26	52729.93
539.43	53167.61
539.60	53188.67
539.77	52858.66
539.94	53195.70
540.11	52992.07
540.28	53106.76
540.44	52907.81
540.61	53078.67
540.78	53090.37
540.95	53364.21
541.12	53193.36
541.29	53261.23
541.46	53359.53
541.62	53301.02
541.79	53521.03
541.96	52996.75
542.13	53375.92
542.30	53413.37
542.47	53918.92
542.63	53652.10
542.80	53806.58
542.97	53806.58
543.14	54190.42
543.31	53745.72
543.48	53904.88
543.64	53944.67
543.81	54199.79
543.98	54164.68
544.15	54361.28
544.32	54190.42
544.48	54560.23
544.65	53954.03
544.82	53888.49
544.99	53734.02
545.16	54255.96
545.32	54040.63
545.49	54581.29
545.66	54815.35
545.83	54578.95
546.00	54672.57
546.16	54611.72
546.33	54447.88
546.50	54092.12
546.67	54372.99
546.83	54138.93
547.00	54380.01
547.17	54707.68
547.34	54724.07
547.50	54571.93
547.67	54850.45
547.84	54852.80
548.00	54897.27
548.17	55164.09
548.34	54824.71
548.51	54885.56
548.67	54864.50
548.84	55016.63
549.01	54958.12
549.18	55154.72
549.34	54871.52
549.51	54813.01
549.68	55175.79
549.84	54817.69
550.01	54901.95
550.18	55028.34
550.34	55079.83
550.51	55381.76
550.68	55065.78
550.84	54740.45
551.01	55426.23
551.18	55117.28
551.34	55199.19
551.51	55313.88
551.68	55201.53
551.84	55274.09
552.01	55150.04
552.18	55667.30
552.34	55255.37
552.51	55421.55
552.68	55330.26
552.84	55496.44
553.01	55739.86
553.18	55643.90
553.34	55721.13
553.51	55501.12
553.67	55903.70
553.84	55854.54
554.01	55590.06
554.17	55681.34
554.34	55508.14
554.51	55671.98
554.67	55950.51
554.84	55545.59
555.00	55566.66
555.17	55688.37
555.33	55697.73
555.50	55824.12
555.67	55838.16
555.83	55716.45
556.00	55870.93
556.16	56154.13
556.33	55585.38
556.50	55826.46
556.66	56020.72
556.83	55819.44
556.99	56039.45
557.16	55938.80
557.32	56306.27
557.49	56266.48
557.65	55868.59
557.82	56046.47
557.98	56285.20
558.15	56039.45
558.32	56449.04
558.48	56247.75
558.65	56236.05
558.81	56273.50
558.98	56196.26
559.14	56154.13
559.31	55973.91
559.47	56041.79
559.64	56341.38
559.80	56341.38
559.97	56261.80
560.13	56243.07
560.30	56416.27
560.46	56376.48
560.63	56144.77
560.79	56353.08
560.96	56442.02
561.12	56521.60
561.29	56381.16
561.45	56355.42
561.61	56638.62
561.78	56474.79
561.94	56528.62
562.11	56718.20
562.27	56259.46
562.44	56339.04
562.60	56320.31
562.77	56329.67
562.93	56378.82
563.10	56624.58
563.26	56549.68
563.42	56849.27
563.59	56643.30
563.75	56669.05
563.92	56633.94
564.08	56598.83
564.24	56713.52
564.41	56402.23
564.57	56420.95
564.74	56500.53
564.90	56828.21
565.07	56676.07
565.23	56818.84
565.39	56713.52
565.56	56652.67
565.72	56409.25
565.88	56332.01
566.05	56601.18
566.21	56458.40
566.38	56474.79
566.54	56715.86
566.70	56788.42
566.87	56940.55
567.03	56545.00
567.19	56802.46
567.36	56825.87
567.52	56533.30
567.68	56992.04
567.85	56687.78
568.01	56767.35
568.17	56556.70
568.34	57024.81
568.50	56807.14
568.66	56938.21
568.83	57158.22
568.99	56715.86
569.15	56753.31
569.32	56713.52
569.48	56360.10
569.64	56790.76
569.81	56783.74
569.97	56804.80
570.13	56975.66
570.30	56545.00
570.46	57017.79
570.62	57059.92
570.78	56877.36
570.95	56809.48
571.11	56945.23
571.27	56647.99
571.43	56739.27
571.60	56713.52
571.76	56783.74
571.92	57090.35
572.09	57109.07
572.25	56952.26
572.41	56853.95
572.57	57031.83
572.74	56921.83
572.90	56783.74
573.06	56779.06
573.22	57048.22
573.38	56954.60
573.55	57169.93
573.71	57256.53
573.87	57130.14
574.03	56980.34
574.20	57116.09
574.36	56720.54
574.52	56963.96
574.68	56830.55
574.84	56769.69
575.01	57293.97
575.17	57228.44
575.33	57113.75
575.49	57102.05
575.65	57085.67
575.82	57305.68
575.98	57193.33
576.14	57216.74
576.30	56980.34
576.46	56879.70
576.62	56729.90
576.79	57113.75
576.95	56825.87
577.11	57172.27
577.27	57102.05
577.43	57120.77
577.59	57097.37
577.75	57097.37
577.92	56935.87
578.08	56935.87
578.24	56980.34
578.40	56996.73
578.56	57057.58
578.72	57024.81
578.88	57172.27
579.04	57090.35
579.21	57188.65
579.37	57043.54
579.53	57214.40
579.69	56891.40
579.85	57031.83
580.01	57172.27
580.17	57027.15
580.33	57031.83
580.49	57137.16
580.65	57247.16
580.82	56947.57
580.98	57198.01
581.14	57315.04
581.30	57270.57
581.46	57153.54
581.62	57092.69
581.78	56987.36
581.94	57200.35
582.10	56814.16
582.26	57207.37
582.42	57076.30
582.58	57258.87
582.74	57200.35
582.90	57326.74
583.06	57080.98
583.22	57113.75
583.38	57230.78
583.54	57242.48
583.70	56963.96
583.86	57003.75
584.02	56985.02
584.18	57155.88
584.34	57265.89
584.50	57167.58
584.66	56973.32
584.82	57207.37
584.98	57024.81
585.14	57010.77
585.30	56853.95
585.46	57174.61
585.62	57050.56
585.78	57595.90
585.94	57059.92
586.10	57179.29
586.26	57209.71
586.42	57148.86
586.58	57436.75
586.74	57153.54
586.90	57120.77
587.06	57006.09
587.22	57247.16
587.38	57092.69
587.54	57265.89
587.70	57291.63
587.86	57530.37
588.02	57392.28
588.18	57387.60
588.34	57343.12
588.49	57361.85
588.65	57254.18
588.81	57364.19
588.97	57176.95
589.13	57282.27
589.29	57090.35
589.45	57265.89
589.61	57661.44
