SpectraSuite Data File
++++++++++++++++++++++++++++++++++++
Date: Fri Oct 18 13:55:44 GMT-05:00 2013
User: bianchi
Dark Spectrum Present: No
Reference Spectrum Present: No
Number of Sampled Component Spectra: 1
Spectrometers: USB2+H05261
Integration Time (usec): 100000 (USB2+H05261)
Spectra Averaged: 1 (USB2+H05261)
Boxcar Smoothing: 0 (USB2+H05261)
Correct for Electrical Dark: No (USB2+H05261)
Strobe/Lamp Enabled: No (USB2+H05261)
Correct for Detector Non-linearity: No (USB2+H05261)
Correct for Stray Light: No (USB2+H05261)
Number of Pixels in Processed Spectrum: 2048
>>>>>Begin Processed Spectral Data<<<<<
365.73	0.00
365.92	0.00
366.12	0.00
366.32	0.00
366.52	0.00
366.72	0.00
366.91	0.00
367.11	0.00
367.31	0.00
367.51	0.00
367.70	0.00
367.90	0.00
368.10	0.00
368.30	0.00
368.49	0.00
368.69	0.00
368.89	0.00
369.09	0.00
369.28	0.00
369.48	0.00
369.68	0.00
369.87	0.00
370.07	0.00
370.27	0.00
370.47	0.00
370.66	182.56
370.86	241.08
371.06	351.08
371.25	360.44
371.45	189.58
371.65	351.08
371.84	287.89
372.04	376.83
372.24	264.48
372.44	365.12
372.63	372.15
372.83	440.02
373.03	273.84
373.22	341.72
373.42	374.49
373.62	425.98
373.81	477.47
374.01	454.06
374.21	416.62
374.40	414.27
374.60	397.89
374.79	414.27
374.99	477.47
375.19	486.83
375.38	512.58
375.58	299.59
375.78	409.59
375.97	538.32
376.17	528.96
376.37	484.49
376.56	489.17
376.76	479.81
376.95	531.30
377.15	496.19
377.35	512.58
377.54	458.74
377.74	500.87
377.93	496.19
378.13	589.82
378.33	533.64
378.52	491.51
378.72	554.71
378.91	533.64
379.11	475.13
379.31	552.37
379.50	510.24
379.70	585.13
379.89	571.09
380.09	524.28
380.28	552.37
380.48	510.24
380.68	524.28
380.87	587.47
381.07	634.29
381.26	695.14
381.46	552.37
381.65	594.50
381.85	636.63
382.04	613.22
382.24	615.56
382.43	636.63
382.63	620.24
382.83	585.13
383.02	641.31
383.22	791.10
383.41	592.16
383.61	648.33
383.80	730.25
384.00	697.48
384.19	613.22
384.39	692.80
384.58	763.01
384.78	669.39
384.97	643.65
385.17	723.23
385.36	699.82
385.56	823.87
385.75	784.08
385.95	758.33
386.14	795.78
386.34	795.78
386.53	795.78
386.72	706.84
386.92	779.40
387.11	777.06
387.31	779.40
387.50	798.12
387.70	828.55
387.89	765.36
388.09	748.97
388.28	924.51
388.48	873.02
388.67	755.99
388.86	816.85
389.06	812.17
389.25	884.72
389.45	856.64
389.64	870.68
389.84	835.57
390.03	915.15
390.22	931.53
390.42	802.80
390.61	802.80
390.81	905.79
391.00	933.87
391.19	966.64
391.39	882.38
391.58	868.34
391.78	957.28
391.97	957.28
392.16	940.90
392.36	1011.11
392.55	1025.15
392.75	1125.80
392.94	968.98
393.13	1081.33
393.33	1043.88
393.52	980.68
393.71	1039.20
393.91	1029.84
394.10	1025.15
394.29	1069.62
394.49	1170.27
394.68	1046.22
394.88	1107.07
395.07	1167.93
395.26	1118.78
395.46	1116.44
395.65	1048.56
395.84	1163.25
396.04	1369.21
396.23	1207.72
396.42	1184.31
396.62	1235.80
396.81	1203.04
397.00	1238.14
397.19	1338.79
397.39	1226.44
397.58	1287.29
397.77	1320.06
397.97	1263.89
398.16	1282.61
398.35	1352.83
398.55	1329.42
398.74	1233.46
398.93	1287.29
399.12	1364.53
399.32	1341.13
399.51	1303.68
399.70	1413.68
399.90	1336.45
400.09	1437.09
400.28	1479.22
400.47	1404.32
400.67	1378.58
400.86	1502.62
401.05	1486.24
401.24	1397.30
401.44	1593.90
401.63	1469.86
401.82	1490.92
402.01	1561.14
402.21	1589.22
402.40	1544.75
402.59	1568.16
402.78	1617.31
402.97	1722.63
403.17	1659.44
403.36	1671.14
403.55	1657.10
403.74	1753.06
403.93	1624.33
404.13	1717.95
404.32	1741.36
404.51	1687.53
404.70	1764.76
404.89	1694.55
405.09	1886.47
405.28	1856.04
405.47	1820.94
405.66	1916.90
405.85	1947.33
406.05	1926.26
406.24	1968.39
406.43	1956.69
406.62	2015.20
406.81	2162.66
407.00	1942.64
407.20	1935.62
407.39	1998.82
407.58	2090.10
407.77	2083.08
407.96	2012.86
408.15	2097.12
408.34	2052.65
408.54	2324.15
408.73	2167.34
408.92	2218.83
409.11	2143.93
409.30	2188.40
409.49	2202.44
409.68	2298.41
409.87	2214.15
410.07	2342.88
410.26	2457.56
410.45	2244.57
410.64	2275.00
410.83	2417.77
411.02	2466.92
411.21	2506.71
411.40	2459.90
411.59	2523.10
411.78	2565.23
411.98	2600.34
412.17	2605.02
412.36	2588.63
412.55	2668.21
412.74	2708.00
412.93	2658.85
413.12	2726.72
413.31	2789.92
413.50	2785.24
413.69	2761.83
413.88	2876.52
414.07	2897.58
414.26	2890.56
414.45	2906.95
414.64	2911.63
414.83	2986.52
415.02	2979.50
415.22	3073.12
415.41	3159.72
415.60	3110.57
415.79	3164.40
415.98	3159.72
416.17	3253.34
416.36	3346.97
416.55	3356.33
416.74	3403.14
416.93	3293.13
417.12	3478.04
417.31	3412.50
417.50	3344.63
417.69	3534.21
417.88	3510.80
418.07	3478.04
418.26	3576.34
418.45	3524.85
418.64	3686.34
418.83	3588.04
419.02	3707.41
419.21	3644.21
419.39	3768.26
419.58	3712.09
419.77	3723.79
419.96	3819.75
420.15	3854.86
420.34	3796.35
420.53	3772.94
420.72	3906.35
420.91	3978.91
421.10	3831.46
421.29	4046.79
421.48	3946.14
421.67	4028.06
421.86	3976.57
422.05	3889.97
422.24	3873.59
422.43	3976.57
422.61	4112.32
422.80	4065.51
422.99	4039.76
423.18	4011.68
423.37	4227.01
423.56	4175.52
423.75	4021.04
423.94	4109.98
424.13	3875.93
424.32	3899.33
424.50	4177.86
424.69	4320.63
424.88	4229.35
425.07	4229.35
425.26	4088.92
425.45	4177.86
425.64	4243.39
425.83	4091.26
426.01	4135.73
426.20	4109.98
426.39	4353.40
426.58	4215.30
426.77	4297.22
426.96	4308.93
427.15	4311.27
427.33	4234.03
427.52	4442.34
427.71	4425.95
427.90	4440.00
428.09	4365.10
428.28	4524.26
428.46	4458.72
428.65	4510.21
428.84	4528.94
429.03	4620.22
429.22	4388.50
429.40	4606.17
429.59	4683.41
429.78	4475.10
429.97	4365.10
430.16	4484.47
430.34	4608.51
430.53	4699.80
430.72	4908.10
430.91	4674.05
431.10	4720.86
431.28	4786.40
431.47	4784.06
431.66	4915.12
431.85	4772.35
432.03	5046.20
432.22	5128.11
432.41	4933.85
432.60	5081.30
432.79	4840.23
432.97	5064.92
433.16	5032.15
433.35	5078.96
433.54	5069.60
433.72	5210.03
433.91	5207.69
434.10	5107.05
434.28	5191.31
434.47	5277.91
434.66	5376.21
434.85	5315.36
435.03	5345.78
435.22	5245.14
435.41	5500.26
435.59	5458.13
435.78	5378.55
435.97	5420.68
436.16	5352.81
436.34	5401.96
436.53	5540.05
436.72	5729.63
436.90	5399.62
437.09	5589.20
437.28	5380.89
437.46	5696.86
437.65	5551.75
437.84	5636.01
438.02	5685.16
438.21	5764.74
438.40	5675.80
438.58	6008.16
438.77	6054.97
438.96	5813.89
439.14	6047.94
439.33	6038.58
439.52	6211.78
439.70	6029.22
439.89	6188.38
440.08	6218.80
440.26	6326.47
440.45	6272.64
440.63	6291.36
440.82	6553.50
441.01	6380.30
441.19	6296.04
441.38	6471.58
441.57	6736.06
441.75	6612.01
441.94	6750.10
442.12	6773.51
442.31	6960.75
442.50	6663.51
442.68	6677.55
442.87	6670.53
443.05	6911.60
443.24	6984.16
443.43	6986.50
443.61	6874.15
443.80	7262.68
443.98	6970.12
444.17	6670.53
444.35	6935.01
444.54	7042.67
444.73	7087.14
444.91	7061.40
445.10	7225.23
445.28	6895.22
445.47	7126.93
445.65	6958.41
445.84	7108.21
446.02	7105.87
446.21	7112.89
446.39	7091.82
446.58	7208.85
446.77	7171.40
446.95	7012.24
447.14	7218.21
447.32	7199.49
447.51	7166.72
447.69	7183.10
447.88	7162.04
448.06	7400.77
448.25	7250.98
448.43	7279.07
448.62	7222.89
448.80	7185.44
448.99	7269.70
449.17	7297.79
449.36	7337.58
449.54	7445.24
449.73	7410.14
449.91	7485.03
450.10	7695.68
450.28	7707.38
450.46	7674.62
450.65	7559.93
450.83	7648.87
451.02	7721.43
451.20	7805.69
451.39	7630.15
451.57	7770.58
451.76	7716.75
451.94	7716.75
452.13	7857.18
452.31	7915.69
452.49	7815.05
452.68	7831.43
452.86	7906.33
453.05	7957.82
453.23	8011.65
453.42	7817.39
453.60	7791.64
453.78	7967.18
453.97	8051.44
454.15	7967.18
454.34	7999.95
454.52	8098.25
454.70	8198.90
454.89	8135.70
455.07	8067.83
455.26	8397.84
455.44	8292.52
455.62	8231.66
455.81	8329.97
455.99	8351.03
456.17	8472.74
456.36	8500.83
456.54	8674.03
456.73	8711.47
456.91	8879.99
457.09	8631.90
457.28	8982.98
457.46	8599.13
457.64	8964.25
457.83	8784.03
458.01	8777.01
458.19	9151.49
458.38	8837.86
458.56	9001.70
458.74	9013.40
458.93	9114.05
459.11	8992.34
459.29	8945.53
459.48	9128.09
459.66	9420.66
459.84	9259.16
460.03	9338.74
460.21	9270.86
460.39	9198.31
460.57	9121.07
460.76	9259.16
460.94	9472.15
461.12	9221.71
461.31	9444.06
461.49	9366.82
461.67	9467.47
461.85	9699.18
462.04	9373.85
462.22	9764.72
462.40	9621.94
462.59	9830.25
462.77	9584.49
462.95	9825.57
463.13	9617.26
463.32	9984.73
463.50	10052.60
463.68	9886.42
463.86	9753.01
464.05	9666.41
464.23	9806.84
464.41	9987.07
464.59	9696.84
464.78	9891.10
464.96	10071.33
465.14	9891.10
465.32	10136.86
465.50	10452.83
465.69	10260.91
465.87	10193.03
466.05	10157.92
466.23	10169.63
466.41	10207.08
466.60	10649.44
466.78	10059.62
466.96	10169.63
467.14	10284.31
467.32	10415.38
467.51	10731.36
467.69	10312.40
467.87	10403.68
468.05	10331.12
468.23	10616.67
468.41	10544.11
468.60	10537.09
468.78	10415.38
468.96	10321.76
469.14	10668.16
469.32	10970.09
469.50	10560.50
469.69	10733.70
469.87	11021.58
470.05	11166.70
470.23	11119.89
470.41	11021.58
470.59	11014.56
470.77	10782.85
470.95	11075.42
471.14	11122.23
471.32	10867.11
471.50	11595.01
471.68	11272.02
471.86	11332.87
472.04	11281.38
472.22	11658.21
472.40	11309.47
472.58	11712.04
472.77	11763.53
472.95	11793.96
473.13	12126.32
473.31	11822.05
473.49	11896.94
473.67	11971.84
473.85	11992.90
474.03	12233.98
474.21	12177.81
474.39	12449.31
474.57	12297.17
474.75	12475.06
474.93	12346.33
475.12	12526.55
475.30	12638.89
475.48	12470.37
475.66	12556.97
475.84	12774.64
476.02	12624.85
476.20	12896.35
476.38	13219.35
476.56	13315.31
476.74	13022.74
476.92	13111.68
477.10	13151.47
477.28	13633.62
477.46	13359.78
477.64	13532.98
477.82	13853.63
478.00	14015.13
478.18	13752.99
478.36	14092.37
478.54	14354.51
478.72	14352.16
478.90	14431.74
479.08	14546.43
479.26	14824.95
479.44	14785.16
479.62	14925.60
479.80	15101.14
479.98	14963.04
480.16	15496.69
480.34	15583.29
480.52	15566.90
480.70	15377.32
480.88	15571.58
481.06	15653.50
481.24	15524.77
481.41	16037.35
481.59	16112.25
481.77	16238.64
481.95	16229.27
482.13	16238.64
482.31	16709.08
482.49	16711.42
482.67	17055.48
482.85	17151.45
483.03	16999.31
483.21	17146.76
483.39	17336.35
483.57	17549.34
483.74	17500.19
483.92	17837.22
484.10	17673.39
484.28	18302.99
484.46	18410.65
484.64	18616.62
484.82	18080.64
485.00	18551.09
485.18	19058.98
485.35	18946.64
485.53	19267.29
485.71	19353.89
485.89	19791.57
486.07	19463.90
486.25	19798.59
486.43	19534.11
486.61	19946.05
486.78	20152.01
486.96	19943.70
487.14	20624.80
487.32	20467.98
487.50	20671.61
487.68	20781.62
487.85	21085.89
488.03	20992.26
488.21	21689.74
488.39	21418.24
488.57	21776.34
488.75	21319.94
488.92	21881.67
489.10	22445.74
489.28	22370.84
489.46	22494.89
489.64	22625.96
489.81	23040.23
489.99	23016.83
490.17	23012.15
490.35	23271.95
490.53	23236.84
490.70	23484.94
490.88	23597.28
491.06	23896.87
491.24	23639.41
491.41	23962.40
491.59	24458.60
491.77	24629.46
491.95	24835.42
492.13	25029.69
492.30	24987.56
492.48	24889.26
492.66	24975.86
492.84	25074.16
493.01	25479.07
493.19	25614.82
493.37	25928.45
493.54	25886.32
493.72	26075.91
493.90	25855.90
494.08	26534.65
494.25	26529.97
494.43	26380.18
494.61	26920.84
494.79	26607.21
494.96	26962.97
495.14	27192.34
495.32	27033.19
495.49	27346.82
495.67	27749.39
495.85	28079.41
496.02	28304.10
496.20	28308.78
496.38	28210.48
496.55	28629.43
496.73	29116.26
496.91	28355.59
497.09	28938.38
497.26	29345.64
497.44	28858.81
497.62	29261.38
497.79	29741.19
497.97	29413.51
498.14	29895.66
498.32	29874.60
498.50	29907.37
498.67	30436.33
498.85	29949.50
499.03	30438.67
499.20	30349.73
499.38	30291.21
499.56	30883.37
499.73	30993.37
499.91	30831.88
500.08	31079.97
500.26	30972.31
500.44	31005.08
500.61	30766.34
500.79	31147.85
500.97	31754.05
501.14	32210.45
501.32	32016.19
501.49	31988.10
501.67	31524.68
501.84	32346.20
502.02	32278.33
502.20	32390.67
502.37	32540.47
502.55	32760.48
502.72	32580.26
502.90	32669.20
503.07	32882.19
503.25	32797.93
503.43	32950.06
503.60	33301.14
503.78	33275.40
503.95	33268.37
504.13	33699.03
504.30	33546.90
504.48	33305.82
504.65	33614.77
504.83	34349.70
505.01	34370.77
505.18	33942.45
505.36	34293.53
505.53	33951.81
505.71	33883.94
505.88	34323.96
506.06	34017.35
506.23	34691.42
506.41	34686.74
506.58	35012.07
506.76	34960.58
506.93	35276.55
507.11	35009.73
507.28	35143.14
507.46	35124.42
507.63	35662.74
507.81	35538.69
507.98	35585.50
508.16	35735.30
508.33	35866.37
508.50	35999.78
508.68	36095.74
508.85	36652.79
509.03	36198.73
509.20	36758.11
509.38	36734.71
509.55	36500.65
509.73	36650.45
509.90	36542.78
510.08	36835.35
510.25	36947.70
510.42	37078.77
510.60	37294.10
510.77	37523.47
510.95	38103.92
511.12	37450.91
511.30	37493.04
511.47	37518.79
511.64	37495.38
511.82	38359.04
511.99	38061.79
512.17	38202.22
512.34	38342.66
512.51	38455.00
512.69	38363.72
512.86	38073.49
513.04	38873.96
513.21	39075.24
513.38	38761.61
513.56	39072.90
513.73	38602.46
513.90	38906.73
514.08	38672.67
514.25	39271.85
514.43	39203.97
514.60	39494.20
514.77	39496.54
514.95	39929.54
515.12	39229.72
515.29	39213.34
515.47	40016.14
515.64	39714.21
515.81	40196.36
515.99	40027.84
516.16	40648.08
516.33	40442.12
516.51	40975.76
516.68	40617.66
516.85	40484.25
517.03	40596.59
517.20	41081.08
517.37	40891.50
517.54	40842.35
517.72	41301.09
517.89	40858.73
518.06	40917.25
518.24	41188.75
518.41	41038.95
518.58	41603.02
518.75	41771.54
518.93	41446.21
519.10	41418.12
519.27	41380.67
519.45	41727.07
519.62	41567.91
519.79	42033.68
519.96	41811.33
520.14	42000.91
520.31	41717.71
520.48	42377.74
520.65	42415.19
520.83	42600.09
521.00	42731.16
521.17	42160.07
521.34	42433.91
521.52	42869.25
521.69	42904.36
521.86	42997.98
522.03	43159.48
522.20	43351.40
522.38	43014.37
522.55	42934.79
522.72	42937.13
522.89	43693.12
523.07	43590.14
523.24	43753.97
523.41	43210.97
523.58	43367.79
523.75	43753.97
523.92	43615.88
524.10	43852.28
524.27	44311.02
524.44	44439.75
524.61	44320.38
524.78	44301.66
524.96	44451.45
525.13	44238.47
525.30	44135.48
525.47	44416.35
525.64	44479.54
525.81	44687.85
525.98	45116.17
526.16	44624.65
526.33	44823.60
526.50	44720.62
526.67	44776.79
526.84	45031.91
527.01	44765.09
527.18	44987.44
527.36	45343.20
527.53	45123.19
527.70	45560.87
527.87	45422.78
528.04	45371.28
528.21	45656.83
528.38	45270.64
528.55	45565.55
528.72	45492.99
528.89	45778.54
529.07	45645.13
529.24	46124.94
529.41	46251.33
529.58	45752.79
529.75	45766.84
529.92	45949.40
530.09	46195.15
530.26	46387.08
530.43	46071.10
530.60	46415.16
530.77	46398.78
530.94	46506.44
531.11	46366.01
531.28	46251.33
531.46	46333.24
531.63	46712.41
531.80	47044.77
531.97	47056.47
532.14	46731.14
532.31	46913.70
532.48	47065.83
532.65	46939.44
532.82	46571.98
532.99	47288.18
533.16	46848.16
533.33	47222.65
533.50	47711.82
533.67	47327.97
533.84	47398.19
534.01	47119.66
534.18	47126.69
534.35	47468.40
534.52	47484.79
534.69	47936.51
534.86	47578.41
535.03	47908.43
535.20	47899.06
535.37	47728.20
535.54	47936.51
535.71	47454.36
535.88	48032.47
536.05	47608.84
536.22	48451.43
536.38	47875.66
536.55	48278.23
536.72	48266.53
536.89	47957.58
537.06	48439.73
537.23	48538.03
537.40	48268.87
537.57	48268.87
537.74	48746.34
537.91	48493.56
538.08	48893.79
538.25	48371.85
538.42	48413.98
538.59	48758.04
538.75	48439.73
538.92	48540.37
539.09	49235.51
539.26	48758.04
539.43	48629.31
539.60	49069.33
539.77	48926.56
539.94	49132.53
540.11	49172.31
540.28	49022.52
540.44	48987.41
540.61	49038.90
540.78	49081.03
540.95	48893.79
541.12	49272.96
541.29	49249.55
541.46	49525.74
541.62	49265.94
541.79	49268.28
541.96	48811.87
542.13	49474.24
542.30	49579.57
542.47	49841.71
542.63	50019.59
542.80	49797.24
542.97	49865.11
543.14	50230.24
543.31	50101.51
543.48	49895.54
543.64	50045.33
543.81	50326.20
543.98	50323.86
544.15	50440.89
544.32	50597.70
544.48	50384.71
544.65	50288.75
544.82	49989.16
544.99	50330.88
545.16	50223.22
545.32	49949.37
545.49	50803.67
545.66	50700.68
545.83	50471.31
546.00	50965.17
546.16	50761.54
546.33	50454.93
546.50	50277.05
546.67	50340.24
546.83	50195.13
547.00	50693.66
547.17	50672.60
547.34	50506.42
547.50	51119.64
547.67	50883.25
547.84	50894.95
548.00	50948.78
548.17	51119.64
548.34	50791.97
548.51	51079.85
548.67	51309.22
548.84	51065.81
549.01	50951.12
549.18	51168.79
549.34	51311.56
549.51	50777.92
549.68	51075.17
549.84	51061.13
550.01	51173.47
550.18	51098.58
550.34	51091.55
550.51	51550.30
550.68	51260.07
550.84	51292.84
551.01	51517.53
551.18	51189.86
551.34	51019.00
551.51	51550.30
551.68	51353.69
551.84	51372.42
552.01	51601.79
552.18	51531.57
552.34	51824.14
552.51	51887.34
552.68	51760.95
552.84	51498.81
553.01	51683.71
553.18	51496.47
553.34	51875.63
553.51	52069.90
553.67	52163.52
553.84	51973.94
554.01	52252.46
554.17	52144.80
554.34	52034.79
554.51	52100.32
554.67	51873.29
554.84	51908.40
555.00	52081.60
555.17	51915.42
555.33	51803.08
555.50	51941.17
555.67	51952.87
555.83	52006.70
556.00	52360.12
556.16	52175.22
556.33	52067.56
556.50	52203.31
556.66	52332.04
556.83	52339.06
556.99	52266.50
557.16	52467.79
557.32	52666.73
557.49	52516.94
557.65	51997.34
557.82	52198.63
557.98	52538.01
558.15	52266.50
558.32	52601.20
558.48	52460.77
558.65	52797.80
558.81	52556.73
558.98	52720.57
559.14	52526.30
559.31	52432.68
559.47	52631.63
559.64	52755.68
559.80	52479.49
559.97	52772.06
560.13	52596.52
560.30	52706.52
560.46	52793.12
560.63	52891.43
560.79	52762.70
560.96	52851.64
561.12	52589.50
561.29	52552.05
561.45	52692.48
561.61	52648.01
561.78	53052.92
561.94	53027.18
562.11	52973.34
562.27	52626.95
562.44	52807.17
562.60	52722.91
562.77	52844.62
562.93	52748.65
563.10	53078.67
563.26	52949.94
563.42	53057.60
563.59	52858.66
563.75	52917.17
563.92	52720.57
564.08	52900.79
564.24	53006.11
564.41	52924.19
564.57	52973.34
564.74	52821.21
564.90	52830.57
565.07	53045.90
565.23	53198.04
565.39	52996.75
565.56	53158.25
565.72	52818.87
565.88	53064.63
566.05	53057.60
566.21	52739.29
566.38	52971.00
566.54	53279.96
566.70	53272.93
566.87	53448.47
567.03	53193.36
567.19	53371.24
567.36	53073.99
567.52	53207.40
567.68	53333.79
567.85	52818.87
568.01	53031.86
568.17	53237.83
568.34	53116.12
568.50	53247.19
568.66	52772.06
568.83	53408.68
568.99	53172.29
569.15	53347.83
569.32	53188.67
569.48	52973.34
569.64	53427.41
569.81	53251.87
569.97	53162.93
570.13	53364.21
570.30	53188.67
570.46	53560.82
570.62	53399.32
570.78	53392.30
570.95	53083.35
571.11	53200.38
571.27	53059.94
571.43	53214.42
571.60	53226.12
571.76	53265.91
571.92	53153.57
572.09	53216.76
572.25	53612.31
572.41	53020.16
572.57	53153.57
572.74	53591.25
572.90	53010.79
573.06	53413.37
573.22	53113.78
573.38	53450.81
573.55	53443.79
573.71	53757.42
573.87	53579.54
574.03	53195.70
574.20	53560.82
574.36	53301.02
574.52	53127.82
574.68	53483.58
574.84	53317.40
575.01	53680.19
575.17	53443.79
575.33	53310.38
575.49	53179.31
575.65	53614.65
575.82	53961.05
575.98	53296.34
576.14	53661.46
576.30	53408.68
576.46	53509.33
576.62	53183.99
576.79	53228.46
576.95	53331.45
577.11	53296.34
577.27	53546.78
577.43	53404.00
577.59	53411.02
577.75	53230.80
577.92	53537.41
578.08	53357.19
578.24	53312.72
578.40	53389.96
578.56	53523.37
578.72	53301.02
578.88	53734.02
579.04	53429.75
579.21	53469.54
579.37	53279.96
579.53	53401.66
579.69	53305.70
579.85	53373.58
580.01	53361.87
580.17	53418.05
580.33	53095.05
580.49	53528.05
580.65	53350.17
580.82	53530.39
580.98	53469.54
581.14	53427.41
581.30	53654.44
581.46	53261.23
581.62	53258.89
581.78	53200.38
581.94	53329.11
582.10	53263.57
582.26	53368.90
582.42	53380.60
582.58	53434.43
582.74	53511.67
582.90	53546.78
583.06	53542.10
583.22	53483.58
583.38	53415.71
583.54	53427.41
583.70	53223.78
583.86	53549.12
584.02	53413.37
584.18	53619.33
584.34	53727.00
584.50	53521.03
584.66	53324.43
584.82	53483.58
584.98	53511.67
585.14	53506.99
585.30	53425.07
585.46	53200.38
585.62	53305.70
585.78	53530.39
585.94	53216.76
586.10	53432.09
586.26	53432.09
586.42	53851.05
586.58	53659.12
586.74	53586.57
586.90	53446.13
587.06	53275.27
587.22	53303.36
587.38	53207.40
587.54	53474.22
587.70	53722.32
587.86	53745.72
588.02	53577.20
588.18	53584.22
588.34	53324.43
588.49	53766.79
588.65	53509.33
588.81	53448.47
588.97	53427.41
589.13	53457.84
589.29	53666.14
589.45	53806.58
589.61	53729.34
589.77	53794.87
589.93	53654.44
