SpectraSuite Data File
++++++++++++++++++++++++++++++++++++
Date: Fri Oct 18 13:54:23 GMT-05:00 2013
User: bianchi
Dark Spectrum Present: No
Reference Spectrum Present: No
Number of Sampled Component Spectra: 1
Spectrometers: USB2+H05261
Integration Time (usec): 100000 (USB2+H05261)
Spectra Averaged: 1 (USB2+H05261)
Boxcar Smoothing: 0 (USB2+H05261)
Correct for Electrical Dark: No (USB2+H05261)
Strobe/Lamp Enabled: No (USB2+H05261)
Correct for Detector Non-linearity: No (USB2+H05261)
Correct for Stray Light: No (USB2+H05261)
Number of Pixels in Processed Spectrum: 2048
>>>>>Begin Processed Spectral Data<<<<<
365.73	0.00
365.92	0.00
366.12	0.00
366.32	0.00
366.52	0.00
366.72	0.00
366.91	0.00
367.11	0.00
367.31	0.00
367.51	0.00
367.70	0.00
367.90	0.00
368.10	0.00
368.30	0.00
368.49	0.00
368.69	0.00
368.89	0.00
369.09	0.00
369.28	0.00
369.48	0.00
369.68	0.00
369.87	0.00
370.07	0.00
370.27	0.00
370.47	67.88
370.66	236.39
370.86	287.89
371.06	287.89
371.25	308.95
371.45	308.95
371.65	367.46
371.84	407.25
372.04	376.83
372.24	374.49
372.44	344.06
372.63	344.06
372.83	456.40
373.03	372.15
373.22	400.23
373.42	423.64
373.62	383.85
373.81	496.19
374.01	543.00
374.21	407.25
374.40	454.06
374.60	475.13
374.79	475.13
374.99	468.11
375.19	505.56
375.38	564.07
375.58	475.13
375.78	517.26
375.97	451.72
376.17	561.73
376.37	496.19
376.56	528.96
376.76	500.87
376.95	531.30
377.15	636.63
377.35	547.69
377.54	552.37
377.74	580.45
377.93	526.62
378.13	580.45
378.33	613.22
378.52	582.79
378.72	613.22
378.91	636.63
379.11	519.60
379.31	594.50
379.50	641.31
379.70	566.41
379.89	608.54
380.09	566.41
380.28	575.77
380.48	671.73
380.68	521.94
380.87	585.13
381.07	667.05
381.26	599.18
381.46	676.41
381.65	636.63
381.85	732.59
382.04	737.27
382.24	711.52
382.43	699.82
382.63	653.01
382.83	748.97
383.02	805.14
383.22	718.54
383.41	699.82
383.61	638.97
383.80	748.97
384.00	739.61
384.19	669.39
384.39	713.86
384.58	748.97
384.78	812.17
384.97	807.48
385.17	732.59
385.36	809.83
385.56	793.44
385.75	704.50
385.95	800.46
386.14	851.96
386.34	770.04
386.53	828.55
386.72	826.21
386.92	908.13
387.11	837.91
387.31	795.78
387.50	887.06
387.70	903.45
387.89	809.83
388.09	976.00
388.28	858.98
388.48	868.34
388.67	950.26
388.86	945.58
389.06	931.53
389.25	954.94
389.45	1032.18
389.64	992.39
389.84	1001.75
390.03	1020.47
390.22	1041.54
390.42	1034.52
390.61	915.15
390.81	947.92
391.00	1011.11
391.19	947.92
391.39	1039.20
391.58	1020.47
391.78	964.30
391.97	1118.78
392.16	1076.65
392.36	1116.44
392.55	1090.69
392.75	1097.71
392.94	1130.48
393.13	1193.67
393.33	1149.20
393.52	1153.88
393.71	1224.10
393.91	1198.35
394.10	1137.50
394.29	1156.22
394.49	1210.06
394.68	1228.78
394.88	1245.16
395.07	1235.80
395.26	1273.25
395.46	1153.88
395.65	1327.08
395.84	1219.42
396.04	1362.19
396.23	1259.21
396.42	1240.48
396.62	1266.23
396.81	1282.61
397.00	1308.36
397.19	1301.34
397.39	1348.15
397.58	1458.15
397.77	1469.86
397.97	1483.90
398.16	1425.39
398.35	1383.26
398.55	1434.75
398.74	1455.81
398.93	1432.41
399.12	1500.28
399.32	1437.09
399.51	1476.88
399.70	1558.80
399.90	1497.94
400.09	1654.76
400.28	1668.80
400.47	1462.83
400.67	1612.63
400.86	1689.87
401.05	1593.90
401.24	1619.65
401.44	1720.29
401.63	1708.59
401.82	1671.14
402.01	1668.80
402.21	1626.67
402.40	1764.76
402.59	1736.68
402.78	1727.32
402.97	1844.34
403.17	1708.59
403.36	1703.91
403.55	1802.21
403.74	1837.32
403.93	1870.09
404.13	1937.96
404.32	1874.77
404.51	1872.43
404.70	2038.61
404.89	1949.67
405.09	2019.88
405.28	1975.41
405.47	2019.88
405.66	2010.52
405.85	2157.97
406.05	2017.54
406.24	1980.09
406.43	2193.08
406.62	2120.53
406.81	2286.70
407.00	2136.91
407.20	2139.25
407.39	2167.34
407.58	2286.70
407.77	2181.38
407.96	2321.81
408.15	2389.69
408.34	2324.15
408.54	2354.58
408.73	2319.47
408.92	2459.90
409.11	2452.88
409.30	2502.03
409.49	2401.39
409.68	2492.67
409.87	2380.32
410.07	2539.48
410.26	2663.53
410.45	2506.71
410.64	2485.65
410.83	2679.91
411.02	2537.14
411.21	2658.85
411.40	2796.94
411.59	2796.94
411.78	2766.51
411.98	2623.74
412.17	2726.72
412.36	2775.88
412.55	2897.58
412.74	3014.61
412.93	2939.71
413.12	2876.52
413.31	3068.44
413.50	2984.18
413.69	3068.44
413.88	3176.11
414.07	3152.70
414.26	3063.76
414.45	3309.52
414.64	3213.56
414.83	3300.16
415.02	3272.07
415.22	3414.84
415.41	3398.46
415.60	3323.56
415.79	3419.52
415.98	3602.08
416.17	3604.42
416.36	3529.53
416.55	3548.25
416.74	3693.37
416.93	3611.45
417.12	3665.28
417.31	3602.08
417.50	3681.66
417.69	3751.88
417.88	3791.67
418.07	3777.62
418.26	3770.60
418.45	3995.29
418.64	4049.13
418.83	4016.36
419.02	3861.88
419.21	4046.79
419.39	4004.66
419.58	4084.23
419.77	3918.06
419.96	4119.34
420.15	4138.07
420.34	4166.15
420.53	4248.07
420.72	4320.63
420.91	4376.80
421.10	4166.15
421.29	4241.05
421.48	4147.43
421.67	4386.16
421.86	4168.49
422.05	4320.63
422.24	4180.20
422.43	4339.35
422.61	4482.13
422.80	4318.29
422.99	4231.69
423.18	4512.55
423.37	4458.72
423.56	4468.08
423.75	4421.27
423.94	4517.23
424.13	4212.96
424.32	4159.13
424.50	4451.70
424.69	4589.79
424.88	4594.47
425.07	4472.76
425.26	4514.89
425.45	4542.98
425.64	4704.48
425.83	4528.94
426.01	4568.73
426.20	4456.38
426.39	4596.81
426.58	4507.87
426.77	4643.62
426.96	4692.77
427.15	4791.08
427.33	4662.35
427.52	4627.24
427.71	4835.55
427.90	4786.40
428.09	4802.78
428.28	4765.33
428.46	4966.62
428.65	4933.85
428.84	4966.62
429.03	5050.88
429.22	4896.40
429.40	4992.36
429.59	4968.96
429.78	4877.68
429.97	4961.94
430.16	4938.53
430.34	5228.76
430.53	5102.37
430.72	5008.75
430.91	4985.34
431.10	5048.54
431.28	5303.65
431.47	5399.62
431.66	5364.51
431.85	5207.69
432.03	5399.62
432.22	5537.71
432.41	5345.78
432.60	5528.35
432.79	5399.62
432.97	5537.71
433.16	5528.35
433.35	5579.84
433.54	5518.98
433.72	5547.07
433.91	5544.73
434.10	5678.14
434.28	5664.10
434.47	5671.12
434.66	5837.30
434.85	5849.00
435.03	5755.38
435.22	5778.78
435.41	5804.53
435.59	5898.15
435.78	5949.64
435.97	5909.85
436.16	5916.87
436.34	5909.85
436.53	6080.71
436.72	6162.63
436.90	6078.37
437.09	6092.41
437.28	5928.58
437.46	6017.52
437.65	6076.03
437.84	6214.12
438.02	6296.04
438.21	6321.79
438.40	5970.71
438.58	6340.51
438.77	6368.60
438.96	6389.66
439.14	6396.68
439.33	6733.72
439.52	6689.25
439.70	6796.92
439.89	6750.10
440.08	6715.00
440.26	6668.19
440.45	6808.62
440.63	7070.76
440.82	6885.86
441.01	6895.22
441.19	7042.67
441.38	7159.70
441.57	7190.13
441.75	7239.28
441.94	7346.94
442.12	7330.56
442.31	7569.29
442.50	7389.07
442.68	7346.94
442.87	7536.52
443.05	7548.23
443.24	7740.15
443.43	7581.00
443.61	7527.16
443.80	7648.87
443.98	7492.05
444.17	7356.30
444.35	7740.15
444.54	7805.69
444.73	7595.04
444.91	7597.38
445.10	7733.13
445.28	7674.62
445.47	7719.09
445.65	7625.47
445.84	7829.09
446.02	7911.01
446.21	7698.02
446.39	7529.50
446.58	7964.84
446.77	7754.19
446.95	7705.04
447.14	7875.90
447.32	7992.93
447.51	7824.41
447.69	7953.14
447.88	7908.67
448.06	7878.24
448.25	7742.49
448.43	7866.54
448.62	7964.84
448.80	7880.58
448.99	7992.93
449.17	7805.69
449.36	8023.36
449.54	8091.23
449.73	8304.22
449.91	8313.58
450.10	8301.88
450.28	8285.50
450.46	8294.86
450.65	8418.91
450.83	8421.25
451.02	8287.84
451.20	8456.36
451.39	8442.31
451.57	8245.71
451.76	8285.50
451.94	8409.54
452.13	8711.47
452.31	8667.00
452.49	8484.44
452.68	8615.51
452.86	8669.34
453.05	8781.69
453.23	8650.62
453.42	8587.43
453.60	8629.56
453.78	8669.34
453.97	8655.30
454.15	8917.44
454.34	8753.60
454.52	8814.46
454.70	8779.35
454.89	8964.25
455.07	9048.51
455.26	9060.21
455.44	9081.28
455.62	8999.36
455.81	8982.98
455.99	9020.42
456.17	9312.99
456.36	9118.73
456.54	9296.61
456.73	9387.89
456.91	9879.40
457.09	9626.62
457.28	9998.77
457.46	9411.29
457.64	9804.50
457.83	9678.12
458.01	9490.87
458.19	9736.63
458.38	9731.95
458.56	10003.45
458.74	9795.14
458.93	9745.99
459.11	9860.68
459.29	9909.83
459.48	9848.97
459.66	9984.73
459.84	9982.38
460.03	9998.77
460.21	10368.57
460.39	10153.24
460.57	10270.27
460.76	10073.67
460.94	10286.65
461.12	10303.04
461.31	10202.40
461.49	10223.46
461.67	10188.35
461.85	10539.43
462.04	10523.05
462.22	11044.99
462.40	10576.88
462.59	10562.84
462.77	10614.33
462.95	10635.39
463.13	10644.76
463.32	10677.52
463.50	10729.02
463.68	10635.39
463.86	10792.21
464.05	10787.53
464.23	10712.63
464.41	10869.45
464.59	10670.50
464.78	10850.72
464.96	10876.47
465.14	11040.31
465.32	10923.28
465.50	11026.26
465.69	11117.54
465.87	10899.87
466.05	11183.08
466.23	11035.63
466.41	11335.21
466.60	11632.46
466.78	10998.18
466.96	11159.67
467.14	10956.05
467.32	11513.10
467.51	11714.38
467.69	11412.45
467.87	11335.21
468.05	11358.62
468.23	11110.52
468.41	11379.68
468.60	11541.18
468.78	11669.91
468.96	11597.35
469.14	11595.01
469.32	11705.02
469.50	11590.33
469.69	11875.88
469.87	12077.16
470.05	12379.09
470.23	12226.96
470.41	11875.88
470.59	12131.00
470.77	11754.17
470.95	11967.16
471.14	12297.17
471.32	12208.23
471.50	12634.21
471.68	12582.72
471.86	12601.44
472.04	12512.50
472.22	13109.34
472.40	12367.39
472.58	12624.85
472.77	12830.82
472.95	12901.03
473.13	13177.22
473.31	12999.34
473.49	12842.52
473.67	13118.70
473.85	12786.35
474.03	13434.68
474.21	13252.11
474.39	13476.80
474.57	13603.19
474.75	13593.83
474.93	13701.50
475.12	13607.87
475.30	13706.18
475.48	13610.22
475.66	13912.14
475.84	13825.54
476.02	14174.28
476.20	14010.45
476.38	14375.57
476.56	14736.01
476.74	14581.54
476.92	14551.11
477.10	14270.25
477.28	15035.60
477.46	14377.91
477.64	14717.29
477.82	15204.12
478.00	15311.78
478.18	15070.71
478.36	15414.77
478.54	15929.69
478.72	15845.43
478.90	15676.91
479.08	15843.09
479.26	16147.36
479.44	16437.58
479.62	16283.11
479.80	16531.20
479.98	16533.54
480.16	16643.55
480.34	16650.57
480.52	17128.04
480.70	16652.91
480.88	16774.62
481.06	17329.33
481.24	17146.76
481.41	17263.79
481.59	17867.65
481.77	17884.03
481.95	18054.89
482.13	18071.28
482.31	18452.78
482.49	18427.04
482.67	18417.68
482.85	18586.19
483.03	18923.23
483.21	19318.78
483.39	19080.05
483.57	19051.96
483.74	19229.84
483.92	19349.21
484.10	19583.26
484.28	19887.53
484.46	19988.18
484.64	20343.94
484.82	20264.36
485.00	20690.34
485.18	20498.41
485.35	21242.70
485.53	21135.04
485.71	21010.99
485.89	21441.65
486.07	21455.69
486.25	21104.61
486.43	21710.81
486.61	21846.56
486.78	22335.73
486.96	22111.04
487.14	22735.96
487.32	22576.81
487.50	22651.70
487.68	22478.50
487.85	23290.67
488.03	23054.28
488.21	23381.95
488.39	23463.87
488.57	23854.74
488.75	24247.95
488.92	23922.62
489.10	24570.94
489.28	24416.47
489.46	24734.78
489.64	24704.35
489.81	25008.62
489.99	25493.12
490.17	25324.60
490.35	25652.27
490.53	25619.50
490.70	26038.46
490.88	25951.86
491.06	26387.20
491.24	26345.07
491.41	26663.38
491.59	26431.67
491.77	26658.70
491.95	26953.61
492.13	27257.88
492.30	27330.44
492.48	27475.55
492.66	27718.96
492.84	27608.96
493.01	28297.08
493.19	28334.53
493.37	28570.92
493.54	28407.08
493.72	28699.65
493.90	28493.68
494.08	29074.13
494.25	29013.28
494.43	29366.70
494.61	29493.09
494.79	29708.42
494.96	29699.06
495.14	30026.73
495.32	30012.69
495.49	30080.56
495.67	30574.42
495.85	30728.89
496.02	31131.47
496.20	31091.68
496.38	30803.79
496.55	31087.00
496.73	31718.94
496.91	31314.03
497.09	31931.93
497.26	32404.72
497.44	31683.83
497.62	32098.11
497.79	32505.36
497.97	32378.97
498.14	32481.95
498.32	32896.23
498.50	32903.25
498.67	33607.75
498.85	33188.80
499.03	33275.40
499.20	33422.85
499.38	33890.96
499.56	33736.48
499.73	34258.42
499.91	34043.09
500.08	34047.77
500.26	34050.11
500.44	34340.34
500.61	34272.46
500.79	34230.33
500.97	35012.07
501.14	35428.69
501.32	35346.77
501.49	35248.47
501.67	35281.24
501.84	35353.79
502.02	35498.91
502.20	35791.47
502.37	35840.62
502.55	35526.99
502.72	36172.98
502.90	36252.56
503.07	35756.36
503.25	36175.32
503.43	35941.27
503.60	36802.58
503.78	36793.22
503.95	36519.38
504.13	37130.26
504.30	37223.88
504.48	36842.37
504.65	37003.87
504.83	37631.13
505.01	37675.60
505.18	37441.55
505.36	37689.65
505.53	37933.06
505.71	37589.00
505.88	37855.82
506.06	37567.94
506.23	38337.98
506.41	38410.53
506.58	38565.01
506.76	38417.55
506.93	38569.69
507.11	38513.52
507.28	38653.95
507.46	39091.63
507.63	39201.63
507.81	39110.35
507.98	39526.97
508.16	39021.41
508.33	39374.83
508.50	39627.61
508.68	39501.22
508.85	39908.47
509.03	39906.13
509.20	40311.05
509.38	40425.73
509.55	40390.62
509.73	40397.65
509.90	40638.72
510.08	40407.01
510.25	40107.42
510.42	40905.54
510.60	40718.30
510.77	41095.13
510.95	41317.48
511.12	40940.65
511.30	40725.32
511.47	41441.53
511.64	41415.78
511.82	41865.16
511.99	41731.75
512.17	42113.26
512.34	41991.55
512.51	41909.63
512.69	42007.94
512.86	42342.63
513.04	42831.80
513.21	42438.59
513.38	42333.27
513.56	42733.50
513.73	42794.36
513.90	42593.07
514.08	42902.02
514.25	43215.65
514.43	42899.68
514.60	43430.98
514.77	43433.32
514.95	43789.08
515.12	43323.32
515.29	43049.47
515.47	43559.71
515.64	43758.66
515.81	44100.37
515.99	44212.72
516.16	44687.85
516.33	44243.15
516.51	44486.56
516.68	44004.41
516.85	44245.49
517.03	44666.78
517.20	44767.43
517.37	44264.21
517.54	44760.40
517.72	44809.56
517.89	44678.49
518.06	45029.57
518.24	45387.67
518.41	45003.82
518.58	45392.35
518.75	45303.41
518.93	45481.29
519.10	45265.96
519.27	45450.86
519.45	45305.75
519.62	45593.64
519.79	45998.55
519.96	45659.17
520.14	46007.91
520.31	45631.08
520.48	46143.66
520.65	46452.61
520.83	46478.36
521.00	46066.42
521.17	45951.74
521.34	46260.69
521.52	46754.54
521.69	46403.46
521.86	46918.38
522.03	46887.95
522.20	46815.40
522.38	47070.51
522.55	47044.77
522.72	47133.71
522.89	47154.77
523.07	47634.58
523.24	47735.23
523.41	47522.24
523.58	47920.13
523.75	47985.66
523.92	47255.42
524.10	47730.54
524.27	48149.50
524.44	47901.40
524.61	48425.68
524.78	48222.06
524.96	48348.45
525.13	48526.33
525.30	48624.63
525.47	48285.25
525.64	48107.37
525.81	48577.82
525.98	48851.66
526.16	48790.81
526.33	48619.95
526.50	48956.99
526.67	48561.44
526.84	48793.15
527.01	48699.53
527.18	48875.07
527.36	49078.69
527.53	49420.41
527.70	49642.76
527.87	49389.98
528.04	49439.14
528.21	49357.22
528.38	49191.04
528.55	49083.37
528.72	49408.71
528.89	49509.35
529.07	49605.31
529.24	49872.14
529.41	49720.00
529.58	49563.18
529.75	49453.18
529.92	49586.59
530.09	49991.50
530.26	50541.53
530.43	49909.58
530.60	50005.55
530.77	50267.69
530.94	50202.15
531.11	50045.33
531.28	49986.82
531.46	50309.82
531.63	50351.94
531.80	50698.34
531.97	50752.18
532.14	50670.26
532.31	50829.41
532.48	50916.01
532.65	50698.34
532.82	50674.94
532.99	50674.94
533.16	50595.36
533.33	50979.21
533.50	51550.30
533.67	51098.58
533.84	51082.19
534.01	50815.37
534.18	51100.92
534.35	51231.99
534.52	51030.70
534.69	51618.17
534.86	51409.87
535.03	51494.13
535.20	51531.57
535.37	51524.55
535.54	51463.70
535.71	51281.14
535.88	51625.20
536.05	51503.49
536.22	51838.18
536.38	52170.54
536.55	51894.36
536.72	52112.03
536.89	51732.86
537.06	51524.55
537.23	51735.20
537.40	51777.33
537.57	51908.40
537.74	52032.45
537.91	52105.01
538.08	52135.43
538.25	51877.97
538.42	52161.18
538.59	52240.76
538.75	52032.45
538.92	52381.19
539.09	52179.90
539.26	52643.33
539.43	52346.08
539.60	52549.71
539.77	52633.97
539.94	52666.73
540.11	52416.30
540.28	52315.65
540.44	52626.95
540.61	52669.08
540.78	52460.77
540.95	52788.44
541.12	52505.24
541.29	52746.31
541.46	52849.30
541.62	52903.13
541.79	52875.04
541.96	52659.71
542.13	52912.49
542.30	53186.33
542.47	53228.46
542.63	53139.52
542.80	53202.72
542.97	53308.04
543.14	53666.14
543.31	53413.37
543.48	53174.63
543.64	53820.62
543.81	53729.34
543.98	53312.72
544.15	53869.77
544.32	53787.85
544.48	53937.65
544.65	53687.21
544.82	53696.57
544.99	53542.10
545.16	53633.38
545.32	53546.78
545.49	53724.66
545.66	54045.31
545.83	54080.42
546.00	54061.69
546.16	54031.27
546.33	53825.30
546.50	53710.61
546.67	54024.25
546.83	53766.79
547.00	53949.35
547.17	53893.18
547.34	54272.34
547.50	54164.68
547.67	54426.82
547.84	54298.09
548.00	54391.71
548.17	54330.86
548.34	54134.25
548.51	54548.53
548.67	54209.15
548.84	54478.31
549.01	54330.86
549.18	54347.24
549.34	54433.84
549.51	54506.40
549.68	54480.65
549.84	54454.90
550.01	54553.21
550.18	54461.93
550.34	54695.98
550.51	54693.64
550.68	54660.87
550.84	54497.03
551.01	54728.75
551.18	54600.02
551.34	54466.61
551.51	54841.09
551.68	55035.36
551.84	54824.71
552.01	54581.29
552.18	54794.28
552.34	54780.24
552.51	55187.49
552.68	54719.38
552.84	54918.33
553.01	55107.91
553.18	54766.20
553.34	54993.23
553.51	54946.42
553.67	54944.08
553.84	55618.15
554.01	55164.09
554.17	55068.12
554.34	55250.69
554.51	55070.46
554.67	55407.50
554.84	55379.42
555.00	55339.63
555.17	55367.71
555.33	55260.05
555.50	55040.04
555.67	55386.44
555.83	55213.24
556.00	55112.59
556.16	55512.83
556.33	55356.01
556.50	55407.50
556.66	55538.57
556.83	55557.30
556.99	55569.00
557.16	55739.86
557.32	55702.41
557.49	55559.64
557.65	55580.70
557.82	55402.82
557.98	55346.65
558.15	55430.91
558.32	55877.95
558.48	55576.02
558.65	55791.35
558.81	55763.26
558.98	55695.39
559.14	55767.94
559.31	55833.48
559.47	55786.67
559.64	55910.72
559.80	55889.65
559.97	55957.53
560.13	55545.59
560.30	55566.66
560.46	55524.53
560.63	55842.84
560.79	55807.73
560.96	55973.91
561.12	56011.36
561.29	55779.65
561.45	55889.65
561.61	55791.35
561.78	55969.23
561.94	55971.57
562.11	56193.92
562.27	55931.78
562.44	55948.17
562.60	55920.08
562.77	55807.73
562.93	56006.68
563.10	56041.79
563.26	55793.69
563.42	56411.59
563.59	56177.54
563.75	56034.77
563.92	56182.22
564.08	55952.85
564.24	55941.14
564.41	55934.12
564.57	56151.79
564.74	56240.73
564.90	56090.94
565.07	56217.33
565.23	56324.99
565.39	56177.54
565.56	56245.41
565.72	56252.44
565.88	55990.30
566.05	56149.45
566.21	56023.06
566.38	56112.00
566.54	56184.56
566.70	56310.95
566.87	56406.91
567.03	56254.78
567.19	56507.55
567.36	56324.99
567.52	56278.18
567.68	56214.99
567.85	56058.17
568.01	56175.20
568.17	56252.44
568.34	56498.19
568.50	56390.53
568.66	56332.01
568.83	56374.14
568.99	56203.28
569.15	56172.86
569.32	56350.74
569.48	56060.51
569.64	56451.38
569.81	56214.99
569.97	56200.94
570.13	56580.11
570.30	56193.92
570.46	56383.51
570.62	56317.97
570.78	56348.40
570.95	56254.78
571.11	56348.40
571.27	56025.40
571.43	56151.79
571.60	56355.42
571.76	56458.40
571.92	56477.13
572.09	56542.66
572.25	56734.59
572.41	56378.82
572.57	56432.66
572.74	56671.39
572.90	56463.08
573.06	56238.39
573.22	56432.66
573.38	56603.52
573.55	56343.72
573.71	56823.53
573.87	56678.41
574.03	56477.13
574.20	56467.76
574.36	56596.49
574.52	56477.13
574.68	56547.34
574.84	56566.07
575.01	56317.97
575.17	56516.92
575.33	56346.06
575.49	56795.44
575.65	56608.20
575.82	56875.02
575.98	56601.18
576.14	56673.73
576.30	56725.22
576.46	56207.97
576.62	56409.25
576.79	56416.27
576.95	56502.87
577.11	56582.45
577.27	56638.62
577.43	56580.11
577.59	56423.29
577.75	56645.65
577.92	56327.33
578.08	56189.24
578.24	56498.19
578.40	56786.08
578.56	56556.70
578.72	56470.11
578.88	56512.23
579.04	56554.36
579.21	56444.36
579.37	56718.20
579.53	56734.59
579.69	56294.56
579.85	56484.15
580.01	56680.75
580.17	56313.29
580.33	56282.86
580.49	56521.60
580.65	56530.96
580.82	56718.20
580.98	56718.20
581.14	56523.94
581.30	56725.22
581.46	56502.87
581.62	56655.01
581.78	56369.46
581.94	56638.62
582.10	56540.32
582.26	56484.15
582.42	56638.62
582.58	56711.18
582.74	56559.05
582.90	56837.57
583.06	56961.62
583.22	56369.46
583.38	56453.72
583.54	56275.84
583.70	56523.94
583.86	56563.73
584.02	56404.57
584.18	56868.00
584.34	56650.33
584.50	56952.26
584.66	56814.16
584.82	56444.36
584.98	56647.99
585.14	56570.75
585.30	56680.75
585.46	56591.81
585.62	56638.62
585.78	56697.14
585.94	56437.34
586.10	56727.56
586.26	56748.63
586.42	56987.36
586.58	56687.78
586.74	56580.11
586.90	56479.47
587.06	56336.69
587.22	56697.14
587.38	56519.26
587.54	56734.59
587.70	56851.61
587.86	56851.61
588.02	56809.48
588.18	56652.67
588.34	56846.93
588.49	56718.20
588.65	56699.48
588.81	56547.34
588.97	56750.97
589.13	56800.12
589.29	56652.67
589.45	56917.15
589.61	56917.15
