SpectraSuite Data File
++++++++++++++++++++++++++++++++++++
Date: Fri Oct 18 13:55:19 GMT-05:00 2013
User: bianchi
Dark Spectrum Present: No
Reference Spectrum Present: No
Number of Sampled Component Spectra: 1
Spectrometers: USB2+H05261
Integration Time (usec): 100000 (USB2+H05261)
Spectra Averaged: 1 (USB2+H05261)
Boxcar Smoothing: 0 (USB2+H05261)
Correct for Electrical Dark: No (USB2+H05261)
Strobe/Lamp Enabled: No (USB2+H05261)
Correct for Detector Non-linearity: No (USB2+H05261)
Correct for Stray Light: No (USB2+H05261)
Number of Pixels in Processed Spectrum: 2048
>>>>>Begin Processed Spectral Data<<<<<
365.73	0.00
365.92	0.00
366.12	0.00
366.32	0.00
366.52	0.00
366.72	0.00
366.91	0.00
367.11	0.00
367.31	0.00
367.51	0.00
367.70	0.00
367.90	0.00
368.10	0.00
368.30	0.00
368.49	0.00
368.69	0.00
368.89	0.00
369.09	0.00
369.28	0.00
369.48	0.00
369.68	0.00
369.87	0.00
370.07	0.00
370.27	0.00
370.47	0.00
370.66	177.88
370.86	344.06
371.06	313.63
371.25	409.59
371.45	311.29
371.65	409.59
371.84	411.93
372.04	337.04
372.24	376.83
372.44	390.87
372.63	353.42
372.83	383.85
373.03	479.81
373.22	484.49
373.42	428.32
373.62	498.53
373.81	500.87
374.01	526.62
374.21	421.30
374.40	493.85
374.60	554.71
374.79	547.69
374.99	496.19
375.19	592.16
375.38	514.92
375.58	533.64
375.78	496.19
375.97	538.32
376.17	620.24
376.37	468.11
376.56	519.60
376.76	493.85
376.95	540.66
377.15	538.32
377.35	533.64
377.54	557.05
377.74	540.66
377.93	608.54
378.13	603.86
378.33	519.60
378.52	566.41
378.72	580.45
378.91	606.20
379.11	599.18
379.31	641.31
379.50	596.84
379.70	622.58
379.89	692.80
380.09	671.73
380.28	643.65
380.48	587.47
380.68	582.79
380.87	571.09
381.07	631.94
381.26	695.14
381.46	624.92
381.65	718.54
381.85	805.14
382.04	734.93
382.24	716.20
382.43	685.78
382.63	753.65
382.83	655.35
383.02	720.88
383.22	755.99
383.41	758.33
383.61	791.10
383.80	739.61
384.00	746.63
384.19	734.93
384.39	678.76
384.58	784.08
384.78	727.91
384.97	884.72
385.17	807.48
385.36	688.12
385.56	805.14
385.75	830.89
385.95	823.87
386.14	758.33
386.34	723.23
386.53	868.34
386.72	709.18
386.92	915.15
387.11	849.61
387.31	896.43
387.50	863.66
387.70	840.25
387.89	847.27
388.09	943.24
388.28	945.58
388.48	898.77
388.67	936.21
388.86	936.21
389.06	889.40
389.25	917.49
389.45	1008.77
389.64	912.81
389.84	910.47
390.03	943.24
390.22	905.79
390.42	938.55
390.61	999.41
390.81	980.68
391.00	1057.92
391.19	1013.45
391.39	990.05
391.58	1048.56
391.78	1008.77
391.97	1093.03
392.16	1095.37
392.36	1200.69
392.55	1139.84
392.75	1137.50
392.94	1109.41
393.13	1172.61
393.33	1111.75
393.52	1163.25
393.71	1207.72
393.91	1172.61
394.10	1214.74
394.29	1149.20
394.49	1100.05
394.68	1167.93
394.88	1231.12
395.07	1249.85
395.26	1226.44
395.46	1275.59
395.65	1252.19
395.84	1200.69
396.04	1394.96
396.23	1362.19
396.42	1371.55
396.62	1373.89
396.81	1296.66
397.00	1383.26
397.19	1394.96
397.39	1343.47
397.58	1558.80
397.77	1434.75
397.97	1488.58
398.16	1497.94
398.35	1329.42
398.55	1397.30
398.74	1385.60
398.93	1521.35
399.12	1423.05
399.32	1334.11
399.51	1540.07
399.70	1479.22
399.90	1514.33
400.09	1537.73
400.28	1556.46
400.47	1561.14
400.67	1610.29
400.86	1610.29
401.05	1671.14
401.24	1654.76
401.44	1631.35
401.63	1619.65
401.82	1579.86
402.01	1696.89
402.21	1746.04
402.40	1830.30
402.59	1760.08
402.78	1774.13
402.97	1818.60
403.17	1937.96
403.36	1783.49
403.55	1830.30
403.74	1879.45
403.93	1769.44
404.13	1961.37
404.32	1823.28
404.51	1956.69
404.70	2062.01
404.89	2150.95
405.09	2040.95
405.28	1982.43
405.47	2012.86
405.66	2134.57
405.85	1998.82
406.05	2064.35
406.24	2106.48
406.43	2169.68
406.62	2200.10
406.81	2188.40
407.00	2111.16
407.20	2214.15
407.39	2207.13
407.58	2146.27
407.77	2300.75
407.96	2298.41
408.15	2253.94
408.34	2373.30
408.54	2340.54
408.73	2333.51
408.92	2256.28
409.11	2363.94
409.30	2483.31
409.49	2457.56
409.68	2469.27
409.87	2448.20
410.07	2478.63
410.26	2626.08
410.45	2593.31
410.64	2558.21
410.83	2649.49
411.02	2597.99
411.21	2691.62
411.40	2675.23
411.59	2750.13
411.78	2633.10
411.98	2698.64
412.17	2918.65
412.36	2785.24
412.55	2885.88
412.74	2932.69
412.93	2958.44
413.12	2925.67
413.31	3187.81
413.50	3045.04
413.69	3005.25
413.88	3133.98
414.07	3070.78
414.26	3126.96
414.45	3267.39
414.64	3325.90
414.83	3239.30
415.02	3314.20
415.22	3468.67
415.41	3379.73
415.60	3431.23
415.79	3534.21
415.98	3475.70
416.17	3637.19
416.36	3368.03
416.55	3627.83
416.74	3581.02
416.93	3646.55
417.12	3861.88
417.31	3740.18
417.50	3815.07
417.69	3892.31
417.88	3819.75
418.07	3861.88
418.26	3915.72
418.45	3871.25
418.64	3997.64
418.83	4014.02
419.02	3899.33
419.21	4079.55
419.39	4044.45
419.58	4011.68
419.77	4037.42
419.96	4021.04
420.15	4135.73
420.34	4117.00
420.53	4201.26
420.72	4276.16
420.91	4287.86
421.10	4259.78
421.29	4231.69
421.48	4234.03
421.67	4337.01
421.86	4388.50
422.05	4318.29
422.24	4255.09
422.43	4500.85
422.61	4418.93
422.80	4395.53
422.99	4463.40
423.18	4390.84
423.37	4582.77
423.56	4472.76
423.75	4442.34
423.94	4360.42
424.13	4299.56
424.32	4411.91
424.50	4454.04
424.69	4528.94
424.88	4498.51
425.07	4447.02
425.26	4458.72
425.45	4589.79
425.64	4535.96
425.83	4435.32
426.01	4489.15
426.20	4547.66
426.39	4550.00
426.58	4638.94
426.77	4847.25
426.96	4697.46
427.15	4732.56
427.33	4835.55
427.52	4709.16
427.71	4805.12
427.90	4741.93
428.09	4947.89
428.28	4863.63
428.46	4877.68
428.65	4901.08
428.84	5057.90
429.03	5107.05
429.22	4770.01
429.40	5013.43
429.59	4994.70
429.78	4901.08
429.97	4975.98
430.16	5046.20
430.34	5193.65
430.53	5048.54
430.72	5153.86
430.91	5160.88
431.10	5174.92
431.28	5212.37
431.47	5235.78
431.66	5359.83
431.85	5235.78
432.03	5444.09
432.22	5458.13
432.41	5329.40
432.60	5413.66
432.79	5465.15
432.97	5518.98
433.16	5455.79
433.35	5359.83
433.54	5551.75
433.72	5610.26
433.91	5509.62
434.10	5673.46
434.28	5603.24
434.47	5671.12
434.66	5734.31
434.85	5785.80
435.03	5877.09
435.22	5746.02
435.41	6012.84
435.59	5916.87
435.78	5846.66
435.97	5902.83
436.16	5989.43
436.34	6054.97
436.53	6085.39
436.72	6076.03
436.90	5860.70
437.09	6211.78
437.28	5966.03
437.46	6031.56
437.65	6043.26
437.84	6314.77
438.02	6211.78
438.21	5977.73
438.40	6085.39
438.58	6291.36
438.77	6370.94
438.96	6408.39
439.14	6602.65
439.33	6722.02
439.52	6661.16
439.70	6597.97
439.89	6909.26
440.08	6703.29
440.26	6672.87
440.45	6839.05
440.63	6836.70
440.82	6839.05
441.01	6836.70
441.19	6963.09
441.38	6909.26
441.57	6944.37
441.75	7084.80
441.94	7276.73
442.12	7360.98
442.31	7363.33
442.50	7311.83
442.68	7283.75
442.87	7386.73
443.05	7426.52
443.24	7459.29
443.43	7508.44
443.61	7630.15
443.80	7707.38
443.98	7456.95
444.17	7335.24
444.35	7609.08
444.54	7721.43
444.73	7660.57
444.91	7705.04
445.10	7740.15
445.28	7765.90
445.47	7791.64
445.65	7655.89
445.84	7808.03
446.02	7742.49
446.21	7801.01
446.39	7634.83
446.58	7836.11
446.77	7878.24
446.95	7625.47
447.14	7676.96
447.32	7761.22
447.51	7920.37
447.69	7861.86
447.88	7845.48
448.06	7801.01
448.25	7662.91
448.43	7864.20
448.62	7777.60
448.80	7964.84
448.99	7896.97
449.17	8098.25
449.36	7868.88
449.54	8241.03
449.73	8276.13
449.91	8147.40
450.10	8189.53
450.28	8278.47
450.46	8318.26
450.65	8318.26
450.83	8325.29
451.02	8423.59
451.20	8479.76
451.39	8395.50
451.57	8414.23
451.76	8432.95
451.94	8676.37
452.13	8638.92
452.31	8557.00
452.49	8531.25
452.68	8521.89
452.86	8479.76
453.05	8779.35
453.23	8737.22
453.42	8592.11
453.60	8552.32
453.78	8884.67
453.97	8491.46
454.15	8685.73
454.34	8781.69
454.52	9022.77
454.70	8917.44
454.89	9006.38
455.07	8908.08
455.26	9109.36
455.44	9364.48
455.62	9001.70
455.81	9060.21
455.99	9125.75
456.17	9191.28
456.36	9064.89
456.54	9411.29
456.73	9336.40
456.91	9635.99
457.09	9652.37
457.28	9687.48
457.46	9404.27
457.64	9610.24
457.83	9729.61
458.01	9465.13
458.19	9926.21
458.38	9837.27
458.56	9816.21
458.74	9832.59
458.93	9832.59
459.11	9858.34
459.29	9848.97
459.48	9860.68
459.66	10164.95
459.84	10115.80
460.03	10286.65
460.21	10097.07
460.39	10085.37
460.57	9989.41
460.76	10286.65
460.94	10178.99
461.12	10218.78
461.31	10225.80
461.49	10312.40
461.67	10349.85
461.85	10469.22
462.04	10464.54
462.22	10586.24
462.40	10597.95
462.59	10462.19
462.77	10445.81
462.95	10815.62
463.13	10707.95
463.32	10829.66
463.50	10593.26
463.68	10654.12
463.86	10895.19
464.05	10469.22
464.23	10630.71
464.41	10991.16
464.59	10780.51
464.78	11056.69
464.96	10944.34
465.14	10981.79
465.32	10934.98
465.50	11047.33
465.69	10967.75
465.87	10897.53
466.05	11232.23
466.23	11007.54
466.41	11297.77
466.60	11428.84
466.78	11101.16
466.96	11206.48
467.14	11035.63
467.32	11386.71
467.51	11185.42
467.69	11239.25
467.87	11433.52
468.05	11435.86
468.23	11335.21
468.41	11419.47
468.60	11595.01
468.78	11599.70
468.96	11377.34
469.14	11737.79
469.32	11616.08
469.50	11625.44
469.69	11913.33
469.87	11974.18
470.05	11899.28
470.23	12051.42
470.41	11967.16
470.59	12131.00
470.77	12133.34
470.95	12173.13
471.14	12435.27
471.32	12053.76
471.50	12678.68
471.68	12355.69
471.86	12430.59
472.04	12641.23
472.22	12748.90
472.40	12638.89
472.58	12641.23
472.77	12659.96
472.95	12730.17
473.13	13132.75
473.31	12872.95
473.49	12744.22
473.67	13121.04
473.85	13085.94
474.03	13242.75
474.21	13235.73
474.39	13514.25
474.57	13612.56
474.75	13703.84
474.93	13860.65
475.12	13603.19
475.30	13528.30
475.48	13788.10
475.66	13914.48
475.84	13778.73
476.02	14251.52
476.20	14134.50
476.38	14260.88
476.56	14513.66
476.74	14459.83
476.92	14483.24
477.10	14661.12
477.28	14513.66
477.46	14775.80
477.64	14829.63
477.82	15112.84
478.00	15353.91
478.18	15349.23
478.36	15335.19
478.54	15803.30
478.72	15798.62
478.90	15686.27
479.08	15964.79
479.26	16013.95
479.44	16163.74
479.62	16444.60
479.80	16343.96
479.98	16545.25
480.16	16594.40
480.34	16624.83
480.52	16957.18
480.70	16992.29
480.88	16840.15
481.06	16945.48
481.24	16996.97
481.41	17317.62
481.59	17551.68
481.77	17530.61
481.95	17823.18
482.13	17965.95
482.31	17919.14
482.49	18317.03
482.67	18281.92
482.85	18808.54
483.03	18785.14
483.21	18684.50
483.39	19080.05
483.57	19190.05
483.74	19054.30
483.92	19529.43
484.10	19356.23
484.28	19997.54
484.46	20137.97
484.64	20372.02
484.82	20140.31
485.00	20285.42
485.18	20224.57
485.35	20826.09
485.53	21142.06
485.71	20645.87
485.89	21741.24
486.07	21081.21
486.25	21064.82
486.43	21111.63
486.61	21621.87
486.78	22054.87
486.96	22099.34
487.14	22272.54
487.32	22265.52
487.50	22604.89
487.68	22878.74
487.85	23063.64
488.03	23276.63
488.21	23426.42
488.39	23854.74
488.57	23929.64
488.75	23922.62
488.92	23950.70
489.10	24400.08
489.28	24107.52
489.46	24849.47
489.64	24503.07
489.81	25317.57
489.99	24879.89
490.17	25177.14
490.35	25598.44
490.53	25455.67
490.70	25898.03
490.88	25762.28
491.06	25991.65
491.24	25947.18
491.41	26256.13
491.59	26759.34
491.77	26595.51
491.95	26993.40
492.13	27056.59
492.30	27192.34
492.48	27410.01
492.66	27936.63
492.84	27440.44
493.01	28077.07
493.19	27824.29
493.37	28126.22
493.54	28315.80
493.72	28580.28
493.90	28931.36
494.08	28776.89
494.25	28835.40
494.43	29036.69
494.61	29226.27
494.79	29888.64
494.96	29567.99
495.14	29743.53
495.32	30253.76
495.49	30281.85
495.67	30026.73
495.85	30551.01
496.02	30607.19
496.20	31105.72
496.38	30827.20
496.55	31070.61
496.73	31983.42
496.91	30892.73
497.09	31892.14
497.26	31828.95
497.44	31484.89
497.62	32116.83
497.79	32341.52
497.97	32018.53
498.14	32627.07
498.32	32891.55
498.50	32833.04
498.67	32800.27
498.85	32938.36
499.03	33158.37
499.20	33415.83
499.38	33394.76
499.56	33535.20
499.73	33890.96
499.91	34396.51
500.08	33766.91
500.26	33659.24
500.44	34073.52
500.61	34195.23
500.79	34230.33
500.97	34822.49
501.14	35014.41
501.32	35009.73
501.49	35196.98
501.67	34983.99
501.84	35005.05
502.02	35173.57
502.20	35732.96
502.37	36114.47
502.55	35480.18
502.72	36105.10
502.90	35625.29
503.07	35620.61
503.25	36297.03
503.43	36259.58
503.60	36123.83
503.78	36390.65
503.95	36369.58
504.13	36566.19
504.30	36823.65
504.48	36353.20
504.65	37177.07
504.83	37528.15
505.01	37422.83
505.18	37581.98
505.36	37977.53
505.53	37418.14
505.71	37560.92
505.88	38000.94
506.06	37734.12
506.23	37816.04
506.41	37649.86
506.58	38417.55
506.76	38361.38
506.93	38288.82
507.11	37839.44
507.28	38202.22
507.46	38656.29
507.63	38890.34
507.81	39007.37
507.98	38817.78
508.16	38925.45
508.33	39220.36
508.50	39655.70
508.68	39278.87
508.85	39494.20
509.03	39903.79
509.20	39880.39
509.38	40301.68
509.55	40374.24
509.73	40306.37
509.90	40198.70
510.08	40212.74
510.25	40233.81
510.42	40479.57
510.60	40704.26
510.77	41015.55
510.95	41254.28
511.12	40612.98
511.30	41165.34
511.47	41008.53
511.64	41542.17
511.82	41640.47
511.99	41521.10
512.17	42019.64
512.34	41710.69
512.51	41771.54
512.69	41909.63
512.86	42309.86
513.04	42326.25
513.21	42417.53
513.38	42848.19
513.56	42616.47
513.73	42382.42
513.90	42342.63
514.08	42667.97
514.25	43208.63
514.43	43007.34
514.60	42782.65
514.77	43288.21
514.95	43236.72
515.12	43367.79
515.29	43562.05
515.47	43288.21
515.64	43936.54
515.81	43372.47
515.99	43856.96
516.16	44329.75
516.33	44201.02
516.51	44055.90
516.68	43990.37
516.85	44341.45
517.03	44669.12
517.20	44472.52
517.37	44903.18
517.54	44739.34
517.72	44638.70
517.89	45064.67
518.06	44837.64
518.24	44589.55
518.41	44598.91
518.58	44989.78
518.75	45228.51
518.93	45368.94
519.10	45144.25
519.27	45675.55
519.45	45312.77
519.62	45476.61
519.79	45542.14
519.96	45427.46
520.14	45942.38
520.31	45574.91
520.48	46461.97
520.65	46197.49
520.83	46087.49
521.00	46206.86
521.17	46302.82
521.34	46181.11
521.52	46777.95
521.69	46438.57
521.86	46852.84
522.03	46719.43
522.20	46887.95
522.38	47414.57
522.55	46976.89
522.72	47178.18
522.89	47281.16
523.07	47728.20
523.24	47538.62
523.41	47342.02
523.58	47004.98
523.75	47821.83
523.92	47278.82
524.10	47571.39
524.27	47772.67
524.44	47428.62
524.61	47878.00
524.78	47917.79
524.96	48147.16
525.13	48107.37
525.30	47988.00
525.47	48121.41
525.64	48205.67
525.81	48725.27
525.98	48678.46
526.16	48339.08
526.33	48519.31
526.50	48776.76
526.67	48502.92
526.84	48545.05
527.01	48713.57
527.18	48926.56
527.36	48994.43
527.53	49249.55
527.70	49205.08
527.87	49345.51
528.04	48933.58
528.21	49392.33
528.38	49476.58
528.55	49184.02
528.72	48980.39
528.89	49345.51
529.07	49251.89
529.24	49598.29
529.41	49762.13
529.58	49514.03
529.75	49652.12
529.92	49778.51
530.09	49832.35
530.26	49839.37
530.43	50096.83
530.60	49712.98
530.77	49549.14
530.94	50143.64
531.11	50045.33
531.28	49947.03
531.46	50319.18
531.63	50057.04
531.80	50239.60
531.97	50333.22
532.14	50885.59
532.31	50515.78
532.48	50857.50
532.65	50181.09
532.82	50501.74
532.99	50583.66
533.16	50550.89
533.33	50930.06
533.50	51320.93
533.67	50653.87
533.84	50946.44
534.01	51035.38
534.18	50447.91
534.35	51412.21
534.52	50857.50
534.69	51571.36
534.86	51524.55
535.03	51152.41
535.20	51629.88
535.37	51091.55
535.54	51540.94
535.71	51121.98
535.88	51341.99
536.05	51529.23
536.22	51538.60
536.38	51803.08
536.55	51730.52
536.72	52168.20
536.89	51578.39
537.06	51798.40
537.23	51800.74
537.40	51217.94
537.57	51620.52
537.74	51433.27
537.91	52245.44
538.08	52259.48
538.25	51779.67
538.42	52137.77
538.59	52172.88
538.75	51657.96
538.92	52140.11
539.09	52282.89
539.26	52137.77
539.43	52435.02
539.60	52666.73
539.77	52245.44
539.94	52502.90
540.11	52643.33
540.28	52456.09
540.44	52308.63
540.61	52629.29
540.78	52385.87
540.95	52734.61
541.12	52261.82
541.29	52341.40
541.46	52594.18
541.62	52507.58
541.79	53034.20
541.96	52329.70
542.13	52655.03
542.30	52669.08
542.47	52924.19
542.63	52963.98
542.80	53134.84
542.97	53509.33
543.14	53223.78
543.31	53064.63
543.48	53265.91
543.64	53514.01
543.81	53443.79
543.98	53645.08
544.15	53436.77
544.32	53502.31
544.48	53551.46
544.65	53443.79
544.82	53490.60
544.99	53020.16
545.16	53542.10
545.32	53450.81
545.49	53942.33
545.66	54045.31
545.83	53989.14
546.00	54115.53
546.16	53811.26
546.33	53734.02
546.50	53261.23
546.67	53881.47
546.83	53598.27
547.00	54129.57
547.17	54017.22
547.34	54096.80
547.50	53893.18
547.67	54152.97
547.84	54176.38
548.00	54099.14
548.17	54213.83
548.34	54230.21
548.51	54171.70
548.67	54417.46
548.84	54234.89
549.01	54410.43
549.18	54365.96
549.34	54019.56
549.51	54227.87
549.68	54433.84
549.84	54298.09
550.01	54424.48
550.18	54169.36
550.34	54576.61
550.51	54677.25
550.68	54754.49
550.84	54335.54
551.01	54564.91
551.18	54368.30
551.34	54513.42
551.51	54604.70
551.68	54679.60
551.84	54693.64
552.01	54440.86
552.18	54894.92
552.34	54433.84
552.51	54848.11
552.68	54703.00
552.84	54787.26
553.01	55072.81
553.18	54958.12
553.34	54838.75
553.51	54892.58
553.67	55035.36
553.84	55309.20
554.01	55299.84
554.17	54967.48
554.34	55049.40
554.51	54951.10
554.67	55098.55
554.84	55168.77
555.00	55152.38
555.17	55201.53
555.33	55316.22
555.50	55068.12
555.67	55079.83
555.83	55136.00
556.00	55257.71
556.16	55435.59
556.33	55093.87
556.50	55299.84
556.66	55274.09
556.83	55182.81
556.99	55597.09
557.16	55590.06
557.32	55536.23
557.49	55777.31
557.65	55231.96
557.82	55311.54
557.98	55423.89
558.15	55430.91
558.32	55679.00
558.48	55419.20
558.65	55819.44
558.81	55821.78
558.98	55700.07
559.14	55510.49
559.31	55386.44
559.47	55529.21
559.64	55545.59
559.80	55744.54
559.97	55613.47
560.13	55409.84
560.30	55622.83
560.46	55819.44
560.63	55688.37
560.79	55608.79
560.96	55667.30
561.12	55791.35
561.29	55695.39
561.45	55625.17
561.61	56062.85
561.78	55920.08
561.94	55910.72
562.11	55906.04
562.27	55676.66
562.44	55976.25
562.60	55765.60
562.77	55966.89
562.93	55774.97
563.10	56067.53
563.26	55664.96
563.42	56116.68
563.59	56107.32
563.75	55906.04
563.92	55847.52
564.08	55889.65
564.24	55917.74
564.41	55978.59
564.57	55863.91
564.74	55877.95
564.90	56104.98
565.07	56231.37
565.23	56140.09
565.39	55924.76
565.56	56147.11
565.72	55849.86
565.88	55962.21
566.05	56158.81
566.21	55903.70
566.38	56025.40
566.54	55994.98
566.70	56280.52
566.87	56168.18
567.03	56329.67
567.19	56395.21
567.36	56243.07
567.52	56034.77
567.68	56076.90
567.85	56048.81
568.01	56275.84
568.17	55999.66
568.34	56299.25
568.50	56310.95
568.66	56170.52
568.83	56322.65
568.99	56072.21
569.15	56264.14
569.32	56296.91
569.48	55983.27
569.64	56280.52
569.81	56226.69
569.97	56046.47
570.13	56310.95
570.30	56313.29
570.46	56484.15
570.62	56032.42
570.78	56257.12
570.95	56179.88
571.11	56292.22
571.27	55976.25
571.43	56147.11
571.60	56392.87
571.76	56275.84
571.92	56446.70
572.09	56727.56
572.25	56481.81
572.41	56507.55
572.57	56278.18
572.74	56470.11
572.90	56264.14
573.06	56488.83
573.22	56079.24
573.38	56631.60
573.55	56339.04
573.71	56594.15
573.87	56736.93
574.03	56554.36
574.20	56423.29
574.36	56252.44
574.52	56350.74
574.68	56409.25
574.84	56257.12
575.01	56573.09
575.17	56516.92
575.33	56537.98
575.49	56598.83
575.65	56528.62
575.82	56619.90
575.98	56509.89
576.14	56484.15
576.30	56514.58
576.46	56240.73
576.62	56303.93
576.79	56294.56
576.95	56296.91
577.11	56474.79
577.27	56376.48
577.43	56463.08
577.59	56273.50
577.75	56210.31
577.92	56229.03
578.08	56273.50
578.24	56324.99
578.40	56535.64
578.56	56322.65
578.72	56299.25
578.88	56931.19
579.04	56659.69
579.21	56418.61
579.37	56381.16
579.53	56647.99
579.69	56449.04
579.85	56348.40
580.01	56332.01
580.17	56481.81
580.33	56427.98
580.49	56383.51
580.65	56460.74
580.82	56662.03
580.98	56470.11
581.14	56605.86
581.30	56662.03
581.46	56224.35
581.62	56411.59
581.78	56451.38
581.94	56481.81
582.10	56280.52
582.26	56456.06
582.42	56619.90
582.58	56802.46
582.74	56580.11
582.90	56493.51
583.06	56589.47
583.22	56418.61
583.38	56388.19
583.54	56418.61
583.70	56378.82
583.86	56395.21
584.02	56296.91
584.18	56697.14
584.34	56853.95
584.50	56659.69
584.66	56573.09
584.82	56704.16
584.98	56652.67
585.14	56147.11
585.30	56348.40
585.46	56498.19
585.62	56420.95
585.78	56552.02
585.94	56411.59
586.10	56870.34
586.26	56549.68
586.42	56910.13
586.58	56334.35
586.74	56463.08
586.90	56453.72
587.06	56453.72
587.22	56697.14
587.38	56378.82
587.54	56807.14
587.70	56694.80
587.86	56697.14
588.02	56715.86
588.18	56732.25
588.34	56788.42
588.49	56655.01
588.65	56423.29
588.81	56383.51
588.97	56439.68
589.13	56835.23
589.29	56757.99
589.45	56800.12
589.61	56664.37
