SpectraSuite Data File
++++++++++++++++++++++++++++++++++++
Date: Fri Oct 18 13:55:50 GMT-05:00 2013
User: bianchi
Dark Spectrum Present: No
Reference Spectrum Present: No
Number of Sampled Component Spectra: 1
Spectrometers: USB2+H05261
Integration Time (usec): 100000 (USB2+H05261)
Spectra Averaged: 1 (USB2+H05261)
Boxcar Smoothing: 0 (USB2+H05261)
Correct for Electrical Dark: No (USB2+H05261)
Strobe/Lamp Enabled: No (USB2+H05261)
Correct for Detector Non-linearity: No (USB2+H05261)
Correct for Stray Light: No (USB2+H05261)
Number of Pixels in Processed Spectrum: 2048
>>>>>Begin Processed Spectral Data<<<<<
365.73	0.00
365.92	0.00
366.12	0.00
366.32	0.00
366.52	0.00
366.72	0.00
366.91	0.00
367.11	0.00
367.31	0.00
367.51	0.00
367.70	0.00
367.90	0.00
368.10	0.00
368.30	0.00
368.49	0.00
368.69	0.00
368.89	0.00
369.09	0.00
369.28	0.00
369.48	0.00
369.68	0.00
369.87	0.00
370.07	0.00
370.27	0.00
370.47	35.11
370.66	191.92
370.86	327.68
371.06	257.46
371.25	339.38
371.45	311.29
371.65	330.02
371.84	294.91
372.04	271.50
372.24	278.52
372.44	322.99
372.63	325.33
372.83	367.46
373.03	421.30
373.22	306.61
373.42	362.78
373.62	402.57
373.81	402.57
374.01	428.32
374.21	411.93
374.40	425.98
374.60	388.53
374.79	409.59
374.99	367.46
375.19	444.70
375.38	435.34
375.58	470.45
375.78	470.45
375.97	540.66
376.17	512.58
376.37	500.87
376.56	463.43
376.76	505.56
376.95	505.56
377.15	395.55
377.35	421.30
377.54	491.51
377.74	440.02
377.93	514.92
378.13	451.72
378.33	440.02
378.52	503.22
378.72	559.39
378.91	564.07
379.11	538.32
379.31	573.43
379.50	528.96
379.70	608.54
379.89	521.94
380.09	500.87
380.28	645.99
380.48	545.34
380.68	561.73
380.87	505.56
381.07	538.32
381.26	603.86
381.46	540.66
381.65	660.03
381.85	535.98
382.04	622.58
382.24	624.92
382.43	596.84
382.63	615.56
382.83	634.29
383.02	650.67
383.22	702.16
383.41	603.86
383.61	636.63
383.80	709.18
384.00	622.58
384.19	653.01
384.39	690.46
384.58	643.65
384.78	732.59
384.97	727.91
385.17	739.61
385.36	739.61
385.56	624.92
385.75	657.69
385.95	758.33
386.14	767.70
386.34	645.99
386.53	737.27
386.72	695.14
386.92	765.36
387.11	800.46
387.31	791.10
387.50	739.61
387.70	725.57
387.89	805.14
388.09	786.42
388.28	706.84
388.48	823.87
388.67	835.57
388.86	793.44
389.06	835.57
389.25	791.10
389.45	854.30
389.64	828.55
389.84	924.51
390.03	903.45
390.22	933.87
390.42	910.47
390.61	877.70
390.81	758.33
391.00	896.43
391.19	912.81
391.39	889.40
391.58	952.60
391.78	903.45
391.97	947.92
392.16	1022.81
392.36	1029.84
392.55	964.30
392.75	1011.11
392.94	987.71
393.13	1048.56
393.33	922.17
393.52	976.00
393.71	1025.15
393.91	1032.18
394.10	1013.45
394.29	1104.73
394.49	1100.05
394.68	1029.84
394.88	1123.46
395.07	1067.28
395.26	1095.37
395.46	1100.05
395.65	1158.57
395.84	1132.82
396.04	1198.35
396.23	1165.59
396.42	1146.86
396.62	1186.65
396.81	1210.06
397.00	1158.57
397.19	1167.93
397.39	1245.16
397.58	1294.32
397.77	1200.69
397.97	1240.48
398.16	1210.06
398.35	1336.45
398.55	1275.59
398.74	1252.19
398.93	1331.76
399.12	1193.67
399.32	1268.57
399.51	1331.76
399.70	1371.55
399.90	1352.83
400.09	1423.05
400.28	1427.73
400.47	1383.26
400.67	1423.05
400.86	1430.07
401.05	1509.65
401.24	1483.90
401.44	1483.90
401.63	1474.54
401.82	1392.62
402.01	1504.96
402.21	1589.22
402.40	1530.71
402.59	1495.60
402.78	1638.38
402.97	1514.33
403.17	1509.65
403.36	1767.10
403.55	1720.29
403.74	1724.97
403.93	1741.36
404.13	1703.91
404.32	1621.99
404.51	1610.29
404.70	1734.34
404.89	1715.61
405.09	1781.15
405.28	1713.27
405.47	1844.34
405.66	1844.34
405.85	1764.76
406.05	1877.11
406.24	1827.96
406.43	1851.36
406.62	1914.56
406.81	1949.67
407.00	1895.83
407.20	1907.54
407.39	1949.67
407.58	1956.69
407.77	2092.44
407.96	2101.80
408.15	2062.01
408.34	2029.24
408.54	2115.84
408.73	2022.22
408.92	2143.93
409.11	2204.78
409.30	2108.82
409.49	2069.03
409.68	2286.70
409.87	2249.25
410.07	2183.72
410.26	2235.21
410.45	2354.58
410.64	2326.49
410.83	2415.43
411.02	2326.49
411.21	2459.90
411.40	2506.71
411.59	2513.74
411.78	2593.31
411.98	2403.73
412.17	2504.37
412.36	2569.91
412.55	2581.61
412.74	2637.78
412.93	2745.45
413.12	2675.23
413.31	2775.88
413.50	2708.00
413.69	2867.16
413.88	2843.75
414.07	2719.70
414.26	2780.56
414.45	3038.02
414.64	2972.48
414.83	2984.18
415.02	2895.24
415.22	3094.19
415.41	3227.60
415.60	3080.14
415.79	3077.80
415.98	3213.56
416.17	3243.98
416.36	3171.43
416.55	3199.51
416.74	3208.87
416.93	3300.16
417.12	3248.66
417.31	3431.23
417.50	3433.57
417.69	3536.55
417.88	3454.63
418.07	3433.57
418.26	3557.61
418.45	3538.89
418.64	3574.00
418.83	3620.81
419.02	3712.09
419.21	3653.58
419.39	3772.94
419.58	3714.43
419.77	3630.17
419.96	3688.68
420.15	3838.48
420.34	3751.88
420.53	3775.28
420.72	3871.25
420.91	3892.31
421.10	3922.74
421.29	3850.18
421.48	3878.27
421.67	4018.70
421.86	3866.56
422.05	3985.93
422.24	3915.72
422.43	3981.25
422.61	3948.48
422.80	4145.09
422.99	4098.28
423.18	4203.60
423.37	4194.24
423.56	4070.19
423.75	4170.83
423.94	4007.00
424.13	3854.86
424.32	3845.50
424.50	4170.83
424.69	4142.75
424.88	4093.60
425.07	4131.05
425.26	4152.11
425.45	4065.51
425.64	4152.11
425.83	4271.48
426.01	4264.46
426.20	4100.62
426.39	4198.92
426.58	4109.98
426.77	4014.02
426.96	4184.88
427.15	4121.68
427.33	4306.59
427.52	4348.72
427.71	4241.05
427.90	4463.40
428.09	4477.44
428.28	4414.25
428.46	4468.08
428.65	4592.13
428.84	4610.86
429.03	4582.77
429.22	4390.84
429.40	4652.98
429.59	4674.05
429.78	4498.51
429.97	4348.72
430.16	4552.34
430.34	4524.26
430.53	4851.93
430.72	4774.69
430.91	4690.43
431.10	4748.95
431.28	4844.91
431.47	4816.82
431.66	4798.10
431.85	4781.71
432.03	4816.82
432.22	5043.85
432.41	4903.42
432.60	5008.75
432.79	4999.38
432.97	4938.53
433.16	4915.12
433.35	4755.97
433.54	5093.01
433.72	5179.61
433.91	5095.35
434.10	5144.50
434.28	5296.63
434.47	4999.38
434.66	5195.99
434.85	5191.31
435.03	5275.57
435.22	5116.41
435.41	5469.83
435.59	5289.61
435.78	5518.98
435.97	5334.08
436.16	5362.17
436.34	5385.57
436.53	5486.22
436.72	5554.09
436.90	5521.32
437.09	5556.43
437.28	5551.75
437.46	5638.35
437.65	5626.65
437.84	5694.52
438.02	5734.31
438.21	5748.36
438.40	5701.54
438.58	5888.79
438.77	6015.18
438.96	5935.60
439.14	6001.13
439.33	6005.81
439.52	6003.47
439.70	6127.52
439.89	6310.08
440.08	6232.85
440.26	6057.31
440.45	6289.02
440.63	6375.62
440.82	6429.45
441.01	6228.17
441.19	6267.95
441.38	6520.73
441.57	6509.03
441.75	6452.86
441.94	6693.93
442.12	6752.45
442.31	6848.41
442.50	6684.57
442.68	6773.51
442.87	6698.61
443.05	6567.54
443.24	6801.60
443.43	6789.89
443.61	6780.53
443.80	7000.54
443.98	6724.36
444.17	6626.06
444.35	7091.82
444.54	7087.14
444.73	7033.31
444.91	6988.84
445.10	6899.90
445.28	7068.42
445.47	7077.78
445.65	6930.33
445.84	7140.97
446.02	7255.66
446.21	7204.17
446.39	7258.00
446.58	6967.77
446.77	7124.59
446.95	6867.13
447.14	6876.49
447.32	7103.53
447.51	7096.50
447.69	7197.15
447.88	7255.66
448.06	7192.47
448.25	7148.00
448.43	7288.43
448.62	7045.01
448.80	7213.53
448.99	7199.49
449.17	7414.82
449.36	7176.08
449.54	7379.71
449.73	7370.35
449.91	7506.10
450.10	7576.31
450.28	7618.44
450.46	7709.72
450.65	7644.19
450.83	7599.72
451.02	7559.93
451.20	7536.52
451.39	7669.94
451.57	7585.68
451.76	7592.70
451.94	7749.51
452.13	7903.99
452.31	7716.75
452.49	7644.19
452.68	7779.94
452.86	7983.57
453.05	7936.76
453.23	8004.63
453.42	7892.29
453.60	7971.86
453.78	7892.29
453.97	7775.26
454.15	7808.03
454.34	7990.59
454.52	8131.02
454.70	8037.40
454.89	8257.41
455.07	8159.11
455.26	8226.98
455.44	8297.20
455.62	8131.02
455.81	8351.03
455.99	8313.58
456.17	8250.39
456.36	8318.26
456.54	8475.08
456.73	8645.94
456.91	8636.58
457.09	8599.13
457.28	8798.07
457.46	8613.17
457.64	8732.54
457.83	8990.00
458.01	8793.39
458.19	8957.23
458.38	8872.97
458.56	9078.94
458.74	8938.51
458.93	9046.17
459.11	9027.45
459.29	8870.63
459.48	8901.06
459.66	9018.08
459.84	9210.01
460.03	9291.93
460.21	9062.55
460.39	9432.36
460.57	9188.94
460.76	9324.69
460.94	9479.17
461.12	9446.40
461.31	9341.08
461.49	9273.20
461.67	9511.94
461.85	9572.79
462.04	9509.60
462.22	10143.88
462.40	9523.64
462.59	9427.68
462.77	9633.64
462.95	9696.84
463.13	9614.92
463.32	9708.54
463.50	9692.16
463.68	9865.36
463.86	9731.95
464.05	9844.29
464.23	9652.37
464.41	9841.95
464.59	9671.09
464.78	9877.06
464.96	10204.74
465.14	9905.15
465.32	10029.20
465.50	10057.28
465.69	10153.24
465.87	9790.46
466.05	10209.42
466.23	9881.74
466.41	10073.67
466.60	10611.99
466.78	10228.14
466.96	10274.95
467.14	10064.30
467.32	10197.71
467.51	10511.35
467.69	10284.31
467.87	10328.78
468.05	10352.19
468.23	10232.82
468.41	10335.81
468.60	10558.16
468.78	10637.73
468.96	10490.28
469.14	10513.69
469.32	10839.02
469.50	10368.57
469.69	10820.30
469.87	11042.65
470.05	10890.51
470.23	10937.32
470.41	10719.65
470.59	11206.48
470.77	11110.52
470.95	11035.63
471.14	11225.21
471.32	10932.64
471.50	11220.53
471.68	11279.04
471.86	11201.80
472.04	11346.92
472.22	11407.77
472.40	11337.56
472.58	11391.39
472.77	11445.22
472.95	11758.85
473.13	12327.60
473.31	11723.74
473.49	11653.53
473.67	11749.49
473.85	11681.61
474.03	11878.22
474.21	11988.22
474.39	12093.55
474.57	11932.05
474.75	12243.34
474.93	12439.95
475.12	12421.22
475.30	12521.87
475.48	12423.56
475.66	12587.40
475.84	12528.89
476.02	12732.51
476.20	12669.32
476.38	13097.64
476.56	13249.77
476.74	13125.72
476.92	13128.06
477.10	13385.52
477.28	13305.95
477.46	13446.38
477.64	13415.95
477.82	13441.70
478.00	13933.21
478.18	13816.18
478.36	13947.25
478.54	14398.98
478.72	14129.81
478.90	14277.27
479.08	14335.78
479.26	14626.01
479.44	14523.02
479.62	14710.27
479.80	14696.22
479.98	14890.49
480.16	15269.66
480.34	15082.41
480.52	15400.72
480.70	15730.74
480.88	15187.74
481.06	15192.42
481.24	15379.66
481.41	15824.36
481.59	16259.70
481.77	15920.32
481.95	15885.22
482.13	16135.65
482.31	16297.15
482.49	16699.72
482.67	16648.23
482.85	16643.55
483.03	16889.31
483.21	17029.74
483.39	17701.47
483.57	17001.65
483.74	17385.50
483.92	17638.28
484.10	17619.55
484.28	17902.76
484.46	18127.45
484.64	18324.05
484.82	17980.00
485.00	18291.29
485.18	18569.81
485.35	18930.25
485.53	18794.50
485.71	18789.82
485.89	19344.53
486.07	19199.41
486.25	19295.38
486.43	19433.47
486.61	19665.18
486.78	19822.00
486.96	19768.16
487.14	20414.15
487.32	20119.24
487.50	20643.52
487.68	20404.79
487.85	20882.26
488.03	21163.12
488.21	21181.85
488.39	21184.19
488.57	21392.50
488.75	21500.16
488.92	21860.60
489.10	21813.79
489.28	22354.46
489.46	22291.26
489.64	22019.76
489.81	22661.07
489.99	22703.20
490.17	22941.93
490.35	23293.01
490.53	23220.45
490.70	23257.90
490.88	23510.68
491.06	23531.75
491.24	23667.50
491.41	23836.02
491.59	23821.97
491.77	24121.56
491.95	24367.32
492.13	24547.54
492.30	24987.56
492.48	24507.75
492.66	24666.91
492.84	25078.84
493.01	25235.66
493.19	25326.94
493.37	25612.48
493.54	25535.24
493.72	25633.55
493.90	26015.05
494.08	25970.58
494.25	26445.71
494.43	26623.59
494.61	26665.72
494.79	26551.04
494.96	26700.83
495.14	26841.26
495.32	27353.84
495.49	27157.24
495.67	27513.00
495.85	27843.01
496.02	27674.49
496.20	27630.02
496.38	27400.65
496.55	28119.20
496.73	28446.87
496.91	27938.97
497.09	28467.94
497.26	28610.71
497.44	28657.52
497.62	28517.09
497.79	29043.71
497.97	28879.87
498.14	29605.44
498.32	29703.74
498.50	29771.61
498.67	30258.45
498.85	29670.97
499.03	29764.59
499.20	29839.49
499.38	30106.31
499.56	30253.76
499.73	30279.51
499.91	30778.04
500.08	30543.99
500.26	30747.62
500.44	30628.25
500.61	31014.44
500.79	30948.90
500.97	31232.11
501.14	31831.29
501.32	31524.68
501.49	31562.12
501.67	31552.76
501.84	32081.72
502.02	31901.50
502.20	31901.50
502.37	32177.68
502.55	32243.22
502.72	32219.81
502.90	32608.34
503.07	32416.42
503.25	32257.26
503.43	32435.14
503.60	32598.98
503.78	33310.50
503.95	32921.98
504.13	32758.14
504.30	33074.11
504.48	33008.58
504.65	33722.44
504.83	33364.34
505.01	33699.03
505.18	33940.11
505.36	34024.37
505.53	33790.31
505.71	33628.82
505.88	33951.81
506.06	33603.07
506.23	34763.98
506.41	34422.26
506.58	34543.97
506.76	34747.59
506.93	34639.93
507.11	34394.17
507.28	34569.71
507.46	34632.91
507.63	35225.06
507.81	35517.63
507.98	35098.67
508.16	35278.89
508.33	35494.22
508.50	35611.25
508.68	35445.07
508.85	35840.62
509.03	35644.02
509.20	35950.63
509.38	35728.28
509.55	36297.03
509.73	36133.19
509.90	36147.23
510.08	36257.24
510.25	36362.56
510.42	36488.95
510.60	36849.39
510.77	37031.96
510.95	37343.25
511.12	36870.46
511.30	36767.48
511.47	36964.08
511.64	37219.20
511.82	37876.89
511.99	37450.91
512.17	37809.01
512.34	37720.07
512.51	38220.95
512.69	37928.38
512.86	37722.41
513.04	38227.97
513.21	38209.25
513.38	38562.67
513.56	38232.65
513.73	38337.98
513.90	38129.67
514.08	38675.01
514.25	38916.09
514.43	38843.53
514.60	38836.51
514.77	39243.76
514.95	39445.05
515.12	38834.17
515.29	39173.55
515.47	39199.29
515.64	39789.11
515.81	39756.34
515.99	40144.87
516.16	40212.74
516.33	40114.44
516.51	40418.71
516.68	39992.73
516.85	39976.35
517.03	40210.40
517.20	40179.98
517.37	40584.89
517.54	40589.57
517.72	40657.45
517.89	40294.66
518.06	40397.65
518.24	40622.34
518.41	40718.30
518.58	41287.05
518.75	40933.63
518.93	41476.63
519.10	41071.72
519.27	41291.73
519.45	40900.86
519.62	41034.27
519.79	41181.73
519.96	41464.93
520.14	41581.96
520.31	41717.71
520.48	41909.63
520.65	41741.11
520.83	42005.59
521.00	41570.25
521.17	41862.82
521.34	42148.37
521.52	42150.71
521.69	42101.56
521.86	42595.41
522.03	42340.29
522.20	42447.96
522.38	42614.13
522.55	42845.85
522.72	42703.07
522.89	43154.80
523.07	43576.09
523.24	42962.87
523.41	43339.70
523.58	43271.82
523.75	43576.09
523.92	43122.03
524.10	43393.53
524.27	43901.43
524.44	43489.49
524.61	43873.34
524.78	44226.76
524.96	43744.61
525.13	43842.92
525.30	44041.86
525.47	43634.61
525.64	43878.02
525.81	44694.87
525.98	44287.62
526.16	44259.53
526.33	44121.44
526.50	44720.62
526.67	43990.37
526.84	44079.31
527.01	44268.89
527.18	44634.02
527.36	44556.78
527.53	45027.23
527.70	45193.40
527.87	45663.85
528.04	45022.54
528.21	44622.31
528.38	44994.46
528.55	45270.64
528.72	45067.02
528.89	45521.08
529.07	45350.22
529.24	45336.18
529.41	45481.29
529.58	45158.30
529.75	45214.47
529.92	45673.21
530.09	45577.25
530.26	45375.97
530.43	46403.46
530.60	45853.44
530.77	45713.00
530.94	45729.39
531.11	45911.95
531.28	45993.87
531.46	45649.81
531.63	46005.57
531.80	45916.63
531.97	46469.00
532.14	46557.94
532.31	46681.98
532.48	46361.33
532.65	46604.75
532.82	46527.51
532.99	46117.92
533.16	46401.12
533.33	46604.75
533.50	46925.40
533.67	46742.84
533.84	46871.57
534.01	46906.68
534.18	46667.94
534.35	47217.97
534.52	46721.77
534.69	47056.47
534.86	47133.71
535.03	47143.07
535.20	47227.33
535.37	47388.83
535.54	47407.55
535.71	47398.19
535.88	47697.78
536.05	47484.79
536.22	47597.13
536.38	48067.58
536.55	47980.98
536.72	47824.17
536.89	47707.14
537.06	47746.93
537.23	47803.10
537.40	47920.13
537.57	47903.74
537.74	48128.44
537.91	48198.65
538.08	48610.59
538.25	48025.45
538.42	48313.34
538.59	48355.47
538.75	48067.58
538.92	48044.18
539.09	48144.82
539.26	48575.48
539.43	48179.93
539.60	48315.68
539.77	48460.79
539.94	48786.13
540.11	48722.93
540.28	48208.01
540.44	48542.71
540.61	48863.36
540.78	48605.91
540.95	48814.21
541.12	48910.17
541.29	48844.64
541.46	48830.60
541.62	48334.40
541.79	48980.39
541.96	48603.56
542.13	48802.51
542.30	49200.40
542.47	49226.15
542.63	49633.40
542.80	49759.79
542.97	49572.55
543.14	49656.81
543.31	49588.93
543.48	49244.87
543.64	49801.92
543.81	49759.79
543.98	49570.21
544.15	49925.97
544.32	49701.28
544.48	50092.15
544.65	49797.24
544.82	50167.04
544.99	49773.83
545.16	49937.67
545.32	49925.97
545.49	50244.28
545.66	50466.63
545.83	50300.45
546.00	50141.30
546.16	50321.52
546.33	49855.75
546.50	49832.35
546.67	50110.87
546.83	49975.12
547.00	50028.95
547.17	50003.20
547.34	50466.63
547.50	50047.68
547.67	50703.03
547.84	50541.53
548.00	50394.07
548.17	50340.24
548.34	50391.73
548.51	50841.12
548.67	50571.96
548.84	50817.71
549.01	50609.40
549.18	50869.20
549.34	50651.53
549.51	50660.90
549.68	50808.35
549.84	50845.80
550.01	50866.86
550.18	50628.13
550.34	50845.80
550.51	50834.10
550.68	51250.71
550.84	50621.11
551.01	51126.66
551.18	50894.95
551.34	50696.00
551.51	50981.55
551.68	51309.22
551.84	51412.21
552.01	51224.96
552.18	51421.57
552.34	50946.44
552.51	51185.18
552.68	51203.90
552.84	51152.41
553.01	51157.09
553.18	51426.25
553.34	51466.04
553.51	51302.20
553.67	51363.06
553.84	51807.76
554.01	51657.96
554.17	51667.33
554.34	51716.48
554.51	51529.23
554.67	51683.71
554.84	51664.99
555.00	51442.63
555.17	51430.93
555.33	51562.00
555.50	51529.23
555.67	51707.12
555.83	51496.47
556.00	51828.82
556.16	51814.78
556.33	51873.29
556.50	51414.55
556.66	51922.44
556.83	52065.22
556.99	52261.82
557.16	52158.84
557.32	52006.70
557.49	52498.22
557.65	51952.87
557.82	51707.12
557.98	51805.42
558.15	51896.70
558.32	52355.44
558.48	52144.80
558.65	52147.14
558.81	52137.77
558.98	52034.79
559.14	52053.51
559.31	51831.16
559.47	51873.29
559.64	52156.50
559.80	52156.50
559.97	52486.51
560.13	52325.02
560.30	51927.13
560.46	52341.40
560.63	52142.45
560.79	52313.31
560.96	52484.17
561.12	52303.95
561.29	52205.65
561.45	52102.67
561.61	52294.59
561.78	52601.20
561.94	52449.06
562.11	52147.14
562.27	52275.87
562.44	52376.51
562.60	52341.40
562.77	52425.66
562.93	52037.13
563.10	52767.38
563.26	52294.59
563.42	52750.99
563.59	52552.05
563.75	52521.62
563.92	52608.22
564.08	52491.19
564.24	52467.79
564.41	52589.50
564.57	52435.02
564.74	52491.19
564.90	52406.94
565.07	52430.34
565.23	52477.15
565.39	52589.50
565.56	52652.69
565.72	52465.45
565.88	52615.24
566.05	52734.61
566.21	52303.95
566.38	52685.46
566.54	52542.69
566.70	52938.24
566.87	52856.32
567.03	52645.67
567.19	52940.58
567.36	52594.18
567.52	52708.86
567.68	52765.04
567.85	52736.95
568.01	52727.59
568.17	52619.92
568.34	52935.90
568.50	52832.91
568.66	52552.05
568.83	52839.93
568.99	52760.36
569.15	53092.71
569.32	52500.56
569.48	52758.02
569.64	52753.33
569.81	52769.72
569.97	52727.59
570.13	53024.84
570.30	52875.04
570.46	52846.96
570.62	53038.88
570.78	52727.59
570.95	52645.67
571.11	53069.31
571.27	52683.12
571.43	52690.14
571.60	52680.78
571.76	52411.62
571.92	52919.51
572.09	53001.43
572.25	52968.66
572.41	53216.76
572.57	53020.16
572.74	52949.94
572.90	52643.33
573.06	52786.10
573.22	52966.32
573.38	52736.95
573.55	53059.94
573.71	53394.64
573.87	53242.51
574.03	52765.04
574.20	52823.55
574.36	52896.11
574.52	52797.80
574.68	52811.85
574.84	52692.48
575.01	52832.91
575.17	53010.79
575.33	52956.96
575.49	52842.27
575.65	53291.66
575.82	53102.07
575.98	53148.88
576.14	53326.77
576.30	53127.82
576.46	52825.89
576.62	53015.47
576.79	52818.87
576.95	52610.56
577.11	53265.91
577.27	52917.17
577.43	53134.84
577.59	52973.34
577.75	52959.30
577.92	53062.29
578.08	52603.54
578.24	52584.82
578.40	53062.29
578.56	53176.97
578.72	52821.21
578.88	53244.85
579.04	53415.71
579.21	52842.27
579.37	52896.11
579.53	53162.93
579.69	52666.73
579.85	52832.91
580.01	52830.57
580.17	52914.83
580.33	53265.91
580.49	52928.87
580.65	53088.03
580.82	53050.58
580.98	52832.91
581.14	52907.81
581.30	53193.36
581.46	53038.88
581.62	53111.44
581.78	52718.23
581.94	53111.44
582.10	52865.68
582.26	53104.41
582.42	52907.81
582.58	53581.88
582.74	53057.60
582.90	53038.88
583.06	53249.53
583.22	53174.63
583.38	53085.69
583.54	53212.08
583.70	52650.35
583.86	52963.98
584.02	52776.74
584.18	52989.73
584.34	53368.90
584.50	53378.26
584.66	53226.12
584.82	52853.98
584.98	53272.93
585.14	52861.00
585.30	52802.49
585.46	52701.84
585.62	52924.19
585.78	53155.91
585.94	52961.64
586.10	52963.98
586.26	53352.51
586.42	53027.18
586.58	53247.19
586.74	53263.57
586.90	52750.99
587.06	52919.51
587.22	53095.05
587.38	53191.01
587.54	53195.70
587.70	53382.94
587.86	53205.06
588.02	53240.17
588.18	53214.42
588.34	53010.79
588.49	53088.03
588.65	53132.50
588.81	52842.27
588.97	53083.35
589.13	53003.77
589.29	53111.44
589.45	53144.20
589.61	53254.21
589.77	53488.26
589.93	53567.84
590.08	53420.39
