SpectraSuite Data File
++++++++++++++++++++++++++++++++++++
Date: Fri Oct 18 13:54:32 GMT-05:00 2013
User: bianchi
Dark Spectrum Present: No
Reference Spectrum Present: No
Number of Sampled Component Spectra: 1
Spectrometers: USB2+H05261
Integration Time (usec): 100000 (USB2+H05261)
Spectra Averaged: 1 (USB2+H05261)
Boxcar Smoothing: 0 (USB2+H05261)
Correct for Electrical Dark: No (USB2+H05261)
Strobe/Lamp Enabled: No (USB2+H05261)
Correct for Detector Non-linearity: No (USB2+H05261)
Correct for Stray Light: No (USB2+H05261)
Number of Pixels in Processed Spectrum: 2048
>>>>>Begin Processed Spectral Data<<<<<
365.73	0.00
365.92	0.00
366.12	0.00
366.32	0.00
366.52	0.00
366.72	0.00
366.91	0.00
367.11	0.00
367.31	0.00
367.51	0.00
367.70	0.00
367.90	0.00
368.10	0.00
368.30	0.00
368.49	0.00
368.69	0.00
368.89	0.00
369.09	0.00
369.28	0.00
369.48	0.00
369.68	0.00
369.87	0.00
370.07	0.00
370.27	0.00
370.47	0.00
370.66	168.52
370.86	245.76
371.06	353.42
371.25	395.55
371.45	297.25
371.65	390.87
371.84	397.89
372.04	358.10
372.24	390.87
372.44	376.83
372.63	463.43
372.83	463.43
373.03	390.87
373.22	430.66
373.42	414.27
373.62	447.04
373.81	477.47
374.01	489.17
374.21	472.79
374.40	451.72
374.60	538.32
374.79	472.79
374.99	458.74
375.19	484.49
375.38	543.00
375.58	561.73
375.78	550.03
375.97	538.32
376.17	582.79
376.37	524.28
376.56	566.41
376.76	573.43
376.95	486.83
377.15	458.74
377.35	524.28
377.54	608.54
377.74	550.03
377.93	465.77
378.13	580.45
378.33	538.32
378.52	622.58
378.72	624.92
378.91	454.06
379.11	610.88
379.31	608.54
379.50	526.62
379.70	624.92
379.89	620.24
380.09	674.07
380.28	662.37
380.48	664.71
380.68	627.26
380.87	491.51
381.07	734.93
381.26	678.76
381.46	727.91
381.65	737.27
381.85	585.13
382.04	667.05
382.24	664.71
382.43	545.34
382.63	683.44
382.83	690.46
383.02	739.61
383.22	779.40
383.41	706.84
383.61	683.44
383.80	727.91
384.00	786.42
384.19	798.12
384.39	748.97
384.58	758.33
384.78	805.14
384.97	795.78
385.17	746.63
385.36	809.83
385.56	695.14
385.75	713.86
385.95	791.10
386.14	828.55
386.34	772.38
386.53	835.57
386.72	716.20
386.92	816.85
387.11	919.83
387.31	891.74
387.50	873.02
387.70	812.17
387.89	840.25
388.09	891.74
388.28	917.49
388.48	990.05
388.67	915.15
388.86	903.45
389.06	919.83
389.25	997.07
389.45	891.74
389.64	950.26
389.84	1013.45
390.03	1004.09
390.22	959.62
390.42	1001.75
390.61	940.90
390.81	1086.01
391.00	994.73
391.19	1027.50
391.39	1022.81
391.58	1064.94
391.78	999.41
391.97	1067.28
392.16	1095.37
392.36	1203.04
392.55	1116.44
392.75	1107.07
392.94	1083.67
393.13	1036.86
393.33	1076.65
393.52	1151.54
393.71	1179.63
393.91	1221.76
394.10	1207.72
394.29	1212.40
394.49	1165.59
394.68	1249.85
394.88	1118.78
395.07	1348.15
395.26	1266.23
395.46	1291.98
395.65	1245.16
395.84	1254.53
396.04	1390.28
396.23	1401.98
396.42	1320.06
396.62	1352.83
396.81	1404.32
397.00	1392.62
397.19	1352.83
397.39	1401.98
397.58	1509.65
397.77	1409.00
397.97	1488.58
398.16	1427.73
398.35	1467.52
398.55	1516.67
398.74	1437.09
398.93	1603.27
399.12	1476.88
399.32	1483.90
399.51	1526.03
399.70	1519.01
399.90	1577.52
400.09	1582.20
400.28	1643.06
400.47	1591.56
400.67	1579.86
400.86	1549.43
401.05	1657.10
401.24	1521.35
401.44	1607.95
401.63	1799.87
401.82	1755.40
402.01	1781.15
402.21	1678.16
402.40	1755.40
402.59	1790.51
402.78	1785.83
402.97	1851.36
403.17	1933.28
403.36	1816.26
403.55	1755.40
403.74	1867.75
403.93	1912.22
404.13	1914.56
404.32	1900.52
404.51	1884.13
404.70	1989.46
404.89	1996.48
405.09	2047.97
405.28	2033.93
405.47	2015.20
405.66	2038.61
405.85	2118.18
406.05	2120.53
406.24	2160.31
406.43	2043.29
406.62	2139.25
406.81	2326.49
407.00	2150.95
407.20	2153.29
407.39	2181.38
407.58	2270.32
407.77	2251.60
407.96	2328.83
408.15	2441.18
408.34	2314.79
408.54	2385.01
408.73	2359.26
408.92	2342.88
409.11	2363.94
409.30	2499.69
409.49	2565.23
409.68	2506.71
409.87	2352.24
410.07	2490.33
410.26	2595.65
410.45	2532.46
410.64	2516.08
410.83	2560.55
411.02	2670.55
411.21	2675.23
411.40	2679.91
411.59	2750.13
411.78	2778.22
411.98	2717.36
412.17	2890.56
412.36	2895.24
412.55	2836.73
412.74	3014.61
412.93	2984.18
413.12	2881.20
413.31	3150.36
413.50	3059.08
413.69	3059.08
413.88	3225.26
414.07	3159.72
414.26	3236.96
414.45	3150.36
414.64	3148.02
414.83	3346.97
415.02	3180.79
415.22	3297.81
415.41	3529.53
415.60	3389.10
415.79	3424.20
415.98	3517.83
416.17	3543.57
416.36	3538.89
416.55	3623.15
416.74	3613.79
416.93	3700.39
417.12	3707.41
417.31	3679.32
417.50	3627.83
417.69	3885.29
417.88	4035.08
418.07	3761.24
418.26	3791.67
418.45	3925.08
418.64	4189.56
418.83	4025.72
419.02	4074.87
419.21	3988.27
419.39	4016.36
419.58	4133.39
419.77	4091.26
419.96	4159.13
420.15	4049.13
420.34	4128.70
420.53	4404.89
420.72	4271.48
420.91	4395.53
421.10	4311.27
421.29	4337.01
421.48	4243.39
421.67	4351.06
421.86	4355.74
422.05	4369.78
422.24	4432.97
422.43	4376.80
422.61	4615.54
422.80	4507.87
422.99	4542.98
423.18	4482.13
423.37	4620.22
423.56	4517.23
423.75	4442.34
423.94	4437.66
424.13	4189.56
424.32	4306.59
424.50	4561.70
424.69	4760.65
424.88	4730.22
425.07	4411.91
425.26	4395.53
425.45	4578.09
425.64	4664.69
425.83	4519.57
426.01	4699.80
426.20	4531.28
426.39	4683.41
426.58	4657.67
426.77	4524.26
426.96	4606.17
427.15	4542.98
427.33	4676.39
427.52	4819.16
427.71	4798.10
427.90	4732.56
428.09	4858.95
428.28	4875.34
428.46	4931.51
428.65	4873.00
428.84	5060.24
429.03	5151.52
429.22	4910.44
429.40	5025.13
429.59	5226.42
429.78	4929.17
429.97	4971.30
430.16	4875.34
430.34	4933.85
430.53	5303.65
430.72	5338.76
430.91	5238.12
431.10	5153.86
431.28	5263.86
431.47	5301.31
431.66	5324.72
431.85	5502.60
432.03	5446.43
432.22	5537.71
432.41	5509.62
432.60	5462.81
432.79	5469.83
432.97	5598.56
433.16	5621.97
433.35	5607.92
433.54	5741.33
433.72	5638.35
433.91	5540.05
434.10	5610.26
434.28	5678.14
434.47	5673.46
434.66	5729.63
434.85	6090.07
435.03	5834.96
435.22	5757.72
435.41	5884.11
435.59	5853.68
435.78	5846.66
435.97	5954.32
436.16	5874.74
436.34	6171.99
436.53	5968.37
436.72	6076.03
436.90	5956.66
437.09	6106.46
437.28	6050.28
437.46	6064.33
437.65	6146.25
437.84	6272.64
438.02	6193.06
438.21	6300.72
438.40	6274.98
438.58	6225.82
438.77	6513.71
438.96	6509.03
439.14	6586.27
439.33	6583.93
439.52	6595.63
439.70	6806.28
439.89	6956.07
440.08	6829.68
440.26	6970.12
440.45	6743.08
440.63	6956.07
440.82	6974.80
441.01	6832.02
441.19	6995.86
441.38	7101.19
441.57	7115.23
441.75	7232.26
441.94	7358.64
442.12	7197.15
442.31	7405.46
442.50	7428.86
442.68	7463.97
442.87	7578.65
443.05	7318.86
443.24	7672.28
443.43	7623.12
443.61	7793.98
443.80	7669.94
443.98	7492.05
444.17	7372.69
444.35	7723.77
444.54	7826.75
444.73	7702.70
444.91	7728.45
445.10	7906.33
445.28	7761.22
445.47	7712.07
445.65	7889.95
445.84	7761.22
446.02	7744.83
446.21	7955.48
446.39	7700.36
446.58	7845.48
446.77	7728.45
446.95	7756.54
447.14	7971.86
447.32	7798.66
447.51	7943.78
447.69	8016.33
447.88	8021.02
448.06	7894.63
448.25	8006.97
448.43	7887.61
448.62	8149.75
448.80	8051.44
448.99	7934.42
449.17	7985.91
449.36	7927.39
449.54	8159.11
449.73	8404.86
449.91	8388.48
450.10	8472.74
450.28	8465.72
450.46	8360.39
450.65	8468.06
450.83	8468.06
451.02	8318.26
451.20	8524.23
451.39	8493.80
451.57	8299.54
451.76	8498.49
451.94	8442.31
452.13	8596.79
452.31	8479.76
452.49	8559.34
452.68	8498.49
452.86	8734.88
453.05	8692.75
453.23	8617.85
453.42	8748.92
453.60	8617.85
453.78	8718.50
453.97	8664.66
454.15	8769.99
454.34	8760.63
454.52	9027.45
454.70	8812.12
454.89	9069.58
455.07	8851.91
455.26	9324.69
455.44	9097.66
455.62	9259.16
455.81	9355.12
455.99	9107.02
456.17	9261.50
456.36	9434.70
456.54	9387.89
456.73	9509.60
456.91	9600.88
457.09	9525.98
457.28	9867.70
457.46	9612.58
457.64	9724.93
457.83	9741.31
458.01	9846.63
458.19	9881.74
458.38	9818.55
458.56	10017.49
458.74	10073.67
458.93	9844.29
459.11	9958.98
459.29	9834.93
459.48	10113.45
459.66	9916.85
459.84	10108.77
460.03	10333.47
460.21	10101.75
460.39	10284.31
460.57	10087.71
460.76	10108.77
460.94	10319.42
461.12	10417.72
461.31	10246.87
461.49	10281.97
461.67	10160.27
461.85	10616.67
462.04	10565.18
462.22	11101.16
462.40	10609.65
462.59	10721.99
462.77	10679.86
462.95	10478.58
463.13	10700.93
463.32	10663.48
463.50	10998.18
463.68	10712.63
463.86	10902.22
464.05	10815.62
464.23	10721.99
464.41	11150.31
464.59	10764.12
464.78	11007.54
464.96	11229.89
465.14	10794.55
465.32	11164.36
465.50	11222.87
465.69	11274.36
465.87	11117.54
466.05	11040.31
466.23	11082.44
466.41	11735.45
466.60	11630.12
466.78	11431.18
466.96	11133.93
467.14	11438.20
467.32	11431.18
467.51	11779.92
467.69	11316.49
467.87	11616.08
468.05	11442.88
468.23	11627.78
468.41	11367.98
468.60	11648.85
468.78	11765.87
468.96	11665.23
469.14	11639.48
469.32	11836.09
469.50	11585.65
469.69	11941.41
469.87	12100.57
470.05	12152.06
470.23	12084.19
470.41	12229.30
470.59	12304.20
470.77	12002.27
470.95	12250.36
471.14	12568.68
471.32	12072.48
471.50	12507.82
471.68	12423.56
471.86	12699.75
472.04	12446.97
472.22	12989.97
472.40	12580.38
472.58	12720.81
472.77	12634.21
472.95	13018.06
473.13	13228.71
473.31	12889.33
473.49	12901.03
473.67	13172.54
473.85	13050.83
474.03	13415.95
474.21	13404.25
474.39	13469.78
474.57	13631.28
474.75	13834.91
474.93	13816.18
475.12	13881.72
475.30	13944.91
475.48	13832.57
475.66	13827.88
475.84	13813.84
476.02	14141.52
476.20	14090.02
476.38	14567.49
476.56	14768.78
476.74	14527.71
476.92	14516.00
477.10	14668.14
477.28	14689.20
477.46	14778.14
477.64	14984.11
477.82	15061.35
478.00	15536.48
478.18	15616.05
478.36	15403.07
478.54	15672.23
478.72	15875.85
478.90	15840.75
479.08	16149.70
479.26	16390.77
479.44	16350.98
479.62	16615.46
479.80	16800.37
479.98	16561.63
480.16	16975.91
480.34	16875.26
480.52	17163.15
480.70	17219.32
480.88	17149.11
481.06	17151.45
481.24	17277.83
481.41	17490.82
481.59	17825.52
481.77	18195.32
481.95	17949.57
482.13	18185.96
482.31	18143.83
482.49	18977.06
482.67	18649.39
482.85	18979.40
483.03	19171.33
483.21	19215.80
483.39	19477.94
483.57	19229.84
483.74	19499.00
483.92	19566.88
484.10	19711.99
484.28	19971.79
484.46	20283.08
484.64	20592.03
484.82	20163.72
485.00	20489.05
485.18	20896.30
485.35	21188.87
485.53	20964.18
485.71	20954.82
485.89	21921.46
486.07	21373.77
486.25	21659.32
486.43	21635.91
486.61	22073.59
486.78	22127.42
486.96	22319.35
487.14	22686.81
487.32	22742.99
487.50	22963.00
487.68	22782.77
487.85	23234.50
488.03	23594.94
488.21	23623.03
488.39	23676.86
488.57	23847.72
488.75	24034.96
488.92	24407.11
489.10	24622.44
489.28	24472.64
489.46	25106.93
489.64	24950.11
489.81	25191.19
489.99	25364.39
490.17	25535.24
490.35	26036.12
490.53	26022.08
490.70	25982.29
490.88	25937.82
491.06	26387.20
491.24	26478.48
491.41	26356.77
491.59	26925.52
491.77	26698.49
491.95	27323.41
492.13	27503.64
492.30	27461.51
492.48	27087.02
492.66	27639.39
492.84	27592.58
493.01	28144.94
493.19	28339.21
493.37	28968.81
493.54	28987.53
493.72	28519.43
493.90	28823.70
494.08	29153.71
494.25	29233.29
494.43	29380.74
494.61	29387.77
494.79	29699.06
494.96	30244.40
495.14	29865.24
495.32	30511.22
495.49	30611.87
495.67	30646.97
495.85	30939.54
496.02	30759.32
496.20	31000.40
496.38	31175.94
496.55	31250.83
496.73	32086.40
496.91	31889.80
497.09	31704.90
497.26	32231.52
497.44	32072.36
497.62	32327.48
497.79	32697.28
497.97	32620.05
498.14	32552.17
498.32	33036.66
498.50	33259.01
498.67	34136.71
498.85	33008.58
499.03	33649.88
499.20	33692.01
499.38	33570.30
499.56	33640.52
499.73	34113.31
499.91	34284.17
500.08	34534.60
500.26	34202.25
500.44	34635.25
500.61	34778.02
500.79	34483.11
500.97	34677.38
501.14	35250.81
501.32	35461.46
501.49	35234.42
501.67	35250.81
501.84	35323.36
502.02	35550.40
502.20	35447.41
502.37	36109.78
502.55	35936.59
502.72	36170.64
502.90	36163.62
503.07	36109.78
503.25	36348.52
503.43	36191.70
503.60	36428.10
503.78	36772.16
503.95	36891.52
504.13	37163.03
504.30	37308.14
504.48	37104.51
504.65	37376.01
504.83	36940.68
505.01	38031.36
505.18	37783.27
505.36	38335.63
505.53	37813.70
505.71	37619.43
505.88	37928.38
506.06	37727.10
506.23	38724.16
506.41	38459.68
506.58	38707.78
506.76	38426.92
506.93	38850.55
507.11	38616.50
507.28	38864.60
507.46	39035.45
507.63	38913.75
507.81	39742.30
507.98	39592.50
508.16	39281.21
508.33	39398.24
508.50	39297.59
508.68	39770.38
508.85	40437.44
509.03	40163.59
509.20	40273.60
509.38	40535.74
509.55	40566.16
509.73	40355.52
509.90	40297.00
510.08	40474.88
510.25	41001.50
510.42	41366.63
510.60	41263.64
510.77	41516.42
510.95	41399.40
511.12	41460.25
511.30	41205.13
511.47	41720.05
511.64	41825.37
511.82	42181.13
511.99	41837.08
512.17	42234.97
512.34	42143.69
512.51	42328.59
512.69	42232.63
512.86	42174.11
513.04	42541.58
513.21	42740.52
513.38	42918.40
513.56	42738.18
513.73	42597.75
513.90	43175.86
514.08	42848.19
514.25	43093.94
514.43	43112.67
514.60	43430.98
514.77	43526.94
514.95	44392.94
515.12	43430.98
515.29	43491.83
515.47	43807.81
515.64	44072.29
515.81	44168.25
515.99	44299.32
516.16	44432.73
516.33	44556.78
516.51	45013.18
516.68	44526.35
516.85	44631.68
517.03	45097.44
517.20	44959.35
517.37	45116.17
517.54	45490.65
517.72	44975.73
517.89	44879.77
518.06	45167.66
518.24	45134.89
518.41	45511.72
518.58	45326.81
518.75	45144.25
518.93	45937.69
519.10	45701.30
519.27	45975.14
519.45	45869.82
519.62	45544.48
519.79	46167.07
519.96	46087.49
520.14	46382.40
520.31	46300.48
520.48	46377.72
520.65	46356.65
520.83	46277.07
521.00	46857.52
521.17	46469.00
521.34	46415.16
521.52	46843.48
521.69	46932.42
521.86	47304.57
522.03	47405.21
522.20	47351.38
522.38	47437.98
522.55	47096.26
522.72	47143.07
522.89	47594.79
523.07	47641.60
523.24	47555.00
523.41	47674.37
523.58	47590.11
523.75	48067.58
523.92	48065.24
524.10	47660.33
524.27	47999.71
524.44	48526.33
524.61	48381.21
524.78	48519.31
524.96	48212.70
525.13	48133.12
525.30	48601.22
525.47	48587.18
525.64	48617.61
525.81	48727.61
525.98	49148.91
526.16	48914.86
526.33	48713.57
526.50	49184.02
526.67	48952.30
526.84	48872.73
527.01	48748.68
527.18	48868.05
527.36	49069.33
527.53	49216.78
527.70	49815.96
527.87	49794.90
528.04	49387.64
528.21	49659.15
528.38	49387.64
528.55	49968.10
528.72	49413.39
528.89	49677.87
529.07	49977.46
529.24	49940.01
529.41	49844.05
529.58	49883.84
529.75	50042.99
529.92	49612.34
530.09	49963.42
530.26	50277.05
530.43	50094.49
530.60	50272.37
530.77	50520.46
530.94	50724.09
531.11	50153.00
531.28	50136.62
531.46	50492.38
531.63	50742.81
531.80	50775.58
531.97	50993.25
532.14	50773.24
532.31	50719.41
532.48	50948.78
532.65	50791.97
532.82	50696.00
532.99	51037.72
533.16	50674.94
533.33	51047.08
533.50	51341.99
533.67	51641.58
533.84	51004.95
534.01	50883.25
534.18	50997.93
534.35	51536.26
534.52	51480.08
534.69	51683.71
534.86	51934.15
535.03	51231.99
535.20	51882.66
535.37	51760.95
535.54	51325.61
535.71	51250.71
535.88	51480.08
536.05	51629.88
536.22	52154.16
536.38	52189.27
536.55	52247.78
536.72	52486.51
536.89	51707.12
537.06	51756.27
537.23	51999.68
537.40	51959.89
537.57	52154.16
537.74	52362.46
537.91	52493.54
538.08	52552.05
538.25	52310.97
538.42	52432.68
538.59	52594.18
538.75	52418.64
538.92	52608.22
539.09	52395.23
539.26	52413.96
539.43	52437.36
539.60	52605.88
539.77	52556.73
539.94	52807.17
540.11	52507.58
540.28	52917.17
540.44	52622.26
540.61	52924.19
540.78	52765.04
540.95	52926.53
541.12	52907.81
541.29	52985.05
541.46	52985.05
541.62	53043.56
541.79	53006.11
541.96	52683.12
542.13	52633.97
542.30	53048.24
542.47	53333.79
542.63	52966.32
542.80	53523.37
542.97	53701.25
543.14	53432.09
543.31	53230.80
543.48	53396.98
543.64	53869.77
543.81	53956.37
543.98	53647.42
544.15	53668.48
544.32	54251.28
544.48	54101.48
544.65	53521.03
544.82	54024.25
544.99	53748.06
545.16	53792.53
545.32	53879.13
545.49	54239.57
545.66	54307.45
545.83	54059.35
546.00	54204.47
546.16	54115.53
546.33	53876.79
546.50	53813.60
546.67	54127.23
546.83	53925.94
547.00	53851.05
547.17	54394.05
547.34	54148.29
547.50	54433.84
547.67	54258.30
547.84	54419.80
548.00	54260.64
548.17	54202.13
548.34	54553.21
548.51	54485.33
548.67	54527.46
548.84	54717.04
549.01	54571.93
549.18	54403.41
549.34	54621.08
549.51	54398.73
549.68	54651.51
549.84	54553.21
550.01	54813.01
550.18	54525.12
550.34	54679.60
550.51	55178.13
550.68	54670.23
550.84	54918.33
551.01	54780.24
551.18	54759.17
551.34	55119.62
551.51	54787.26
551.68	55079.83
551.84	54976.84
552.01	54798.96
552.18	55009.61
552.34	55180.47
552.51	55049.40
552.68	55171.11
552.84	55136.00
553.01	54983.86
553.18	55304.52
553.34	55150.04
553.51	55276.43
553.67	55187.49
553.84	55604.11
554.01	55487.08
554.17	55531.55
554.34	55311.54
554.51	55391.12
554.67	55468.36
554.84	55461.33
555.00	55299.84
555.17	55444.95
555.33	55557.30
555.50	55475.38
555.67	55325.58
555.83	55629.85
556.00	55379.42
556.16	55547.93
556.33	55299.84
556.50	55292.82
556.66	55781.99
556.83	55884.97
556.99	55566.66
557.16	55718.79
557.32	55770.28
557.49	55751.56
557.65	55414.52
557.82	55515.17
557.98	55721.13
558.15	55931.78
558.32	55920.08
558.48	55896.67
558.65	56048.81
558.81	55800.71
558.98	55847.52
559.14	55880.29
559.31	55941.14
559.47	55547.93
559.64	55835.82
559.80	56032.42
559.97	56179.88
560.13	55786.67
560.30	55927.10
560.46	55739.86
560.63	55819.44
560.79	55978.59
560.96	56135.41
561.12	56065.19
561.29	56060.51
561.45	56116.68
561.61	56165.84
561.78	56334.35
561.94	56313.29
562.11	55985.61
562.27	56058.17
562.44	55941.14
562.60	55959.87
562.77	56315.63
562.93	55917.74
563.10	56214.99
563.26	56413.93
563.42	56411.59
563.59	56376.48
563.75	56296.91
563.92	56357.76
564.08	56121.37
564.24	56348.40
564.41	56332.01
564.57	56214.99
564.74	56217.33
564.90	56343.72
565.07	56320.31
565.23	56343.72
565.39	56404.57
565.56	56294.56
565.72	56079.24
565.88	56477.13
566.05	56339.04
566.21	56222.01
566.38	56034.77
566.54	56313.29
566.70	56533.30
566.87	56552.02
567.03	56292.22
567.19	56554.36
567.36	56484.15
567.52	56317.97
567.68	56481.81
567.85	56097.96
568.01	56465.42
568.17	56395.21
568.34	56526.28
568.50	56519.26
568.66	56650.33
568.83	56753.31
568.99	56259.46
569.15	56449.04
569.32	56348.40
569.48	56266.48
569.64	56509.89
569.81	56308.61
569.97	56193.92
570.13	56523.94
570.30	56509.89
570.46	56472.45
570.62	56537.98
570.78	56559.05
570.95	56472.45
571.11	56491.17
571.27	56219.67
571.43	56542.66
571.60	56477.13
571.76	56451.38
571.92	56645.65
572.09	56626.92
572.25	56816.50
572.41	56699.48
572.57	56580.11
572.74	56846.93
572.90	56779.06
573.06	56617.56
573.22	56589.47
573.38	56720.54
573.55	56659.69
573.71	56959.28
573.87	56725.22
574.03	56402.23
574.20	56687.78
574.36	56486.49
574.52	56535.64
574.68	56545.00
574.84	56526.28
575.01	56760.33
575.17	56772.03
575.33	56640.96
575.49	56547.34
575.65	57041.20
575.82	56872.68
575.98	56729.90
576.14	56669.05
576.30	56559.05
576.46	56652.67
576.62	56339.04
576.79	56596.49
576.95	56456.06
577.11	56715.86
577.27	56706.50
577.43	56802.46
577.59	56655.01
577.75	56750.97
577.92	56507.55
578.08	56458.40
578.24	56460.74
578.40	56741.61
578.56	56568.41
578.72	56664.37
578.88	57043.54
579.04	56811.82
579.21	56736.93
579.37	56872.68
579.53	56765.01
579.69	56912.47
579.85	56832.89
580.01	56753.31
580.17	56659.69
580.33	56507.55
580.49	56549.68
580.65	56818.84
580.82	57022.47
580.98	56718.20
581.14	56783.74
581.30	56765.01
581.46	56669.05
581.62	56835.23
581.78	56526.28
581.94	56596.49
582.10	56570.75
582.26	56769.69
582.42	56692.46
582.58	56919.49
582.74	56725.22
582.90	56793.10
583.06	56725.22
583.22	56615.22
583.38	56797.78
583.54	56804.80
583.70	56587.13
583.86	56477.13
584.02	56605.86
584.18	57057.58
584.34	56844.59
584.50	56961.62
584.66	56753.31
584.82	56781.40
584.98	56722.88
585.14	56624.58
585.30	56638.62
585.46	56624.58
585.62	56779.06
585.78	56896.08
585.94	56685.43
586.10	56994.39
586.26	56947.57
586.42	56774.37
586.58	56999.07
586.74	56835.23
586.90	56505.21
587.06	56622.24
587.22	56919.49
587.38	56711.18
587.54	56952.26
587.70	56975.66
587.86	57043.54
588.02	56924.17
588.18	57013.11
588.34	56903.10
588.49	56858.63
588.65	56666.71
588.81	56816.50
588.97	56910.13
589.13	56856.29
589.29	56781.40
589.45	56870.34
589.61	56921.83
