SpectraSuite Data File
++++++++++++++++++++++++++++++++++++
Date: Fri Oct 18 13:55:29 GMT-05:00 2013
User: bianchi
Dark Spectrum Present: No
Reference Spectrum Present: No
Number of Sampled Component Spectra: 1
Spectrometers: USB2+H05261
Integration Time (usec): 100000 (USB2+H05261)
Spectra Averaged: 1 (USB2+H05261)
Boxcar Smoothing: 0 (USB2+H05261)
Correct for Electrical Dark: No (USB2+H05261)
Strobe/Lamp Enabled: No (USB2+H05261)
Correct for Detector Non-linearity: No (USB2+H05261)
Correct for Stray Light: No (USB2+H05261)
Number of Pixels in Processed Spectrum: 2048
>>>>>Begin Processed Spectral Data<<<<<
365.73	0.00
365.92	0.00
366.12	0.00
366.32	0.00
366.52	0.00
366.72	0.00
366.91	0.00
367.11	0.00
367.31	0.00
367.51	0.00
367.70	0.00
367.90	0.00
368.10	0.00
368.30	0.00
368.49	0.00
368.69	0.00
368.89	0.00
369.09	0.00
369.28	0.00
369.48	0.00
369.68	0.00
369.87	0.00
370.07	0.00
370.27	0.00
370.47	84.26
370.66	191.92
370.86	285.55
371.06	355.76
371.25	416.62
371.45	337.04
371.65	337.04
371.84	322.99
372.04	346.40
372.24	369.80
372.44	411.93
372.63	477.47
372.83	404.91
373.03	407.25
373.22	458.74
373.42	454.06
373.62	444.70
373.81	496.19
374.01	512.58
374.21	554.71
374.40	442.36
374.60	491.51
374.79	477.47
374.99	528.96
375.19	575.77
375.38	500.87
375.58	521.94
375.78	550.03
375.97	514.92
376.17	545.34
376.37	496.19
376.56	514.92
376.76	486.83
376.95	557.05
377.15	479.81
377.35	545.34
377.54	564.07
377.74	543.00
377.93	526.62
378.13	557.05
378.33	554.71
378.52	592.16
378.72	568.75
378.91	683.44
379.11	521.94
379.31	608.54
379.50	578.11
379.70	617.90
379.89	540.66
380.09	648.33
380.28	650.67
380.48	517.26
380.68	657.69
380.87	648.33
381.07	681.10
381.26	660.03
381.46	636.63
381.65	706.84
381.85	645.99
382.04	667.05
382.24	716.20
382.43	765.36
382.63	683.44
382.83	748.97
383.02	774.72
383.22	765.36
383.41	718.54
383.61	655.35
383.80	802.80
384.00	744.29
384.19	748.97
384.39	753.65
384.58	692.80
384.78	802.80
384.97	699.82
385.17	823.87
385.36	753.65
385.56	875.36
385.75	744.29
385.95	814.51
386.14	821.53
386.34	851.96
386.53	816.85
386.72	805.14
386.92	863.66
387.11	814.51
387.31	884.72
387.50	875.36
387.70	896.43
387.89	819.19
388.09	781.74
388.28	901.11
388.48	912.81
388.67	917.49
388.86	952.60
389.06	910.47
389.25	800.46
389.45	903.45
389.64	903.45
389.84	987.71
390.03	915.15
390.22	961.96
390.42	957.28
390.61	973.66
390.81	894.08
391.00	1057.92
391.19	1064.94
391.39	1095.37
391.58	1032.18
391.78	1050.90
391.97	1046.22
392.16	1076.65
392.36	1025.15
392.55	1142.18
392.75	1224.10
392.94	1172.61
393.13	1184.31
393.33	1149.20
393.52	1165.59
393.71	1114.10
393.91	1224.10
394.10	1125.80
394.29	1151.54
394.49	1118.78
394.68	1179.63
394.88	1116.44
395.07	1254.53
395.26	1268.57
395.46	1287.29
395.65	1287.29
395.84	1256.87
396.04	1331.76
396.23	1299.00
396.42	1341.13
396.62	1329.42
396.81	1329.42
397.00	1299.00
397.19	1444.11
397.39	1380.92
397.58	1394.96
397.77	1404.32
397.97	1409.00
398.16	1263.89
398.35	1465.18
398.55	1341.13
398.74	1376.24
398.93	1469.86
399.12	1418.36
399.32	1451.13
399.51	1448.79
399.70	1617.31
399.90	1521.35
400.09	1507.30
400.28	1605.61
400.47	1528.37
400.67	1582.20
400.86	1668.80
401.05	1694.55
401.24	1638.38
401.44	1722.63
401.63	1598.59
401.82	1664.12
402.01	1582.20
402.21	1753.06
402.40	1696.89
402.59	1701.57
402.78	1785.83
402.97	1966.05
403.17	1788.17
403.36	1874.77
403.55	1795.19
403.74	1926.26
403.93	1820.94
404.13	1860.73
404.32	1834.98
404.51	1881.79
404.70	2040.95
404.89	1914.56
405.09	1973.07
405.28	2003.50
405.47	1949.67
405.66	2010.52
405.85	2099.46
406.05	2129.89
406.24	2101.80
406.43	2073.71
406.62	2064.35
406.81	2200.10
407.00	2005.84
407.20	2150.95
407.39	2303.09
407.58	2258.62
407.77	2303.09
407.96	2352.24
408.15	2380.32
408.34	2422.45
408.54	2296.07
408.73	2438.84
408.92	2321.81
409.11	2415.43
409.30	2452.88
409.49	2490.33
409.68	2373.30
409.87	2403.73
410.07	2495.01
410.26	2602.68
410.45	2403.73
410.64	2553.52
410.83	2640.12
411.02	2626.08
411.21	2775.88
411.40	2663.53
411.59	2764.17
411.78	2761.83
411.98	2782.90
412.17	2818.00
412.36	2771.19
412.55	2834.39
412.74	2918.65
412.93	2857.79
413.12	2848.43
413.31	3108.23
413.50	3023.97
413.69	3000.57
413.88	3030.99
414.07	3122.27
414.26	3180.79
414.45	3164.40
414.64	3211.22
414.83	3241.64
415.02	3267.39
415.22	3351.65
415.41	3440.59
415.60	3382.07
415.79	3384.41
415.98	3400.80
416.17	3449.95
416.36	3569.32
416.55	3651.24
416.74	3520.17
416.93	3571.66
417.12	3590.38
417.31	3698.05
417.50	3672.30
417.69	3976.57
417.88	3791.67
418.07	3829.12
418.26	3735.50
418.45	3904.01
418.64	3969.55
418.83	3922.74
419.02	4018.70
419.21	3964.87
419.39	4035.08
419.58	3992.95
419.77	3934.44
419.96	4037.42
420.15	4161.47
420.34	4030.40
420.53	4091.26
420.72	4145.09
420.91	4327.65
421.10	4262.12
421.29	4456.38
421.48	4273.82
421.67	4196.58
421.86	4191.90
422.05	4325.31
422.24	4234.03
422.43	4287.86
422.61	4304.25
422.80	4337.01
422.99	4423.61
423.18	4421.27
423.37	4390.84
423.56	4430.63
423.75	4468.08
423.94	4533.62
424.13	4042.11
424.32	4250.41
424.50	4669.37
424.69	4510.21
424.88	4491.49
425.07	4409.57
425.26	4435.32
425.45	4507.87
425.64	4461.06
425.83	4550.00
426.01	4594.47
426.20	4552.34
426.39	4559.36
426.58	4643.62
426.77	4629.58
426.96	4617.88
427.15	4578.09
427.33	4727.88
427.52	4734.90
427.71	4826.18
427.90	4779.37
428.09	4781.71
428.28	4844.91
428.46	4720.86
428.65	4966.62
428.84	5032.15
429.03	4947.89
429.22	4812.14
429.40	4931.51
429.59	5006.41
429.78	4884.70
429.97	4858.95
430.16	4830.87
430.34	5085.98
430.53	5123.43
430.72	5053.22
430.91	4994.70
431.10	5153.86
431.28	5378.55
431.47	5233.44
431.66	5455.79
431.85	5191.31
432.03	5458.13
432.22	5476.85
432.41	5404.30
432.60	5385.57
432.79	5329.40
432.97	5401.96
433.16	5511.96
433.35	5359.83
433.54	5558.77
433.72	5565.79
433.91	5528.35
434.10	5589.20
434.28	5481.53
434.47	5638.35
434.66	5781.12
434.85	5687.50
435.03	5610.26
435.22	5750.70
435.41	5963.68
435.59	5874.74
435.78	5846.66
435.97	5888.79
436.16	5879.43
436.34	5860.70
436.53	5994.11
436.72	6080.71
436.90	5893.47
437.09	6101.78
437.28	5942.62
437.46	5909.85
437.65	6167.31
437.84	6069.01
438.02	6167.31
438.21	6289.02
438.40	6169.65
438.58	6253.91
438.77	6459.88
438.96	6340.51
439.14	6551.16
439.33	6490.31
439.52	6567.54
439.70	6525.41
439.89	6509.03
440.08	6747.76
440.26	6846.07
440.45	6672.87
440.63	6864.79
440.82	6871.81
441.01	6834.36
441.19	6892.88
441.38	7098.84
441.57	7108.21
441.75	7016.93
441.94	7328.22
442.12	7169.06
442.31	7335.24
442.50	7321.20
442.68	7295.45
442.87	7297.79
443.05	7279.07
443.24	7768.24
443.43	7412.48
443.61	7302.47
443.80	7880.58
443.98	7337.58
444.17	7265.02
444.35	7433.54
444.54	7882.92
444.73	7695.68
444.91	7456.95
445.10	7548.23
445.28	7644.19
445.47	7695.68
445.65	7705.04
445.84	7683.98
446.02	7583.34
446.21	7709.72
446.39	7712.07
446.58	7588.02
446.77	7751.85
446.95	7733.13
447.14	7719.09
447.32	7836.11
447.51	7719.09
447.69	7613.76
447.88	7836.11
448.06	7871.22
448.25	7887.61
448.43	7845.48
448.62	7939.10
448.80	7730.79
448.99	8109.96
449.17	8013.99
449.36	7819.73
449.54	8147.40
449.73	8063.15
449.91	8173.15
450.10	8145.06
450.28	8311.24
450.46	8234.00
450.65	8191.88
450.83	8386.14
451.02	8224.64
451.20	8542.96
451.39	8334.65
451.57	8528.91
451.76	8430.61
451.94	8334.65
452.13	8353.37
452.31	8449.33
452.49	8308.90
452.68	8638.92
452.86	8542.96
453.05	8662.32
453.23	8667.00
453.42	8730.20
453.60	8505.51
453.78	8624.87
453.97	8669.34
454.15	8671.68
454.34	8615.51
454.52	8828.50
454.70	8884.67
454.89	8816.80
455.07	8842.54
455.26	8910.42
455.44	8999.36
455.62	9043.83
455.81	9130.43
455.99	8957.23
456.17	9114.05
456.36	9195.96
456.54	9296.61
456.73	9303.63
456.91	9612.58
457.09	9612.58
457.28	9727.27
457.46	9413.63
457.64	9638.33
457.83	9717.90
458.01	9413.63
458.19	9483.85
458.38	9343.42
458.56	9991.75
458.74	9757.69
458.93	9710.88
459.11	9888.76
459.29	9710.88
459.48	9844.29
459.66	9823.23
459.84	9951.96
460.03	10155.58
460.21	10176.65
460.39	10008.13
460.57	10017.49
460.76	10326.44
460.94	10513.69
461.12	10090.05
461.31	10214.10
461.49	10249.21
461.67	10099.41
461.85	10459.85
462.04	10256.23
462.22	10988.82
462.40	10375.59
462.59	10399.00
462.77	10427.09
462.95	10401.34
463.13	10593.26
463.32	10752.42
463.50	10607.31
463.68	10672.84
463.86	10633.05
464.05	10560.50
464.23	10499.64
464.41	10619.01
464.59	10567.52
464.78	11103.50
464.96	10974.77
465.14	10640.08
465.32	10813.28
465.50	10923.28
465.69	11115.20
465.87	10876.47
466.05	10991.16
466.23	11115.20
466.41	11290.74
466.60	11384.37
466.78	11052.01
466.96	11080.10
467.14	11044.99
467.32	11157.33
467.51	11433.52
467.69	11089.46
467.87	11279.04
468.05	11606.72
468.23	11241.59
468.41	11342.24
468.60	11403.09
468.78	11700.34
468.96	11520.12
469.14	11749.49
469.32	11557.57
469.50	11316.49
469.69	11833.75
469.87	11817.36
470.05	11775.24
470.23	11796.30
470.41	11946.09
470.59	12011.63
470.77	11817.36
470.95	11974.18
471.14	12074.82
471.32	12035.03
471.50	12524.21
471.68	12498.46
471.86	12283.13
472.04	12477.40
472.22	12681.02
472.40	12348.67
472.58	12449.31
472.77	12849.54
472.95	12870.61
473.13	13327.01
473.31	12765.28
473.49	12781.67
473.67	12748.90
473.85	13076.57
474.03	13371.48
474.21	13167.85
474.39	13125.72
474.57	13268.50
474.75	13593.83
474.93	13626.60
475.12	13502.55
475.30	13650.00
475.48	13809.16
475.66	13619.58
475.84	13760.01
476.02	13865.33
476.20	14064.28
476.38	14181.31
476.56	14157.90
476.74	14391.95
476.92	14408.34
477.10	14242.16
477.28	14677.50
477.46	14607.28
477.64	14703.25
477.82	14902.19
478.00	15461.58
478.18	15393.70
478.36	15456.90
478.54	15382.00
478.72	15660.52
478.90	15845.43
479.08	15967.13
479.26	16051.39
479.44	16184.80
479.62	16390.77
479.80	16215.23
479.98	16395.45
480.16	16889.31
480.34	16575.67
480.52	16912.71
480.70	16741.85
480.88	16868.24
481.06	16788.66
481.24	17046.12
481.41	17205.28
481.59	17598.49
481.77	17675.73
481.95	17659.34
482.13	18024.47
482.31	18097.02
482.49	18118.09
482.67	18279.58
482.85	18424.70
483.03	18696.20
483.21	18977.06
483.39	19021.53
483.57	18806.20
483.74	19105.79
483.92	19651.14
484.10	19377.30
484.28	19417.08
484.46	19976.47
484.64	20091.16
484.82	20130.95
485.00	20095.84
485.18	20596.71
485.35	20648.21
485.53	20570.97
485.71	20688.00
485.89	21261.43
486.07	21099.93
486.25	21139.72
486.43	21472.07
486.61	21736.56
486.78	21844.22
486.96	22157.85
487.14	22164.87
487.32	22611.92
487.50	22499.57
487.68	22637.66
487.85	22651.70
488.03	23218.11
488.21	23379.61
488.39	23283.65
488.57	23470.89
488.75	23718.99
488.92	24271.36
489.10	24002.19
489.28	24159.01
489.46	24582.65
489.64	24442.21
489.81	25001.60
489.99	24905.64
490.17	25092.88
490.35	25465.03
490.53	25525.88
490.70	25776.32
490.88	25446.30
491.06	25879.30
491.24	26160.17
491.41	26424.65
491.59	26293.58
491.77	26607.21
491.95	26969.99
492.13	27068.30
492.30	27131.49
492.48	27175.96
492.66	27232.13
492.84	27154.90
493.01	27672.15
493.19	27854.72
493.37	28402.40
493.54	28105.15
493.72	28144.94
493.90	28446.87
494.08	28533.47
494.25	28849.44
494.43	29544.58
494.61	29322.23
494.79	29596.07
494.96	29291.80
495.14	29628.84
495.32	29670.97
495.49	29832.47
495.67	30160.14
495.85	30340.36
496.02	30869.33
496.20	30431.65
496.38	30806.13
496.55	30792.09
496.73	31524.68
496.91	31063.59
497.09	31374.88
497.26	31393.61
497.44	31445.10
497.62	31723.62
497.79	31800.86
497.97	31915.54
498.14	32112.15
498.32	32760.48
498.50	32601.32
498.67	32835.38
498.85	32690.26
499.03	33055.39
499.20	32872.82
499.38	33144.33
499.56	33205.18
499.73	33612.43
499.91	33713.08
500.08	33741.16
500.26	33607.75
500.44	33689.67
500.61	34618.86
500.79	33991.60
500.97	34761.64
501.14	34726.53
501.32	34951.22
501.49	34490.13
501.67	34778.02
501.84	34895.05
502.02	35225.06
502.20	35297.62
502.37	35339.75
502.55	35484.86
502.72	35742.32
502.90	35470.82
503.07	35454.44
503.25	35639.34
503.43	35625.29
503.60	36177.66
503.78	36170.64
503.95	36727.69
504.13	36416.40
504.30	36353.20
504.48	36477.25
504.65	36608.32
504.83	36978.12
505.01	37277.71
505.18	37053.02
505.36	37504.74
505.53	37357.29
505.71	37432.19
505.88	37825.40
506.06	37336.23
506.23	37869.87
506.41	37691.99
506.58	38066.47
506.76	38089.88
506.93	38085.20
507.11	37689.65
507.28	38132.01
507.46	38359.04
507.63	38504.15
507.81	38923.11
507.98	38820.13
508.16	38981.62
508.33	38719.48
508.50	38976.94
508.68	39241.42
508.85	39400.58
509.03	39559.73
509.20	39629.95
509.38	39789.11
509.55	40343.81
509.73	39976.35
509.90	39974.01
510.08	40224.45
510.25	39995.07
510.42	40236.15
510.60	40727.66
510.77	40999.16
510.95	40858.73
511.12	40456.16
511.30	40980.44
511.47	40390.62
511.64	41172.36
511.82	41031.93
511.99	41167.68
512.17	41291.73
512.34	41813.67
512.51	41876.86
512.69	41436.84
512.86	42197.52
513.04	42494.77
513.21	41982.19
513.38	42073.47
513.56	42270.08
513.73	42117.94
513.90	42309.86
514.08	41570.25
514.25	42733.50
514.43	42859.89
514.60	43152.46
514.77	43014.37
514.95	43049.47
515.12	42705.41
515.29	42731.16
515.47	43243.74
515.64	43721.21
515.81	43632.27
515.99	43814.83
516.16	43789.08
516.33	43847.60
516.51	43782.06
516.68	43470.77
516.85	43779.72
517.03	44158.89
517.20	44465.50
517.37	44238.47
517.54	44718.28
517.72	43999.73
517.89	44514.65
518.06	44573.16
518.24	44737.00
518.41	44577.84
518.58	44760.40
518.75	44940.63
518.93	45462.57
519.10	44748.70
519.27	44959.35
519.45	45226.17
519.62	45209.79
519.79	45291.71
519.96	45303.41
520.14	45813.65
520.31	44940.63
520.48	45687.26
520.65	46106.21
520.83	45844.07
521.00	46040.68
521.17	45970.46
521.34	46094.51
521.52	46017.27
521.69	46408.14
521.86	46270.05
522.03	46597.73
522.20	47079.88
522.38	46557.94
522.55	46401.12
522.72	47056.47
522.89	46927.74
523.07	47164.14
523.24	47206.26
523.41	47426.28
523.58	47157.11
523.75	47084.56
523.92	47000.30
524.10	47452.02
524.27	47459.04
524.44	47690.76
524.61	47576.07
524.78	47934.17
524.96	47732.89
525.13	48037.16
525.30	47936.51
525.47	48051.20
525.64	47938.85
525.81	48048.86
525.98	48439.73
526.16	48268.87
526.33	48339.08
526.50	48636.33
526.67	48252.48
526.84	48531.01
527.01	48547.39
527.18	48355.47
527.36	48942.94
527.53	48825.92
527.70	48912.52
527.87	49125.50
528.04	48961.67
528.21	48898.47
528.38	48973.37
528.55	49366.58
528.72	49174.66
528.89	49193.38
529.07	49006.14
529.24	49174.66
529.41	49195.72
529.58	49029.54
529.75	49200.40
529.92	49308.07
530.09	49275.30
530.26	49275.30
530.43	49851.07
530.60	49579.57
530.77	49909.58
530.94	49904.90
531.11	49715.32
531.28	49588.93
531.46	49659.15
531.63	50019.59
531.80	50012.57
531.97	50248.96
532.14	50052.36
532.31	50291.09
532.48	50515.78
532.65	50485.36
532.82	50092.15
532.99	50244.28
533.16	50106.19
533.33	50782.60
533.50	50775.58
533.67	50801.33
533.84	50347.26
534.01	50578.98
534.18	50459.61
534.35	50953.46
534.52	50656.21
534.69	51196.88
534.86	50894.95
535.03	51054.11
535.20	51143.05
535.37	51058.79
535.54	51145.39
535.71	50815.37
535.88	51021.34
536.05	51327.95
536.22	51351.35
536.38	51723.50
536.55	51711.80
536.72	51620.52
536.89	51386.46
537.06	51496.47
537.23	51915.42
537.40	51498.81
537.57	51498.81
537.74	51906.06
537.91	51784.35
538.08	51873.29
538.25	51887.34
538.42	51550.30
538.59	52102.67
538.75	51873.29
538.92	51978.62
539.09	52163.52
539.26	51810.10
539.43	52090.96
539.60	52509.92
539.77	52137.77
539.94	52591.84
540.11	52205.65
540.28	52170.54
540.44	52343.74
540.61	52048.83
540.78	52203.31
540.95	52327.36
541.12	52339.06
541.29	52423.32
541.46	52388.21
541.62	52364.81
541.79	52577.79
541.96	52261.82
542.13	52467.79
542.30	52280.55
542.47	53010.79
542.63	52835.25
542.80	53242.51
542.97	53186.33
543.14	53216.76
543.31	53221.44
543.48	52774.40
543.64	53411.02
543.81	53095.05
543.98	53343.15
544.15	53408.68
544.32	53270.59
544.48	53490.60
544.65	53518.69
544.82	53322.08
544.99	53059.94
545.16	53495.28
545.32	53371.24
545.49	53668.48
545.66	53939.99
545.83	53972.75
546.00	53970.41
546.16	53762.11
546.33	53581.88
546.50	53305.70
546.67	53226.12
546.83	53401.66
547.00	53684.87
547.17	53846.36
547.34	53982.12
547.50	54096.80
547.67	54213.83
547.84	54241.92
548.00	53886.15
548.17	53804.24
548.34	54021.90
548.51	54082.76
548.67	54241.92
548.84	54096.80
549.01	54213.83
549.18	54171.70
549.34	54103.82
549.51	54082.76
549.68	54164.68
549.84	54092.12
550.01	54281.70
550.18	54202.13
550.34	54316.81
550.51	54351.92
550.68	54136.59
550.84	54087.44
551.01	54319.15
551.18	54017.22
551.34	54225.53
551.51	54621.08
551.68	54384.69
551.84	54623.42
552.01	54246.60
552.18	54571.93
552.34	54656.19
552.51	54663.21
552.68	54206.81
552.84	54522.78
553.01	54852.80
553.18	54564.91
553.34	55007.27
553.51	54480.65
553.67	54908.97
553.84	55157.06
554.01	55033.02
554.17	54944.08
554.34	54546.18
554.51	54691.30
554.67	55068.12
554.84	54979.18
555.00	54763.85
555.17	54958.12
555.33	55054.08
555.50	54878.54
555.67	55107.91
555.83	55021.31
556.00	54927.69
556.16	55393.46
556.33	54712.36
556.50	54946.42
556.66	55107.91
556.83	55035.36
556.99	55327.92
557.16	55292.82
557.32	55377.08
557.49	55391.12
557.65	55004.93
557.82	55103.23
557.98	55100.89
558.15	55271.75
558.32	55325.58
558.48	55164.09
558.65	55409.84
558.81	55538.57
558.98	55363.03
559.14	55480.06
559.31	55393.46
559.47	55341.97
559.64	55231.96
559.80	55325.58
559.97	55545.59
560.13	55707.09
560.30	55409.84
560.46	55543.25
560.63	55442.61
560.79	55686.03
560.96	55437.93
561.12	55697.73
561.29	55494.10
561.45	55564.32
561.61	55660.28
561.78	55791.35
561.94	56140.09
562.11	55800.71
562.27	55374.73
562.44	55622.83
562.60	55505.80
562.77	55487.08
562.93	55583.04
563.10	55978.59
563.26	55679.00
563.42	55969.23
563.59	55817.10
563.75	55835.82
563.92	55803.05
564.08	55774.97
564.24	55941.14
564.41	55838.16
564.57	55739.86
564.74	55793.69
564.90	55938.80
565.07	55781.99
565.23	56072.21
565.39	56041.79
565.56	55997.32
565.72	55613.47
565.88	56027.74
566.05	55784.33
566.21	55739.86
566.38	55987.95
566.54	55931.78
566.70	56006.68
566.87	56062.85
567.03	55723.47
567.19	56161.15
567.36	56051.15
567.52	55884.97
567.68	56044.13
567.85	55913.06
568.01	56151.79
568.17	56121.37
568.34	55870.93
568.50	56259.46
568.66	56142.43
568.83	55908.38
568.99	55861.57
569.15	56062.85
569.32	55990.30
569.48	55847.52
569.64	55817.10
569.81	56093.28
569.97	55889.65
570.13	56002.00
570.30	55950.51
570.46	56140.09
570.62	56205.62
570.78	56041.79
570.95	55957.53
571.11	56053.49
571.27	55861.57
571.43	55976.25
571.60	55997.32
571.76	55945.83
571.92	56165.84
572.09	56252.44
572.25	56341.38
572.41	56416.27
572.57	55976.25
572.74	56411.59
572.90	55880.29
573.06	56086.26
573.22	56217.33
573.38	56097.96
573.55	56266.48
573.71	56535.64
573.87	56238.39
574.03	56163.50
574.20	56341.38
574.36	56135.41
574.52	56214.99
574.68	56041.79
574.84	55997.32
575.01	56282.86
575.17	56252.44
575.33	56034.77
575.49	56034.77
575.65	56608.20
575.82	56481.81
575.98	56196.26
576.14	56357.76
576.30	56184.56
576.46	56053.49
576.62	56144.77
576.79	56168.18
576.95	56137.75
577.11	56207.97
577.27	56317.97
577.43	56334.35
577.59	56177.54
577.75	56327.33
577.92	56186.90
578.08	56210.31
578.24	56023.06
578.40	56273.50
578.56	56058.17
578.72	56205.62
578.88	56294.56
579.04	56568.41
579.21	56453.72
579.37	56313.29
579.53	56364.78
579.69	56271.16
579.85	56287.54
580.01	56121.37
580.17	56165.84
580.33	56282.86
580.49	56149.45
580.65	56416.27
580.82	56175.20
580.98	56495.85
581.14	56458.40
581.30	56463.08
581.46	56112.00
581.62	56079.24
581.78	56074.55
581.94	56205.62
582.10	56170.52
582.26	56378.82
582.42	56306.27
582.58	56619.90
582.74	56278.18
582.90	56308.61
583.06	56521.60
583.22	56341.38
583.38	56093.28
583.54	56346.06
583.70	56362.44
583.86	56402.23
584.02	55978.59
584.18	56587.13
584.34	56697.14
584.50	56446.70
584.66	56451.38
584.82	56093.28
584.98	56322.65
585.14	56313.29
585.30	56308.61
585.46	56322.65
585.62	56282.86
585.78	56308.61
585.94	56367.12
586.10	56453.72
586.26	56474.79
586.42	56643.30
586.58	56741.61
586.74	56308.61
586.90	56273.50
587.06	56030.08
587.22	56275.84
587.38	56224.35
587.54	56605.86
587.70	56704.16
587.86	56472.45
588.02	56545.00
588.18	56498.19
588.34	56594.15
588.49	56306.27
588.65	56442.02
588.81	56371.80
588.97	56418.61
589.13	56317.97
589.29	56507.55
589.45	56795.44
589.61	56655.01
