SpectraSuite Data File
++++++++++++++++++++++++++++++++++++
Date: Fri Oct 18 13:55:12 GMT-05:00 2013
User: bianchi
Dark Spectrum Present: No
Reference Spectrum Present: No
Number of Sampled Component Spectra: 1
Spectrometers: USB2+H05261
Integration Time (usec): 100000 (USB2+H05261)
Spectra Averaged: 1 (USB2+H05261)
Boxcar Smoothing: 0 (USB2+H05261)
Correct for Electrical Dark: No (USB2+H05261)
Strobe/Lamp Enabled: No (USB2+H05261)
Correct for Detector Non-linearity: No (USB2+H05261)
Correct for Stray Light: No (USB2+H05261)
Number of Pixels in Processed Spectrum: 2048
>>>>>Begin Processed Spectral Data<<<<<
365.73	14.04
365.92	14.04
366.12	14.04
366.32	0.00
366.52	0.00
366.72	0.00
366.91	0.00
367.11	0.00
367.31	0.00
367.51	0.00
367.70	0.00
367.90	0.00
368.10	0.00
368.30	0.00
368.49	0.00
368.69	0.00
368.89	0.00
369.09	0.00
369.28	0.00
369.48	0.00
369.68	0.00
369.87	0.00
370.07	0.00
370.27	0.00
370.47	58.51
370.66	243.42
370.86	320.65
371.06	353.42
371.25	353.42
371.45	433.00
371.65	311.29
371.84	358.10
372.04	351.08
372.24	376.83
372.44	301.93
372.63	418.96
372.83	430.66
373.03	407.25
373.22	444.70
373.42	425.98
373.62	414.27
373.81	477.47
374.01	491.51
374.21	503.22
374.40	451.72
374.60	550.03
374.79	409.59
374.99	571.09
375.19	475.13
375.38	451.72
375.58	463.43
375.78	461.09
375.97	573.43
376.17	449.38
376.37	545.34
376.56	545.34
376.76	512.58
376.95	479.81
377.15	524.28
377.35	552.37
377.54	535.98
377.74	543.00
377.93	531.30
378.13	526.62
378.33	535.98
378.52	543.00
378.72	667.05
378.91	624.92
379.11	543.00
379.31	631.94
379.50	557.05
379.70	674.07
379.89	617.90
380.09	557.05
380.28	655.35
380.48	653.01
380.68	610.88
380.87	702.16
381.07	624.92
381.26	655.35
381.46	627.26
381.65	690.46
381.85	660.03
382.04	634.29
382.24	690.46
382.43	636.63
382.63	699.82
382.83	713.86
383.02	669.39
383.22	641.31
383.41	744.29
383.61	697.48
383.80	863.66
384.00	657.69
384.19	809.83
384.39	667.05
384.58	688.12
384.78	767.70
384.97	833.23
385.17	828.55
385.36	711.52
385.56	798.12
385.75	823.87
385.95	858.98
386.14	821.53
386.34	784.08
386.53	896.43
386.72	873.02
386.92	805.14
387.11	884.72
387.31	933.87
387.50	966.64
387.70	877.70
387.89	905.79
388.09	856.64
388.28	868.34
388.48	842.59
388.67	877.70
388.86	973.66
389.06	931.53
389.25	938.55
389.45	1001.75
389.64	954.94
389.84	837.91
390.03	924.51
390.22	959.62
390.42	964.30
390.61	968.98
390.81	922.17
391.00	978.34
391.19	1018.13
391.39	1043.88
391.58	1041.54
391.78	1093.03
391.97	978.34
392.16	999.41
392.36	1109.41
392.55	1064.94
392.75	1104.73
392.94	1130.48
393.13	1135.16
393.33	1130.48
393.52	1203.04
393.71	1217.08
393.91	1249.85
394.10	1156.22
394.29	1090.69
394.49	1167.93
394.68	1203.04
394.88	1200.69
395.07	1228.78
395.26	1263.89
395.46	1343.47
395.65	1324.74
395.84	1310.70
396.04	1373.89
396.23	1369.21
396.42	1217.08
396.62	1348.15
396.81	1284.95
397.00	1413.68
397.19	1336.45
397.39	1355.17
397.58	1390.28
397.77	1263.89
397.97	1373.89
398.16	1437.09
398.35	1409.00
398.55	1385.60
398.74	1448.79
398.93	1416.02
399.12	1423.05
399.32	1425.39
399.51	1462.83
399.70	1469.86
399.90	1586.88
400.09	1551.78
400.28	1577.52
400.47	1540.07
400.67	1605.61
400.86	1575.18
401.05	1572.84
401.24	1596.25
401.44	1589.22
401.63	1713.27
401.82	1659.44
402.01	1654.76
402.21	1746.04
402.40	1699.23
402.59	1685.19
402.78	1710.93
402.97	1732.00
403.17	1813.92
403.36	1799.87
403.55	1802.21
403.74	1785.83
403.93	1804.55
404.13	1877.11
404.32	1970.73
404.51	1949.67
404.70	1959.03
404.89	2022.22
405.09	2092.44
405.28	1984.77
405.47	2029.24
405.66	2085.42
405.85	2066.69
406.05	2050.31
406.24	2132.23
406.43	2155.63
406.62	2062.01
406.81	2169.68
407.00	2115.84
407.20	2099.46
407.39	2146.27
407.58	2310.11
407.77	2216.49
407.96	2246.91
408.15	2406.07
408.34	2200.10
408.54	2335.85
408.73	2258.62
408.92	2373.30
409.11	2282.02
409.30	2459.90
409.49	2370.96
409.68	2457.56
409.87	2448.20
410.07	2485.65
410.26	2576.93
410.45	2513.74
410.64	2370.96
410.83	2693.96
411.02	2579.27
411.21	2675.23
411.40	2768.85
411.59	2668.21
411.78	2658.85
411.98	2738.43
412.17	2729.06
412.36	2949.08
412.55	2935.03
412.74	2911.63
412.93	2972.48
413.12	2848.43
413.31	3059.08
413.50	2853.11
413.69	2981.84
413.88	2956.10
414.07	3009.93
414.26	3110.57
414.45	3164.40
414.64	3232.28
414.83	3265.05
415.02	3286.11
415.22	3351.65
415.41	3449.95
415.60	3456.97
415.79	3375.05
415.98	3482.72
416.17	3536.55
416.36	3421.86
416.55	3456.97
416.74	3625.49
416.93	3552.93
417.12	3613.79
417.31	3529.53
417.50	3679.32
417.69	3843.16
417.88	3826.78
418.07	3716.77
418.26	3789.33
418.45	3934.44
418.64	3894.65
418.83	4004.66
419.02	3899.33
419.21	3976.57
419.39	4112.32
419.58	4007.00
419.77	3946.14
419.96	4058.49
420.15	4100.62
420.34	4025.72
420.53	4065.51
420.72	4159.13
420.91	4112.32
421.10	4234.03
421.29	4327.65
421.48	4252.75
421.67	4318.29
421.86	4212.96
422.05	4255.09
422.24	4203.60
422.43	4285.52
422.61	4372.12
422.80	4437.66
422.99	4552.34
423.18	4535.96
423.37	4505.53
423.56	4465.74
423.75	4444.68
423.94	4409.57
424.13	4287.86
424.32	4292.54
424.50	4660.01
424.69	4603.83
424.88	4526.60
425.07	4484.47
425.26	4414.25
425.45	4381.48
425.64	4573.41
425.83	4491.49
426.01	4800.44
426.20	4664.69
426.39	4634.26
426.58	4500.85
426.77	4552.34
426.96	4561.70
427.15	4622.56
427.33	4692.77
427.52	4709.16
427.71	4667.03
427.90	4688.09
428.09	4842.57
428.28	4683.41
428.46	4968.96
428.65	4863.63
428.84	5036.83
429.03	5069.60
429.22	4924.49
429.40	5036.83
429.59	5057.90
429.78	4772.35
429.97	4858.95
430.16	4999.38
430.34	5029.81
430.53	5170.24
430.72	5296.63
430.91	5076.62
431.10	5160.88
431.28	5287.27
431.47	5191.31
431.66	5406.64
431.85	5247.48
432.03	5320.04
432.22	5589.20
432.41	5504.94
432.60	5521.32
432.79	5432.38
432.97	5401.96
433.16	5455.79
433.35	5439.40
433.54	5462.81
433.72	5556.43
433.91	5692.18
434.10	5680.48
434.28	5610.26
434.47	5671.12
434.66	5692.18
434.85	5731.97
435.03	5678.14
435.22	5638.35
435.41	5940.28
435.59	5816.23
435.78	5696.86
435.97	5846.66
436.16	5834.96
436.34	5846.66
436.53	6038.58
436.72	6265.61
436.90	5905.17
437.09	6106.46
437.28	5966.03
437.46	6064.33
437.65	6085.39
437.84	6129.86
438.02	6225.82
438.21	6239.87
438.40	6155.61
438.58	6377.96
438.77	6494.99
438.96	6579.25
439.14	6267.95
439.33	6464.56
439.52	6623.72
439.70	6665.85
439.89	6684.57
440.08	6789.89
440.26	6733.72
440.45	6736.06
440.63	6937.35
440.82	6885.86
441.01	6808.62
441.19	7094.16
441.38	7040.33
441.57	6953.73
441.75	7087.14
441.94	7166.72
442.12	7236.94
442.31	7267.36
442.50	7159.70
442.68	7253.32
442.87	7417.16
443.05	7349.28
443.24	7639.51
443.43	7475.67
443.61	7524.82
443.80	7765.90
443.98	7318.86
444.17	7309.49
444.35	7566.95
444.54	7808.03
444.73	7599.72
444.91	7454.61
445.10	7620.78
445.28	7672.28
445.47	7438.22
445.65	7705.04
445.84	7541.21
446.02	7772.92
446.21	7679.30
446.39	7777.60
446.58	7850.16
446.77	7943.78
446.95	7662.91
447.14	7672.28
447.32	7761.22
447.51	7632.49
447.69	7784.62
447.88	7730.79
448.06	7756.54
448.25	7843.14
448.43	7826.75
448.62	7639.51
448.80	7761.22
448.99	7899.31
449.17	8056.12
449.36	8030.38
449.54	8044.42
449.73	8236.35
449.91	8271.45
450.10	8166.13
450.28	8313.58
450.46	8262.09
450.65	8376.78
450.83	8351.03
451.02	8168.47
451.20	8446.99
451.39	8362.73
451.57	8355.71
451.76	8393.16
451.94	8498.49
452.13	8718.50
452.31	8547.64
452.49	8318.26
452.68	8432.95
452.86	8688.07
453.05	8535.93
453.23	8505.51
453.42	8634.24
453.60	8538.27
453.78	8620.19
453.97	8664.66
454.15	8788.71
454.34	8809.78
454.52	8879.99
454.70	8851.91
454.89	8851.91
455.07	8821.48
455.26	9090.64
455.44	9144.47
455.62	9107.02
455.81	8912.76
455.99	9064.89
456.17	9111.71
456.36	9327.03
456.54	9167.88
456.73	9521.30
456.91	9525.98
457.09	9434.70
457.28	9717.90
457.46	9345.76
457.64	9561.09
457.83	9568.11
458.01	9511.94
458.19	9804.50
458.38	9643.01
458.56	9951.96
458.74	9837.27
458.93	9767.06
459.11	9771.74
459.29	9816.21
459.48	9858.34
459.66	9860.68
459.84	9898.13
460.03	10099.41
460.21	9937.91
460.39	9991.75
460.57	9994.09
460.76	10235.16
460.94	10373.25
461.12	10209.42
461.31	10113.45
461.49	10150.90
461.67	10146.22
461.85	10504.32
462.04	10551.14
462.22	10609.65
462.40	10576.88
462.59	10401.34
462.77	10523.05
462.95	10651.78
463.13	10644.76
463.32	10516.03
463.50	10721.99
463.68	10705.61
463.86	10693.91
464.05	10553.48
464.23	10593.26
464.41	10668.16
464.59	10569.86
464.78	11246.27
464.96	10827.32
465.14	10916.26
465.32	11009.88
465.50	11337.56
465.69	11105.84
465.87	10904.56
466.05	11009.88
466.23	10991.16
466.41	11112.86
466.60	11220.53
466.78	10888.17
466.96	11140.95
467.14	11211.17
467.32	11232.23
467.51	11360.96
467.69	11194.78
467.87	11337.56
468.05	11520.12
468.23	11283.72
468.41	11386.71
468.60	11496.71
468.78	11531.82
468.96	11576.29
469.14	11690.98
469.32	11669.91
469.50	11440.54
469.69	11681.61
469.87	12004.61
470.05	11857.15
470.23	11676.93
470.41	11829.07
470.59	12042.06
470.77	11800.98
470.95	12170.79
471.14	12273.77
471.32	11943.75
471.50	12533.57
471.68	12409.52
471.86	12140.36
472.04	12477.40
472.22	12674.00
472.40	12556.97
472.58	12734.85
472.77	12643.57
472.95	12498.46
473.13	13490.85
473.31	12786.35
473.49	12723.15
473.67	13020.40
473.85	12982.95
474.03	13074.23
474.21	13144.45
474.39	13362.12
474.57	13270.84
474.75	13507.23
474.93	13633.62
475.12	13488.51
475.30	13799.80
475.48	13558.72
475.66	13884.06
475.84	13900.44
476.02	14043.21
476.20	13977.68
476.38	14506.64
476.56	14532.39
476.74	14406.00
476.92	14218.75
477.10	14338.12
477.28	14703.25
477.46	14588.56
477.64	14565.15
477.82	15108.16
478.00	15508.39
478.18	15370.30
478.36	15410.09
478.54	15499.03
478.72	15651.16
478.90	15585.63
479.08	15866.49
479.26	16177.78
479.44	16018.63
479.62	16219.91
479.80	16367.37
479.98	16465.67
480.16	16425.88
480.34	16645.89
480.52	16793.34
480.70	16676.32
480.88	16945.48
481.06	17001.65
481.24	16865.90
481.41	17282.52
481.59	17584.44
481.77	17713.17
481.95	17671.04
482.13	17839.56
482.31	17846.58
482.49	18134.47
482.67	18443.42
482.85	18427.04
483.03	18691.52
483.21	19087.07
483.39	18979.40
483.57	19063.66
483.74	19222.82
483.92	19524.75
484.10	19688.59
484.28	19541.13
484.46	19850.08
484.64	20009.24
484.82	19683.91
485.00	20098.18
485.18	20414.15
485.35	20596.71
485.53	20790.98
485.71	20933.75
485.89	21483.78
486.07	21172.49
486.25	21614.85
486.43	21387.82
486.61	21390.16
486.78	21851.24
486.96	21984.65
487.14	22265.52
487.32	22319.35
487.50	22317.01
487.68	22466.80
487.85	22815.54
488.03	23026.19
488.21	23531.75
488.39	23185.35
488.57	23814.95
488.75	23529.41
488.92	24016.24
489.10	24116.88
489.28	23798.57
489.46	24561.58
489.64	24608.39
489.81	24870.53
489.99	24940.75
490.17	25067.14
490.35	25392.47
490.53	25137.35
490.70	25839.51
490.88	25909.73
491.06	26068.89
491.24	26141.44
491.41	26422.31
491.59	26663.38
491.77	26373.16
491.95	26951.27
492.13	27246.18
492.30	27124.47
492.48	27037.87
492.66	27044.89
492.84	27271.92
493.01	27393.63
493.19	27810.25
493.37	28187.07
493.54	28107.49
493.72	28519.43
493.90	28301.76
494.08	28854.12
494.25	28655.18
494.43	29064.77
494.61	29511.81
494.79	29425.22
494.96	29319.89
495.14	29350.32
495.32	29762.25
495.49	30113.33
495.67	30008.01
495.85	30213.98
496.02	30632.93
496.20	30370.79
496.38	30995.71
496.55	30803.79
496.73	31512.97
496.91	31414.67
497.09	31765.75
497.26	32051.30
497.44	31718.94
497.62	31871.07
497.79	32233.86
497.97	32016.19
498.14	32545.15
498.32	32779.20
498.50	32540.47
498.67	32954.74
498.85	32730.05
499.03	33125.60
499.20	33083.47
499.38	33125.60
499.56	33352.63
499.73	33579.67
499.91	33701.37
500.08	34106.29
500.26	33724.78
500.44	33649.88
500.61	34057.14
500.79	34286.51
500.97	34389.49
501.14	35101.01
501.32	34951.22
501.49	34778.02
501.67	34939.52
501.84	35189.95
502.02	35037.82
502.20	35335.07
502.37	35576.14
502.55	35269.53
502.72	35859.35
502.90	35754.02
503.07	35559.76
503.25	35625.29
503.43	35503.59
503.60	36119.15
503.78	36336.82
503.95	36781.52
504.13	36495.97
504.30	36723.01
504.48	36135.53
504.65	36947.70
504.83	37010.89
505.01	37141.96
505.18	36886.84
505.36	37467.30
505.53	37544.53
505.71	37560.92
505.88	37406.44
506.06	37242.60
506.23	37984.55
506.41	37790.29
506.58	38340.32
506.76	38239.67
506.93	37937.74
507.11	37549.21
507.28	38337.98
507.46	38469.04
507.63	38548.62
507.81	39494.20
507.98	38607.14
508.16	38841.19
508.33	38918.43
508.50	38986.30
508.68	39309.30
508.85	39739.96
509.03	39210.99
509.20	40154.23
509.38	40095.72
509.55	40165.93
509.73	40069.97
509.90	40076.99
510.08	40217.43
510.25	40336.79
510.42	40399.99
510.60	40762.77
510.77	40624.68
510.95	41076.40
511.12	40879.80
511.30	40809.58
511.47	41146.62
511.64	41062.36
511.82	41759.84
511.99	41441.53
512.17	41441.53
512.34	41715.37
512.51	41900.27
512.69	41752.82
512.86	41977.51
513.04	41972.83
513.21	42234.97
513.38	42597.75
513.56	42391.78
513.73	42246.67
513.90	42670.31
514.08	42712.44
514.25	42698.39
514.43	42628.18
514.60	42712.44
514.77	42579.03
514.95	43150.12
515.12	42902.02
515.29	43388.85
515.47	43297.57
515.64	43749.29
515.81	43185.22
515.99	43847.60
516.16	43915.47
516.33	43690.78
516.51	44058.24
516.68	43922.49
516.85	43536.30
517.03	44151.87
517.20	44144.84
517.37	44311.02
517.54	44411.67
517.72	44580.18
517.89	44414.01
518.06	44800.19
518.24	44334.43
518.41	44722.96
518.58	44734.66
518.75	44842.32
518.93	44942.97
519.10	45130.21
519.27	45284.68
519.45	45045.95
519.62	44935.95
519.79	45289.37
519.96	45219.15
520.14	45682.58
520.31	45830.03
520.48	45883.86
520.65	45645.13
520.83	45645.13
521.00	46389.42
521.17	46174.09
521.34	45951.74
521.52	46143.66
521.69	46162.39
521.86	46370.69
522.03	46499.42
522.20	46588.36
522.38	47070.51
522.55	46473.68
522.72	46438.57
522.89	46930.08
523.07	47433.30
523.24	47110.30
523.41	47356.06
523.58	46951.15
523.75	47533.94
523.92	47026.04
524.10	47302.23
524.27	47873.32
524.44	47505.85
524.61	47988.00
524.78	48051.20
524.96	47948.21
525.13	47749.27
525.30	47777.36
525.47	48385.89
525.64	48165.88
525.81	48467.81
525.98	48839.96
526.16	48179.93
526.33	48203.33
526.50	48765.06
526.67	48439.73
526.84	48413.98
527.01	48430.36
527.18	48643.35
527.36	48809.53
527.53	49057.63
527.70	49127.84
527.87	49347.86
528.04	49034.22
528.21	48788.47
528.38	49017.84
528.55	49106.78
528.72	49017.84
528.89	49443.82
529.07	49254.23
529.24	49186.36
529.41	49408.71
529.58	49219.13
529.75	49240.19
529.92	49654.47
530.09	49511.69
530.26	49780.85
530.43	50155.34
530.60	49834.69
530.77	49762.13
530.94	49780.85
531.11	49612.34
531.28	49872.14
531.46	49961.08
531.63	49958.73
531.80	50277.05
531.97	50571.96
532.14	50234.92
532.31	50520.46
532.48	50485.36
532.65	50361.31
532.82	50270.03
532.99	50319.18
533.16	50248.96
533.33	50527.48
533.50	50735.79
533.67	50997.93
533.84	50672.60
534.01	50438.54
534.18	50464.29
534.35	51339.65
534.52	50850.48
534.69	51203.90
534.86	51327.95
535.03	50787.28
535.20	51246.03
535.37	50798.99
535.54	51264.75
535.71	50911.33
535.88	51203.90
536.05	51110.28
536.22	51489.45
536.38	51501.15
536.55	51856.91
536.72	51709.46
536.89	51246.03
537.06	51367.74
537.23	51578.39
537.40	51440.29
537.57	51540.94
537.74	51814.78
537.91	51800.74
538.08	51920.10
538.25	51842.87
538.42	51934.15
538.59	51798.40
538.75	51562.00
538.92	51973.94
539.09	52280.55
539.26	52275.87
539.43	52114.37
539.60	52430.34
539.77	52210.33
539.94	52374.17
540.11	52273.52
540.28	52193.95
540.44	52456.09
540.61	52374.17
540.78	52264.16
540.95	52009.04
541.12	52444.38
541.29	52502.90
541.46	52418.64
541.62	52357.78
541.79	52821.21
541.96	52226.71
542.13	52678.44
542.30	52715.89
542.47	52753.33
542.63	52973.34
542.80	53099.73
542.97	53448.47
543.14	53127.82
543.31	53130.16
543.48	52893.77
543.64	53256.55
543.81	53277.61
543.98	53413.37
544.15	53223.78
544.32	53324.43
544.48	53488.26
544.65	53436.77
544.82	53345.49
544.99	53286.98
545.16	53434.43
545.32	53200.38
545.49	53638.06
545.66	53764.45
545.83	53579.54
546.00	53900.20
546.16	53766.79
546.33	53366.55
546.50	53357.19
546.67	53652.10
546.83	53373.58
547.00	53998.50
547.17	53848.71
547.34	53904.88
547.50	53839.34
547.67	53993.82
547.84	53855.73
548.00	54066.38
548.17	54017.22
548.34	54073.40
548.51	54199.79
548.67	54333.20
548.84	54087.44
549.01	53982.12
549.18	54061.69
549.34	54143.61
549.51	54024.25
549.68	54183.40
549.84	54277.02
550.01	54092.12
550.18	54316.81
550.34	54410.43
550.51	54422.14
550.68	54440.86
550.84	54059.35
551.01	54461.93
551.18	54328.52
551.34	53900.20
551.51	54337.88
551.68	54466.61
551.84	54651.51
552.01	54370.64
552.18	54700.66
552.34	54541.50
552.51	54609.38
552.68	54522.78
552.84	54773.22
553.01	55028.34
553.18	54625.76
553.34	55128.98
553.51	55007.27
553.67	54712.36
553.84	55154.72
554.01	54967.48
554.17	55004.93
554.34	54817.69
554.51	54955.78
554.67	54967.48
554.84	55126.64
555.00	54897.27
555.17	54829.39
555.33	55119.62
555.50	54843.43
555.67	55196.85
555.83	55140.68
556.00	55054.08
556.16	55428.57
556.33	55051.74
556.50	54796.62
556.66	55363.03
556.83	55033.02
556.99	55217.92
557.16	55128.98
557.32	55430.91
557.49	55346.65
557.65	55089.19
557.82	55288.13
557.98	55171.11
558.15	55444.95
558.32	55395.80
558.48	54988.55
558.65	55358.35
558.81	55454.31
558.98	55306.86
559.14	55386.44
559.31	55105.57
559.47	55224.94
559.64	55430.91
559.80	55529.21
559.97	55510.49
560.13	55238.98
560.30	55786.67
560.46	55503.46
560.63	55330.26
560.79	55704.75
560.96	55620.49
561.12	55433.25
561.29	55707.09
561.45	55456.65
561.61	55468.36
561.78	55690.71
561.94	55686.03
562.11	55571.34
562.27	55657.94
562.44	55538.57
562.60	55426.23
562.77	55894.33
562.93	55517.51
563.10	56090.94
563.26	55550.27
563.42	56271.16
563.59	55884.97
563.75	55868.59
563.92	55894.33
564.08	55994.98
564.24	55707.09
564.41	55702.41
564.57	55664.96
564.74	55779.65
564.90	55894.33
565.07	55845.18
565.23	55957.53
565.39	55714.11
565.56	55819.44
565.72	55735.18
565.88	55800.71
566.05	55840.50
566.21	55667.30
566.38	55906.04
566.54	55894.33
566.70	55920.08
566.87	56217.33
567.03	55906.04
567.19	56217.33
567.36	56065.19
567.52	55697.73
567.68	56296.91
567.85	55749.22
568.01	56126.05
568.17	55849.86
568.34	56079.24
568.50	56074.55
568.66	56062.85
568.83	56203.28
568.99	56023.06
569.15	55962.21
569.32	55910.72
569.48	55990.30
569.64	55971.57
569.81	56060.51
569.97	56154.13
570.13	55924.76
570.30	56147.11
570.46	56303.93
570.62	56095.62
570.78	55889.65
570.95	56009.02
571.11	56069.87
571.27	55725.81
571.43	56165.84
571.60	56315.63
571.76	56133.07
571.92	56341.38
572.09	56292.22
572.25	56294.56
572.41	56292.22
572.57	56282.86
572.74	56285.20
572.90	56088.60
573.06	56004.34
573.22	56231.37
573.38	56123.71
573.55	55943.48
573.71	56409.25
573.87	56273.50
574.03	56205.62
574.20	56479.47
574.36	56020.72
574.52	56020.72
574.68	56016.04
574.84	56179.88
575.01	56404.57
575.17	56392.87
575.33	56238.39
575.49	56317.97
575.65	56381.16
575.82	56463.08
575.98	56147.11
576.14	56126.05
576.30	56282.86
576.46	56016.04
576.62	56266.48
576.79	56240.73
576.95	56053.49
577.11	56285.20
577.27	56322.65
577.43	56346.06
577.59	56406.91
577.75	56051.15
577.92	56109.66
578.08	56285.20
578.24	56067.53
578.40	56053.49
578.56	56233.71
578.72	56222.01
578.88	56357.76
579.04	56472.45
579.21	56472.45
579.37	56530.96
579.53	56540.32
579.69	56102.64
579.85	56158.81
580.01	56163.50
580.17	56095.62
580.33	56210.31
580.49	56374.14
580.65	56442.02
580.82	56360.10
580.98	56301.59
581.14	56322.65
581.30	56395.21
581.46	56229.03
581.62	56247.75
581.78	56135.41
581.94	56378.82
582.10	56072.21
582.26	56521.60
582.42	56516.92
582.58	56647.99
582.74	56563.73
582.90	56514.58
583.06	56444.36
583.22	56310.95
583.38	56406.91
583.54	56439.68
583.70	56193.92
583.86	56280.52
584.02	56135.41
584.18	56275.84
584.34	56479.47
584.50	56530.96
584.66	56329.67
584.82	56261.80
584.98	56624.58
585.14	56219.67
585.30	56200.94
585.46	56381.16
585.62	56383.51
585.78	56439.68
585.94	56280.52
586.10	56376.48
586.26	56683.09
586.42	56470.11
586.58	56528.62
586.74	56390.53
586.90	56224.35
587.06	56308.61
587.22	56406.91
587.38	56243.07
587.54	56339.04
587.70	56388.19
587.86	56652.67
588.02	56610.54
588.18	56509.89
588.34	56488.83
588.49	56540.32
588.65	56184.56
588.81	56324.99
588.97	56317.97
589.13	56409.25
589.29	56418.61
589.45	56643.30
589.61	56640.96
