SpectraSuite Data File
++++++++++++++++++++++++++++++++++++
Date: Fri Oct 18 13:54:10 GMT-05:00 2013
User: bianchi
Dark Spectrum Present: No
Reference Spectrum Present: No
Number of Sampled Component Spectra: 1
Spectrometers: USB2+H05261
Integration Time (usec): 100000 (USB2+H05261)
Spectra Averaged: 1 (USB2+H05261)
Boxcar Smoothing: 0 (USB2+H05261)
Correct for Electrical Dark: No (USB2+H05261)
Strobe/Lamp Enabled: No (USB2+H05261)
Correct for Detector Non-linearity: No (USB2+H05261)
Correct for Stray Light: No (USB2+H05261)
Number of Pixels in Processed Spectrum: 2048
>>>>>Begin Processed Spectral Data<<<<<
365.73	0.00
365.92	0.00
366.12	0.00
366.32	0.00
366.52	0.00
366.72	0.00
366.91	0.00
367.11	0.00
367.31	0.00
367.51	0.00
367.70	0.00
367.90	0.00
368.10	0.00
368.30	0.00
368.49	0.00
368.69	0.00
368.89	0.00
369.09	0.00
369.28	0.00
369.48	0.00
369.68	0.00
369.87	0.00
370.07	0.00
370.27	0.00
370.47	46.81
370.66	313.63
370.86	236.39
371.06	257.46
371.25	379.17
371.45	390.87
371.65	402.57
371.84	297.25
372.04	381.51
372.24	346.40
372.44	451.72
372.63	451.72
372.83	493.85
373.03	440.02
373.22	449.38
373.42	531.30
373.62	512.58
373.81	454.06
374.01	491.51
374.21	552.37
374.40	468.11
374.60	493.85
374.79	430.66
374.99	475.13
375.19	484.49
375.38	528.96
375.58	554.71
375.78	496.19
375.97	643.65
376.17	566.41
376.37	613.22
376.56	531.30
376.76	510.24
376.95	479.81
377.15	543.00
377.35	615.56
377.54	585.13
377.74	557.05
377.93	524.28
378.13	587.47
378.33	655.35
378.52	545.34
378.72	657.69
378.91	664.71
379.11	599.18
379.31	564.07
379.50	662.37
379.70	683.44
379.89	599.18
380.09	613.22
380.28	617.90
380.48	732.59
380.68	636.63
380.87	613.22
381.07	669.39
381.26	676.41
381.46	718.54
381.65	725.57
381.85	739.61
382.04	657.69
382.24	702.16
382.43	650.67
382.63	779.40
382.83	636.63
383.02	716.20
383.22	784.08
383.41	713.86
383.61	655.35
383.80	786.42
384.00	809.83
384.19	784.08
384.39	898.77
384.58	851.96
384.78	779.40
384.97	800.46
385.17	887.06
385.36	903.45
385.56	868.34
385.75	847.27
385.95	800.46
386.14	849.61
386.34	842.59
386.53	826.21
386.72	863.66
386.92	866.00
387.11	863.66
387.31	870.68
387.50	805.14
387.70	863.66
387.89	791.10
388.09	976.00
388.28	868.34
388.48	929.19
388.67	985.37
388.86	898.77
389.06	980.68
389.25	1043.88
389.45	1043.88
389.64	990.05
389.84	1100.05
390.03	1004.09
390.22	1001.75
390.42	1090.69
390.61	961.96
390.81	1064.94
391.00	1057.92
391.19	1001.75
391.39	1064.94
391.58	1093.03
391.78	1104.73
391.97	1196.01
392.16	1107.07
392.36	1095.37
392.55	1060.26
392.75	1118.78
392.94	1160.91
393.13	1149.20
393.33	1160.91
393.52	1212.40
393.71	1282.61
393.91	1207.72
394.10	1198.35
394.29	1233.46
394.49	1212.40
394.68	1284.95
394.88	1224.10
395.07	1303.68
395.26	1338.79
395.46	1170.27
395.65	1263.89
395.84	1392.62
396.04	1437.09
396.23	1343.47
396.42	1409.00
396.62	1331.76
396.81	1411.34
397.00	1502.62
397.19	1488.58
397.39	1385.60
397.58	1455.81
397.77	1434.75
397.97	1465.18
398.16	1430.07
398.35	1481.56
398.55	1448.79
398.74	1537.73
398.93	1570.50
399.12	1488.58
399.32	1514.33
399.51	1537.73
399.70	1586.88
399.90	1603.27
400.09	1582.20
400.28	1598.59
400.47	1643.06
400.67	1591.56
400.86	1657.10
401.05	1603.27
401.24	1636.03
401.44	1762.42
401.63	1764.76
401.82	1680.50
402.01	1659.44
402.21	1689.87
402.40	1727.32
402.59	1839.66
402.78	1720.29
402.97	1963.71
403.17	1823.28
403.36	1912.22
403.55	1952.01
403.74	1902.86
403.93	1919.24
404.13	2066.69
404.32	2066.69
404.51	1879.45
404.70	1973.07
404.89	2017.54
405.09	2125.21
405.28	2090.10
405.47	2101.80
405.66	2174.36
405.85	2202.44
406.05	2174.36
406.24	2188.40
406.43	2122.87
406.62	2183.72
406.81	2328.83
407.00	2176.70
407.20	2218.83
407.39	2260.96
407.58	2342.88
407.77	2303.09
407.96	2368.62
408.15	2284.36
408.34	2282.02
408.54	2340.54
408.73	2363.94
408.92	2466.92
409.11	2455.22
409.30	2490.33
409.49	2443.52
409.68	2551.18
409.87	2619.06
410.07	2516.08
410.26	2555.86
410.45	2635.44
410.64	2637.78
410.83	2743.11
411.02	2525.44
411.21	2825.03
411.40	2782.90
411.59	2743.11
411.78	2778.22
411.98	2857.79
412.17	2892.90
412.36	2874.18
412.55	2928.01
412.74	2963.12
412.93	2977.16
413.12	3007.59
413.31	3141.00
413.50	3049.72
413.69	2939.71
413.88	3190.15
414.07	3173.77
414.26	3309.52
414.45	3300.16
414.64	3349.31
414.83	3386.76
415.02	3370.37
415.22	3346.97
415.41	3604.42
415.60	3466.33
415.79	3536.55
415.98	3473.36
416.17	3641.87
416.36	3583.36
416.55	3648.90
416.74	3805.71
416.93	3637.19
417.12	3786.99
417.31	3651.24
417.50	3815.07
417.69	3812.73
417.88	4016.36
418.07	3981.25
418.26	3857.20
418.45	3955.51
418.64	4093.60
418.83	4056.15
419.02	3995.29
419.21	3985.93
419.39	4117.00
419.58	4154.45
419.77	4037.42
419.96	4166.15
420.15	4325.31
420.34	4184.88
420.53	4105.30
420.72	4409.57
420.91	4290.20
421.10	4325.31
421.29	4585.11
421.48	4142.75
421.67	4444.68
421.86	4493.83
422.05	4353.40
422.24	4341.69
422.43	4344.03
422.61	4545.32
422.80	4582.77
422.99	4456.38
423.18	4610.86
423.37	4760.65
423.56	4496.17
423.75	4594.47
423.94	4550.00
424.13	4231.69
424.32	4421.27
424.50	4690.43
424.69	4849.59
424.88	4683.41
425.07	4533.62
425.26	4512.55
425.45	4636.60
425.64	4521.92
425.83	4812.14
426.01	4638.94
426.20	4821.50
426.39	4758.31
426.58	4713.84
426.77	4669.37
426.96	4786.40
427.15	4781.71
427.33	4770.01
427.52	4695.11
427.71	4924.49
427.90	4821.50
428.09	4873.00
428.28	5022.79
428.46	5100.03
428.65	5118.75
428.84	5039.17
429.03	5214.71
429.22	4999.38
429.40	5165.56
429.59	5228.76
429.78	4959.60
429.97	5053.22
430.16	5128.11
430.34	5322.38
430.53	5221.74
430.72	5221.74
430.91	5252.16
431.10	5109.39
431.28	5341.10
431.47	5434.72
431.66	5544.73
431.85	5586.86
432.03	5518.98
432.22	5605.58
432.41	5638.35
432.60	5710.91
432.79	5614.95
432.97	5661.76
433.16	5572.82
433.35	5460.47
433.54	5827.93
433.72	5778.78
433.91	5579.84
434.10	5755.38
434.28	5841.98
434.47	5820.91
434.66	5813.89
434.85	5959.00
435.03	5942.62
435.22	5827.93
435.41	6293.70
435.59	6136.88
435.78	5973.05
435.97	6174.33
436.16	6040.92
436.34	6113.48
436.53	6179.01
436.72	6448.18
436.90	6045.60
437.09	6251.57
437.28	6078.37
437.46	6080.71
437.65	6251.57
437.84	6380.30
438.02	6260.93
438.21	6324.13
438.40	6403.71
438.58	6558.18
438.77	6705.63
438.96	6494.99
439.14	6553.50
439.33	6752.45
439.52	6977.14
439.70	6864.79
439.89	6958.41
440.08	6806.28
440.26	6977.14
440.45	6953.73
440.63	7091.82
440.82	7124.59
441.01	7063.74
441.19	7152.68
441.38	7304.81
441.57	7393.75
441.75	7438.22
441.94	7442.90
442.12	7578.65
442.31	7658.23
442.50	7571.63
442.68	7686.32
442.87	7552.91
443.05	7372.69
443.24	7768.24
443.43	7892.29
443.61	7801.01
443.80	7882.92
443.98	7487.37
444.17	7501.42
444.35	7815.05
444.54	7918.03
444.73	7674.62
444.91	7756.54
445.10	7719.09
445.28	7887.61
445.47	7730.79
445.65	7775.26
445.84	7925.05
446.02	7850.16
446.21	8009.31
446.39	7796.32
446.58	7941.44
446.77	7906.33
446.95	7885.26
447.14	8070.17
447.32	7913.35
447.51	7868.88
447.69	7847.82
447.88	8100.59
448.06	8229.32
448.25	7974.21
448.43	7889.95
448.62	8091.23
448.80	8166.13
448.99	8212.94
449.17	8226.98
449.36	8222.30
449.54	8311.24
449.73	8304.22
449.91	8454.02
450.10	8369.76
450.28	8624.87
450.46	8421.25
450.65	8519.55
450.83	8613.17
451.02	8592.11
451.20	8587.43
451.39	8844.88
451.57	8655.30
451.76	8568.70
451.94	8690.41
452.13	8882.33
452.31	8709.13
452.49	8692.75
452.68	8709.13
452.86	8990.00
453.05	8772.33
453.23	9027.45
453.42	8849.57
453.60	8919.78
453.78	8933.82
453.97	8910.42
454.15	9055.53
454.34	8943.19
454.52	9132.77
454.70	9151.49
454.89	9090.64
455.07	9121.07
455.26	9320.01
455.44	9467.47
455.62	9090.64
455.81	9366.82
455.99	9593.86
456.17	9521.30
456.36	9507.26
456.54	9542.36
456.73	9551.73
456.91	9825.57
457.09	9671.09
457.28	10242.18
457.46	9699.18
457.64	9692.16
457.83	10012.81
458.01	9699.18
458.19	10111.11
458.38	9860.68
458.56	10181.33
458.74	9937.91
458.93	10052.60
459.11	10178.99
459.29	10108.77
459.48	10368.57
459.66	10052.60
459.84	10289.00
460.03	10459.85
460.21	10530.07
460.39	10228.14
460.57	10260.91
460.76	10321.76
460.94	10527.73
461.12	10443.47
461.31	10483.26
461.49	10441.13
461.67	10551.14
461.85	10775.83
462.04	10647.10
462.22	11232.23
462.40	10775.83
462.59	10665.82
462.77	10925.62
462.95	10874.13
463.13	10832.00
463.32	10960.73
463.50	11164.36
463.68	11042.65
463.86	10939.66
464.05	10888.17
464.23	11143.29
464.41	11103.50
464.59	10906.90
464.78	11555.22
464.96	11162.01
465.14	11274.36
465.32	11487.35
465.50	11393.73
465.69	11527.14
465.87	11698.00
466.05	11475.65
466.23	11250.96
466.41	11529.48
466.60	11763.53
466.78	11393.73
466.96	11520.12
467.14	11550.54
467.32	11435.86
467.51	11597.35
467.69	11477.99
467.87	11698.00
468.05	11707.36
468.23	11641.82
468.41	11623.10
468.60	11892.26
468.78	11948.43
468.96	11840.77
469.14	12140.36
469.32	12175.47
469.50	11695.66
469.69	12369.73
469.87	12119.29
470.05	12170.79
470.23	12189.51
470.41	12533.57
470.59	12559.31
470.77	12297.17
470.95	12271.43
471.14	12683.36
471.32	12475.06
471.50	12957.21
471.68	12760.60
471.86	12938.48
472.04	12842.52
472.22	13132.75
472.40	12819.11
472.58	12879.97
472.77	13095.30
472.95	13149.13
473.13	13619.58
473.31	13195.94
473.49	13125.72
473.67	13177.22
473.85	13387.86
474.03	13537.66
474.21	13507.23
474.39	13678.09
474.57	13844.27
474.75	14019.81
474.93	14012.79
475.12	14024.49
475.30	14031.51
475.48	14052.58
475.66	14317.06
475.84	14588.56
476.02	14487.92
476.20	14420.04
476.38	14801.55
476.56	14918.57
476.74	14712.61
476.92	14752.40
477.10	14993.47
477.28	14958.36
477.46	15290.72
477.64	15255.61
477.82	15250.93
478.00	15983.52
478.18	15323.49
478.36	15770.53
478.54	15847.77
478.72	16060.76
478.90	16266.72
479.08	16208.21
479.26	16465.67
479.44	16435.24
479.62	16702.06
479.80	16943.14
479.98	16814.41
480.16	17020.38
480.34	17153.79
480.52	17692.11
480.70	17153.79
480.88	17362.09
481.06	17554.02
481.24	17626.57
481.41	17867.65
481.59	18148.51
481.77	18141.49
481.95	18008.08
482.13	18441.08
482.31	18251.50
482.49	19047.28
482.67	18829.61
482.85	18993.45
483.03	19400.70
483.21	19599.65
483.39	19447.51
483.57	19639.44
483.74	19693.27
483.92	19864.13
484.10	19845.40
484.28	20367.34
484.46	20685.65
484.64	20886.94
484.82	20622.46
485.00	20861.19
485.18	21221.64
485.35	21376.11
485.53	21273.13
485.71	21376.11
485.89	22082.95
486.07	21558.67
486.25	22108.70
486.43	22134.45
486.61	22427.01
486.78	22438.72
486.96	22742.99
487.14	23215.77
487.32	22841.29
487.50	23124.49
487.68	22998.10
487.85	23782.18
488.03	24020.92
488.21	24259.65
488.39	24109.86
488.57	24343.91
488.75	24528.81
488.92	24772.23
489.10	25113.95
489.28	25191.19
489.46	25111.61
489.64	25200.55
489.81	26033.78
489.99	26106.34
490.17	26010.37
490.35	26188.25
490.53	26092.29
490.70	26916.16
490.88	26775.73
491.06	27243.84
491.24	27243.84
491.41	27077.66
491.59	27377.25
491.77	27344.48
491.95	27758.75
492.13	28189.41
492.30	27571.51
492.48	28290.06
492.66	28203.46
492.84	28355.59
493.01	28446.87
493.19	28870.51
493.37	29102.22
493.54	29020.30
493.72	29816.08
493.90	29329.25
494.08	29736.51
494.25	29977.58
494.43	29984.60
494.61	30312.28
494.79	30448.03
494.96	30293.55
495.14	30422.28
495.32	30754.64
495.49	31056.57
495.67	31140.83
495.85	31374.88
496.02	31473.18
496.20	31491.91
496.38	31655.75
496.55	31915.54
496.73	32624.73
496.91	32154.28
497.09	32481.95
497.26	32638.77
497.44	32669.20
497.62	32744.09
497.79	33404.13
497.97	33202.84
498.14	33289.44
498.32	33413.49
498.50	33628.82
498.67	33923.72
498.85	33820.74
499.03	33560.94
499.20	34335.66
499.38	34162.46
499.56	34373.11
499.73	34220.97
499.91	34527.58
500.08	35175.91
500.26	34866.96
500.44	35023.78
500.61	35356.13
500.79	35213.36
500.97	35763.39
501.14	35702.53
501.32	35814.88
501.49	35775.09
501.67	35999.78
501.84	36133.19
502.02	36065.31
502.20	36680.88
502.37	36804.92
502.55	36655.13
502.72	36772.16
502.90	36893.86
503.07	36620.02
503.25	36947.70
503.43	37076.43
503.60	37436.87
503.78	37530.49
503.95	37687.31
504.13	37560.92
504.30	37738.80
504.48	37689.65
504.65	37642.84
504.83	38340.32
505.01	38944.17
505.18	38866.94
505.36	38705.44
505.53	38499.47
505.71	38810.76
505.88	38321.59
506.06	38415.21
506.23	38946.51
506.41	39103.33
506.58	39777.40
506.76	39580.80
506.93	39494.20
507.11	39566.76
507.28	39915.50
507.46	39725.91
507.63	39651.02
507.81	40313.39
507.98	39805.49
508.16	40177.64
508.33	39941.24
508.50	40304.02
508.68	40509.99
508.85	40910.22
509.03	40261.90
509.20	41258.96
509.38	41263.64
509.55	40917.25
509.73	41205.13
509.90	41090.44
510.08	41132.57
510.25	41586.64
510.42	41691.96
510.60	42396.46
510.77	42267.73
510.95	42347.31
511.12	41998.57
511.30	41982.19
511.47	42529.87
511.64	42333.27
511.82	42834.14
511.99	42319.23
512.17	43110.33
512.34	43140.75
512.51	42792.01
512.69	43124.37
512.86	42735.84
513.04	43571.41
513.21	43442.68
513.38	43697.80
513.56	43763.34
513.73	43477.79
513.90	43508.22
514.08	43477.79
514.25	44051.22
514.43	44423.37
514.60	44343.79
514.77	44493.58
514.95	44350.81
515.12	44252.51
515.29	44378.90
515.47	44744.02
515.64	44912.54
515.81	45052.97
515.99	44811.90
516.16	45492.99
516.33	45549.17
516.51	45518.74
516.68	45425.12
516.85	44945.31
517.03	45610.02
517.20	45654.49
517.37	45549.17
517.54	45766.84
517.72	45757.47
517.89	45986.85
518.06	45848.75
518.24	45961.10
518.41	46326.22
518.58	46497.08
518.75	46010.25
518.93	46330.90
519.10	46330.90
519.27	46876.25
519.45	46429.21
519.62	46885.61
519.79	46593.04
519.96	46731.14
520.14	47203.92
520.31	46813.05
520.48	47454.36
520.65	47452.02
520.83	47604.16
521.00	47269.46
521.17	47580.75
521.34	47234.35
521.52	47772.67
521.69	47805.44
521.86	48079.28
522.03	47997.37
522.20	47775.02
522.38	48435.05
522.55	48264.19
522.72	48135.46
522.89	48128.44
523.07	48694.85
523.24	48163.54
523.41	48542.71
523.58	48219.72
523.75	48676.12
523.92	48514.62
524.10	48643.35
524.27	48685.48
524.44	48914.86
524.61	49315.09
524.78	48956.99
524.96	49092.74
525.13	49069.33
525.30	49116.14
525.47	49453.18
525.64	48980.39
525.81	49773.83
525.98	49497.65
526.16	49340.83
526.33	49911.92
526.50	49888.52
526.67	49546.80
526.84	49977.46
527.01	49839.37
527.18	49881.50
527.36	50253.64
527.53	50087.46
527.70	50440.89
527.87	50548.55
528.04	50225.56
528.21	50190.45
528.38	50045.33
528.55	50532.17
528.72	50265.34
528.89	50578.98
529.07	50459.61
529.24	50497.06
529.41	50639.83
529.58	50478.33
529.75	50466.63
529.92	50904.31
530.09	50815.37
530.26	50930.06
530.43	51222.62
530.60	50944.10
530.77	51058.79
530.94	51236.67
531.11	50763.88
531.28	51091.55
531.46	51337.31
531.63	51164.11
531.80	51161.77
531.97	51622.86
532.14	51756.27
532.31	51316.25
532.48	51564.34
532.65	51260.07
532.82	51484.76
532.99	51592.43
533.16	51519.87
533.33	51899.04
533.50	52062.88
533.67	52072.24
533.84	51564.34
534.01	51601.79
534.18	51672.01
534.35	52212.67
534.52	51765.63
534.69	52030.11
534.86	52495.88
535.03	52348.42
535.20	52046.49
535.37	52268.84
535.54	52467.79
535.71	52339.06
535.88	52229.05
536.05	52664.39
536.22	52498.22
536.38	52495.88
536.55	52580.13
536.72	52683.12
536.89	52477.15
537.06	52758.02
537.23	52870.36
537.40	52573.11
537.57	52896.11
537.74	52952.28
537.91	53029.52
538.08	52999.09
538.25	52999.09
538.42	53230.80
538.59	53088.03
538.75	52821.21
538.92	52961.64
539.09	53420.39
539.26	53235.48
539.43	53233.14
539.60	53375.92
539.77	53270.59
539.94	53385.28
540.11	53244.85
540.28	53427.41
540.44	53535.07
540.61	53474.22
540.78	53200.38
540.95	53612.31
541.12	53123.14
541.29	53595.93
541.46	53521.03
541.62	53425.07
541.79	53516.35
541.96	53233.14
542.13	53368.90
542.30	53961.05
542.47	54075.74
542.63	53935.30
542.80	54206.81
542.97	54012.54
543.14	54307.45
543.31	54260.64
543.48	53867.43
543.64	54225.53
543.81	54347.24
543.98	54504.06
544.15	54337.88
544.32	54330.86
544.48	54703.00
544.65	54255.96
544.82	54454.90
544.99	53956.37
545.16	54506.40
545.32	54461.93
545.49	54583.63
545.66	54862.16
545.83	54766.20
546.00	54920.67
546.16	54871.52
546.33	54415.11
546.50	54262.98
546.67	54576.61
546.83	54637.47
547.00	54780.24
547.17	54775.56
547.34	54838.75
547.50	54876.20
547.67	54997.91
547.84	55030.68
548.00	54953.44
548.17	54918.33
548.34	54979.18
548.51	55215.58
548.67	55128.98
548.84	55114.94
549.01	55049.40
549.18	55222.60
549.34	54911.31
549.51	55075.15
549.68	55063.44
549.84	55007.27
550.01	55381.76
550.18	55231.96
550.34	55227.28
550.51	55540.91
550.68	55391.12
550.84	55461.33
551.01	55470.70
551.18	55358.35
551.34	55138.34
551.51	55552.62
551.68	55552.62
551.84	55676.66
552.01	55690.71
552.18	55697.73
552.34	55594.74
552.51	55889.65
552.68	55292.82
552.84	55592.40
553.01	55859.23
553.18	55655.60
553.34	55814.76
553.51	55721.13
553.67	55765.60
553.84	55934.12
554.01	55924.76
554.17	55679.00
554.34	56107.32
554.51	55765.60
554.67	56004.34
554.84	55964.55
555.00	55983.27
555.17	55950.51
555.33	55983.27
555.50	56016.04
555.67	56266.48
555.83	55873.27
556.00	55987.95
556.16	56154.13
556.33	56182.22
556.50	55973.91
556.66	56226.69
556.83	56395.21
556.99	56217.33
557.16	56367.12
557.32	56336.69
557.49	56411.59
557.65	56168.18
557.82	56240.73
557.98	56264.14
558.15	56488.83
558.32	56449.04
558.48	56334.35
558.65	56645.65
558.81	56589.47
558.98	56533.30
559.14	56451.38
559.31	56315.63
559.47	56397.55
559.64	56435.00
559.80	56713.52
559.97	56559.05
560.13	56416.27
560.30	56423.29
560.46	56615.22
560.63	56591.81
560.79	56406.91
560.96	56542.66
561.12	56802.46
561.29	56591.81
561.45	56657.35
561.61	56697.14
561.78	56856.29
561.94	56697.14
562.11	56863.32
562.27	56568.41
562.44	56633.94
562.60	56750.97
562.77	56868.00
562.93	56664.37
563.10	56940.55
563.26	56657.35
563.42	57099.71
563.59	56875.02
563.75	56662.03
563.92	56879.70
564.08	56762.67
564.24	56835.23
564.41	56664.37
564.57	56776.72
564.74	56825.87
564.90	56884.38
565.07	56879.70
565.23	56978.00
565.39	56907.79
565.56	57003.75
565.72	56734.59
565.88	56676.07
566.05	56671.39
566.21	56903.10
566.38	56835.23
566.54	56795.44
566.70	57120.77
566.87	57181.63
567.03	56949.92
567.19	57195.67
567.36	56938.21
567.52	56884.38
567.68	57024.81
567.85	57064.60
568.01	57050.56
568.17	56814.16
568.34	57345.47
568.50	57109.07
568.66	56935.87
568.83	57055.24
568.99	56982.68
569.15	56942.89
569.32	57050.56
569.48	56954.60
569.64	57113.75
569.81	57120.77
569.97	57090.35
570.13	57106.73
570.30	56870.34
570.46	57345.47
570.62	57366.53
570.78	57146.52
570.95	56954.60
571.11	57013.11
571.27	56788.42
571.43	56989.70
571.60	57127.80
571.76	57113.75
571.92	57364.19
572.09	57179.29
572.25	57148.86
572.41	57235.46
572.57	57212.06
572.74	57345.47
572.90	57146.52
573.06	57190.99
573.22	57188.65
573.38	57256.53
573.55	57165.24
573.71	57593.56
573.87	57502.28
574.03	57167.58
574.20	57291.63
574.36	57080.98
574.52	57226.10
574.68	57132.48
574.84	57104.39
575.01	57308.02
575.17	57277.59
575.33	57088.01
575.49	57237.80
575.65	57497.60
575.82	57478.88
575.98	57134.82
576.14	57418.02
576.30	57368.87
576.46	57233.12
576.62	57069.28
576.79	57312.70
576.95	56959.28
577.11	57256.53
577.27	57125.46
577.43	57230.78
577.59	57418.02
577.75	57137.16
577.92	57326.74
578.08	57242.48
578.24	57066.94
578.40	57380.57
578.56	57256.53
578.72	57151.20
578.88	57333.76
579.04	57371.21
579.21	57322.06
579.37	57270.57
579.53	57324.40
579.69	57340.78
579.85	57200.35
580.01	57270.57
580.17	57282.27
580.33	57153.54
580.49	57303.34
580.65	57539.73
580.82	57268.23
580.98	57572.50
581.14	57291.63
581.30	57525.69
581.46	57329.08
581.62	57315.04
581.78	57198.01
581.94	57385.25
582.10	57298.65
582.26	57518.67
582.42	57483.56
582.58	57310.36
582.74	57595.90
582.90	57343.12
583.06	57542.07
583.22	57373.55
583.38	57474.20
583.54	57240.14
583.70	56949.92
583.86	57214.40
584.02	57296.31
584.18	57492.92
584.34	57525.69
584.50	57640.37
584.66	57190.99
584.82	57141.84
584.98	57338.44
585.14	57385.25
585.30	57329.08
585.46	57305.68
585.62	57226.10
585.78	57471.85
585.94	57205.03
586.10	57230.78
586.26	57361.85
586.42	57411.00
586.58	57347.81
586.74	57216.74
586.90	57289.29
587.06	57247.16
587.22	57628.67
587.38	57202.69
587.54	57506.96
587.70	57684.84
587.86	57490.58
588.02	57429.72
588.18	57509.30
588.34	57614.63
588.49	57609.95
588.65	57506.96
588.81	57254.18
588.97	57511.64
589.13	57570.16
589.29	57563.14
589.45	57696.55
