SpectraSuite Data File
++++++++++++++++++++++++++++++++++++
Date: Fri Oct 18 13:55:14 GMT-05:00 2013
User: bianchi
Dark Spectrum Present: No
Reference Spectrum Present: No
Number of Sampled Component Spectra: 1
Spectrometers: USB2+H05261
Integration Time (usec): 100000 (USB2+H05261)
Spectra Averaged: 1 (USB2+H05261)
Boxcar Smoothing: 0 (USB2+H05261)
Correct for Electrical Dark: No (USB2+H05261)
Strobe/Lamp Enabled: No (USB2+H05261)
Correct for Detector Non-linearity: No (USB2+H05261)
Correct for Stray Light: No (USB2+H05261)
Number of Pixels in Processed Spectrum: 2048
>>>>>Begin Processed Spectral Data<<<<<
365.73	0.00
365.92	0.00
366.12	0.00
366.32	0.00
366.52	0.00
366.72	0.00
366.91	0.00
367.11	0.00
367.31	0.00
367.51	0.00
367.70	0.00
367.90	0.00
368.10	0.00
368.30	0.00
368.49	0.00
368.69	0.00
368.89	0.00
369.09	0.00
369.28	0.00
369.48	0.00
369.68	0.00
369.87	0.00
370.07	0.00
370.27	0.00
370.47	28.09
370.66	245.76
370.86	285.55
371.06	374.49
371.25	344.06
371.45	308.95
371.65	346.40
371.84	353.42
372.04	280.86
372.24	444.70
372.44	325.33
372.63	332.36
372.83	393.21
373.03	447.04
373.22	374.49
373.42	397.89
373.62	395.55
373.81	442.36
374.01	510.24
374.21	528.96
374.40	395.55
374.60	440.02
374.79	451.72
374.99	472.79
375.19	538.32
375.38	606.20
375.58	500.87
375.78	531.30
375.97	517.26
376.17	599.18
376.37	489.17
376.56	543.00
376.76	503.22
376.95	531.30
377.15	526.62
377.35	629.60
377.54	601.52
377.74	554.71
377.93	575.77
378.13	578.11
378.33	578.11
378.52	512.58
378.72	613.22
378.91	645.99
379.11	566.41
379.31	547.69
379.50	540.66
379.70	620.24
379.89	748.97
380.09	613.22
380.28	575.77
380.48	676.41
380.68	582.79
380.87	531.30
381.07	667.05
381.26	660.03
381.46	594.50
381.65	695.14
381.85	683.44
382.04	610.88
382.24	678.76
382.43	739.61
382.63	685.78
382.83	695.14
383.02	739.61
383.22	826.21
383.41	713.86
383.61	695.14
383.80	816.85
384.00	746.63
384.19	737.27
384.39	744.29
384.58	772.38
384.78	739.61
384.97	898.77
385.17	746.63
385.36	844.93
385.56	739.61
385.75	849.61
385.95	805.14
386.14	788.76
386.34	791.10
386.53	814.51
386.72	819.19
386.92	828.55
387.11	950.26
387.31	894.08
387.50	903.45
387.70	851.96
387.89	908.13
388.09	940.90
388.28	978.34
388.48	905.79
388.67	924.51
388.86	905.79
389.06	954.94
389.25	1018.13
389.45	983.02
389.64	807.48
389.84	1046.22
390.03	994.73
390.22	1078.99
390.42	903.45
390.61	1034.52
390.81	961.96
391.00	1001.75
391.19	1022.81
391.39	964.30
391.58	990.05
391.78	1078.99
391.97	1104.73
392.16	1060.26
392.36	1240.48
392.55	943.24
392.75	1067.28
392.94	1146.86
393.13	1158.57
393.33	1135.16
393.52	1083.67
393.71	1128.14
393.91	1188.99
394.10	1067.28
394.29	1083.67
394.49	1156.22
394.68	1203.04
394.88	1198.35
395.07	1149.20
395.26	1203.04
395.46	1317.72
395.65	1270.91
395.84	1334.11
396.04	1364.53
396.23	1313.04
396.42	1341.13
396.62	1313.04
396.81	1315.38
397.00	1392.62
397.19	1277.93
397.39	1371.55
397.58	1397.30
397.77	1411.34
397.97	1416.02
398.16	1378.58
398.35	1423.05
398.55	1441.77
398.74	1476.88
398.93	1556.46
399.12	1526.03
399.32	1460.49
399.51	1394.96
399.70	1479.22
399.90	1540.07
400.09	1614.97
400.28	1523.69
400.47	1502.62
400.67	1584.54
400.86	1542.41
401.05	1598.59
401.24	1703.91
401.44	1645.40
401.63	1743.70
401.82	1734.34
402.01	1575.18
402.21	1582.20
402.40	1781.15
402.59	1706.25
402.78	1858.39
402.97	1788.17
403.17	1640.72
403.36	1689.87
403.55	1851.36
403.74	1947.33
403.93	1886.47
404.13	1858.39
404.32	1874.77
404.51	1933.28
404.70	1933.28
404.89	1926.26
405.09	1926.26
405.28	2022.22
405.47	2001.16
405.66	2076.06
405.85	2139.25
406.05	2232.87
406.24	2125.21
406.43	2143.93
406.62	2125.21
406.81	2153.29
407.00	2211.81
407.20	2125.21
407.39	2143.93
407.58	2310.11
407.77	2289.04
407.96	2202.44
408.15	2298.41
408.34	2373.30
408.54	2333.51
408.73	2305.43
408.92	2291.38
409.11	2401.39
409.30	2459.90
409.49	2286.70
409.68	2565.23
409.87	2457.56
410.07	2483.31
410.26	2595.65
410.45	2562.89
410.64	2579.27
410.83	2637.78
411.02	2588.63
411.21	2640.12
411.40	2731.41
411.59	2813.32
411.78	2789.92
411.98	2754.81
412.17	2787.58
412.36	2909.29
412.55	2834.39
412.74	3030.99
412.93	2853.11
413.12	2815.66
413.31	2949.08
413.50	3103.55
413.69	2984.18
413.88	3192.49
414.07	3110.57
414.26	3138.66
414.45	3208.87
414.64	3283.77
414.83	3260.37
415.02	3351.65
415.22	3337.60
415.41	3391.44
415.60	3456.97
415.79	3424.20
415.98	3346.97
416.17	3517.83
416.36	3435.91
416.55	3440.59
416.74	3508.46
416.93	3625.49
417.12	3529.53
417.31	3632.51
417.50	3637.19
417.69	3815.07
417.88	3744.86
418.07	3794.01
418.26	3789.33
418.45	3932.10
418.64	3953.16
418.83	4035.08
419.02	3962.53
419.21	4049.13
419.39	3974.23
419.58	4105.30
419.77	3934.44
419.96	4095.94
420.15	4184.88
420.34	4009.34
420.53	4278.50
420.72	4362.76
420.91	4297.22
421.10	4269.14
421.29	4442.34
421.48	4149.77
421.67	4184.88
421.86	4187.22
422.05	4313.61
422.24	4341.69
422.43	4325.31
422.61	4393.19
422.80	4365.10
422.99	4351.06
423.18	4472.76
423.37	4524.26
423.56	4479.79
423.75	4472.76
423.94	4294.88
424.13	4109.98
424.32	4360.42
424.50	4489.15
424.69	4629.58
424.88	4535.96
425.07	4531.28
425.26	4524.26
425.45	4554.68
425.64	4526.60
425.83	4440.00
426.01	4695.11
426.20	4367.44
426.39	4692.77
426.58	4442.34
426.77	4589.79
426.96	4662.35
427.15	4496.17
427.33	4727.88
427.52	4655.33
427.71	4814.48
427.90	4610.86
428.09	4819.16
428.28	4873.00
428.46	4926.83
428.65	4868.31
428.84	4865.97
429.03	5078.96
429.22	4898.74
429.40	5015.77
429.59	5069.60
429.78	4718.52
429.97	4856.61
430.16	4865.97
430.34	5050.88
430.53	5217.05
430.72	5177.26
430.91	5088.32
431.10	5167.90
431.28	5341.10
431.47	5207.69
431.66	5364.51
431.85	5146.84
432.03	5376.21
432.22	5397.28
432.41	5296.63
432.60	5488.56
432.79	5626.65
432.97	5544.73
433.16	5406.64
433.35	5511.96
433.54	5451.11
433.72	5526.00
433.91	5605.58
434.10	5610.26
434.28	5589.20
434.47	5568.13
434.66	5731.97
434.85	5750.70
435.03	5664.10
435.22	5743.67
435.41	5785.80
435.59	5856.02
435.78	5844.32
435.97	5856.02
436.16	5909.85
436.34	5832.62
436.53	6019.86
436.72	6272.64
436.90	5891.13
437.09	5895.81
437.28	5951.98
437.46	6085.39
437.65	6090.07
437.84	6244.55
438.02	6108.80
438.21	6207.10
438.40	6106.46
438.58	6296.04
438.77	6349.87
438.96	6361.58
439.14	6602.65
439.33	6640.10
439.52	6700.95
439.70	6604.99
439.89	6642.44
440.08	6644.78
440.26	6733.72
440.45	6822.66
440.63	7059.06
440.82	6988.84
441.01	6771.17
441.19	7094.16
441.38	7218.21
441.57	7302.47
441.75	7012.24
441.94	7342.26
442.12	7258.00
442.31	7389.07
442.50	7180.76
442.68	7391.41
442.87	7248.64
443.05	7475.67
443.24	7555.25
443.43	7627.81
443.61	7679.30
443.80	7761.22
443.98	7234.60
444.17	7241.62
444.35	7627.81
444.54	7630.15
444.73	7632.49
444.91	7672.28
445.10	7435.88
445.28	7651.21
445.47	7545.89
445.65	7543.55
445.84	7634.83
446.02	7796.32
446.21	7716.75
446.39	7667.60
446.58	7847.82
446.77	7779.94
446.95	7695.68
447.14	7822.07
447.32	7815.05
447.51	7873.56
447.69	7672.28
447.88	7833.77
448.06	7705.04
448.25	7850.16
448.43	7955.48
448.62	7611.42
448.80	7896.97
448.99	8028.04
449.17	7845.48
449.36	7824.41
449.54	8037.40
449.73	8056.12
449.91	8191.88
450.10	8187.19
450.28	8231.66
450.46	8334.65
450.65	8163.79
450.83	8367.42
451.02	8201.24
451.20	8341.67
451.39	8390.82
451.57	8152.09
451.76	8262.09
451.94	8362.73
452.13	8671.68
452.31	8383.80
452.49	8280.82
452.68	8472.74
452.86	8444.65
453.05	8744.24
453.23	8730.20
453.42	8505.51
453.60	8655.30
453.78	8685.73
453.97	8528.91
454.15	8655.30
454.34	8557.00
454.52	8809.78
454.70	8615.51
454.89	8959.57
455.07	8980.64
455.26	8987.66
455.44	8987.66
455.62	8973.61
455.81	8978.30
455.99	9032.13
456.17	9142.13
456.36	9284.91
456.54	9301.29
456.73	9385.55
456.91	9584.49
457.09	9268.52
457.28	9544.70
457.46	9528.32
457.64	9650.03
457.83	9720.24
458.01	9591.52
458.19	9778.76
458.38	9542.36
458.56	9874.72
458.74	9745.99
458.93	9701.52
459.11	9977.70
459.29	9610.24
459.48	9909.83
459.66	9762.37
459.84	10171.97
460.03	10391.98
460.21	10010.47
460.39	10064.30
460.57	10043.24
460.76	10155.58
460.94	10125.16
461.12	10139.20
461.31	10277.29
461.49	10303.04
461.67	10167.29
461.85	10415.38
462.04	10396.66
462.22	10597.95
462.40	10602.63
462.59	10399.00
462.77	10448.15
462.95	10611.99
463.13	10466.88
463.32	10689.23
463.50	10721.99
463.68	10860.09
463.86	10705.61
464.05	10675.18
464.23	10682.20
464.41	10806.25
464.59	10394.32
464.78	10883.49
464.96	10839.02
465.14	10782.85
465.32	10892.85
465.50	11101.16
465.69	10916.26
465.87	10822.64
466.05	11178.40
466.23	11162.01
466.41	11304.79
466.60	11309.47
466.78	11112.86
466.96	11080.10
467.14	11194.78
467.32	11227.55
467.51	11461.60
467.69	11265.00
467.87	11150.31
468.05	11314.15
468.23	11295.43
468.41	11145.63
468.60	11489.69
468.78	11648.85
468.96	11477.99
469.14	11580.97
469.32	11798.64
469.50	11417.13
469.69	11929.71
469.87	11960.14
470.05	11964.82
470.23	11950.78
470.41	12095.89
470.59	11971.84
470.77	11744.81
470.95	12009.29
471.14	12063.12
471.32	11992.90
471.50	12343.99
471.68	12430.59
471.86	12383.77
472.04	12535.91
472.22	12683.36
472.40	12393.14
472.58	12676.34
472.77	12615.49
472.95	12910.40
473.13	13404.25
473.31	12999.34
473.49	12575.70
473.67	12903.37
473.85	12912.74
474.03	13261.48
474.21	13310.63
474.39	13081.25
474.57	13418.29
474.75	13355.10
474.93	13500.21
475.12	13394.89
475.30	13657.03
475.48	13799.80
475.66	13790.44
475.84	13816.18
476.02	14052.58
476.20	13745.97
476.38	14349.82
476.56	14413.02
476.74	14436.42
476.92	14274.93
477.10	14230.46
477.28	14637.71
477.46	14527.71
477.64	14733.67
477.82	14941.98
478.00	15524.77
478.18	15260.29
478.36	15555.20
478.54	15866.49
478.72	15243.91
478.90	15737.76
479.08	16037.35
479.26	15946.07
479.44	15850.11
479.62	16278.43
479.80	16388.43
479.98	16460.99
480.16	16882.28
480.34	16486.73
480.52	16760.58
480.70	16931.44
480.88	16681.00
481.06	16968.88
481.24	16992.29
481.41	17039.10
481.59	17481.46
481.77	17563.38
481.95	17563.38
482.13	17839.56
482.31	17851.27
482.49	18256.18
482.67	18047.87
482.85	18710.24
483.03	18581.51
483.21	19002.81
483.39	18946.64
483.57	18934.93
483.74	19211.12
483.92	19063.66
484.10	19234.52
484.28	19719.01
484.46	19679.22
484.64	20042.01
484.82	20018.60
485.00	19913.28
485.18	20549.90
485.35	20893.96
485.53	20903.32
485.71	20931.41
485.89	21563.36
486.07	21099.93
486.25	21085.89
486.43	21748.26
486.61	21518.89
486.78	21694.43
486.96	21778.68
487.14	22171.89
487.32	22373.18
487.50	22628.30
487.68	22293.60
487.85	22979.38
488.03	23260.24
488.21	23438.12
488.39	23325.78
488.57	23695.58
488.75	23910.91
488.92	23943.68
489.10	24039.64
489.28	24276.04
489.46	24257.31
489.64	24751.17
489.81	25090.54
489.99	24968.84
490.17	25127.99
490.35	25195.87
490.53	25289.49
490.70	26010.37
490.88	25535.24
491.06	26080.59
491.24	25865.26
491.41	25865.26
491.59	26434.01
491.77	26466.78
491.95	26621.25
492.13	26625.93
492.30	27166.60
492.48	27213.41
492.66	27374.91
492.84	27421.72
493.01	27536.40
493.19	28016.21
493.37	27992.81
493.54	27957.70
493.72	28332.18
493.90	28439.85
494.08	28601.35
494.25	28863.49
494.43	28938.38
494.61	29600.76
494.79	29324.57
494.96	28856.46
495.14	28952.43
495.32	29933.11
495.49	29806.72
495.67	29921.41
495.85	30415.26
496.02	30225.68
496.20	30677.40
496.38	30801.45
496.55	30747.62
496.73	31211.04
496.91	31112.74
497.09	31522.34
497.26	31681.49
497.44	31421.69
497.62	31529.36
497.79	32341.52
497.97	32084.06
498.14	32091.09
498.32	32730.05
498.50	32439.82
498.67	32992.19
498.85	32914.95
499.03	32844.74
499.20	33422.85
499.38	33263.69
499.56	33762.23
499.73	33703.71
499.91	33907.34
500.08	34033.73
500.26	33668.61
500.44	34347.36
500.61	34185.86
500.79	34148.42
500.97	34220.97
501.14	34972.28
501.32	34698.44
501.49	34588.44
501.67	34789.72
501.84	35103.35
502.02	34763.98
502.20	35302.30
502.37	35353.79
502.55	35185.27
502.72	35468.48
502.90	35798.49
503.07	35342.09
503.25	36156.60
503.43	35620.61
503.60	36311.07
503.78	36767.48
503.95	36395.33
504.13	36404.69
504.30	36208.09
504.48	36418.74
504.65	36847.05
504.83	36952.38
505.01	36910.25
505.18	36891.52
505.36	37670.92
505.53	37322.18
505.71	37015.57
505.88	37516.45
506.06	37448.57
506.23	37848.80
506.41	37972.85
506.58	37961.15
506.76	38003.28
506.93	38113.28
507.11	37663.90
507.28	37940.08
507.46	38515.86
507.63	38359.04
507.81	39084.61
507.98	38616.50
508.16	38621.18
508.33	38960.56
508.50	39147.80
508.68	38871.62
508.85	39381.85
509.03	39761.02
509.20	39746.98
509.38	39959.97
509.55	39746.98
509.73	40156.57
509.90	40060.61
510.08	40339.13
510.25	40418.71
510.42	40165.93
510.60	40828.30
510.77	40493.61
510.95	40636.38
511.12	40652.76
511.30	40650.42
511.47	40978.10
511.64	40842.35
511.82	41137.26
511.99	41284.71
512.17	41486.00
512.34	41043.63
512.51	41855.80
512.69	41904.95
512.86	41923.68
513.04	42492.43
513.21	41996.23
513.38	41888.57
513.56	42270.08
513.73	42031.34
513.90	42232.63
514.08	42209.22
514.25	42497.11
514.43	42677.33
514.60	42855.21
514.77	42843.51
514.95	43367.79
515.12	42815.42
515.29	42913.72
515.47	43292.89
515.64	43262.46
515.81	43140.75
515.99	43484.81
516.16	44046.54
516.33	43936.54
516.51	44411.67
516.68	43370.13
516.85	43929.51
517.03	43842.92
517.20	44013.77
517.37	44353.15
517.54	44474.86
517.72	44430.39
517.89	44275.91
518.06	44275.91
518.24	44589.55
518.41	44882.11
518.58	45237.87
518.75	44957.01
518.93	45237.87
519.10	45155.96
519.27	45272.98
519.45	45284.68
519.62	45462.57
519.79	44914.88
519.96	44928.92
520.14	45277.66
520.31	45343.20
520.48	46312.18
520.65	45656.83
520.83	45797.26
521.00	46000.89
521.17	46188.13
521.34	45862.80
521.52	46267.71
521.69	46607.09
521.86	46466.66
522.03	46602.41
522.20	46480.70
522.38	46677.30
522.55	46649.22
522.72	46780.29
522.89	46967.53
523.07	46951.15
523.24	47482.45
523.41	46988.60
523.58	47166.48
523.75	47320.95
523.92	46976.89
524.10	47346.70
524.27	47543.30
524.44	47859.27
524.61	48098.01
524.78	47878.00
524.96	47959.92
525.13	47693.10
525.30	47868.64
525.47	48172.91
525.64	47992.68
525.81	48208.01
525.98	48362.49
526.16	48554.41
526.33	48205.67
526.50	48985.07
526.67	48219.72
526.84	48238.44
527.01	48308.66
527.18	48708.89
527.36	48739.32
527.53	49059.97
527.70	49247.21
527.87	49202.74
528.04	49148.91
528.21	48912.52
528.38	48975.71
528.55	49045.93
528.72	49076.35
528.89	49294.02
529.07	49240.19
529.24	49708.30
529.41	49450.84
529.58	49029.54
529.75	49202.74
529.92	49542.12
530.09	49528.08
530.26	49289.34
530.43	49965.76
530.60	49373.60
530.77	49460.20
530.94	49972.78
531.11	49804.26
531.28	49748.09
531.46	49689.57
531.63	49925.97
531.80	50188.11
531.97	50525.14
532.14	50417.48
532.31	50162.36
532.48	50609.40
532.65	50410.46
532.82	50265.34
532.99	50223.22
533.16	50419.82
533.33	50569.61
533.50	50855.16
533.67	50733.45
533.84	50628.13
534.01	50487.70
534.18	50405.78
534.35	50843.46
534.52	50522.80
534.69	50623.45
534.86	51358.38
535.03	50906.65
535.20	51166.45
535.37	51414.55
535.54	51180.49
535.71	50841.12
535.88	50862.18
536.05	51091.55
536.22	51491.79
536.38	51374.76
536.55	51519.87
536.72	51679.03
536.89	51213.26
537.06	51189.86
537.23	51421.57
537.40	51381.78
537.57	51463.70
537.74	51576.04
537.91	51650.94
538.08	51936.49
538.25	51903.72
538.42	52067.56
538.59	52046.49
538.75	51365.40
538.92	51889.68
539.09	52025.43
539.26	52357.78
539.43	52196.29
539.60	52250.12
539.77	51840.53
539.94	52341.40
540.11	52182.24
540.28	52458.43
540.44	52196.29
540.61	52418.64
540.78	52247.78
540.95	52121.39
541.12	52231.40
541.29	52360.12
541.46	52102.67
541.62	52011.38
541.79	52495.88
541.96	51838.18
542.13	52275.87
542.30	52690.14
542.47	52856.32
542.63	53036.54
542.80	52821.21
542.97	53034.20
543.14	53141.86
543.31	53003.77
543.48	53207.40
543.64	53319.74
543.81	53350.17
543.98	53408.68
544.15	53387.62
544.32	53460.18
544.48	53312.72
544.65	53181.65
544.82	53160.59
544.99	53111.44
545.16	53436.77
545.32	53294.00
545.49	53439.11
545.66	53907.22
545.83	53876.79
546.00	53605.29
546.16	53825.30
546.33	53350.17
546.50	53471.88
546.67	53584.22
546.83	53167.61
547.00	53647.42
547.17	53858.07
547.34	53734.02
547.50	53904.88
547.67	54061.69
547.84	54057.01
548.00	54192.76
548.17	54096.80
548.34	53769.13
548.51	54049.99
548.67	54127.23
548.84	54277.02
549.01	54150.63
549.18	54190.42
549.34	54152.97
549.51	54117.87
549.68	53949.35
549.84	54164.68
550.01	54152.97
550.18	54204.47
550.34	54014.88
550.51	54429.16
550.68	54504.06
550.84	54262.98
551.01	54473.63
551.18	54237.23
551.34	54061.69
551.51	54506.40
551.68	54401.07
551.84	54646.83
552.01	54602.36
552.18	54543.84
552.34	54415.11
552.51	54522.78
552.68	54445.54
552.84	54761.51
553.01	54808.32
553.18	54745.13
553.34	54852.80
553.51	54618.74
553.67	54904.29
553.84	54892.58
554.01	55121.96
554.17	54958.12
554.34	54822.37
554.51	54412.77
554.67	54988.55
554.84	55126.64
555.00	54827.05
555.17	55030.68
555.33	55236.64
555.50	54995.57
555.67	54986.21
555.83	55002.59
556.00	55136.00
556.16	55103.23
556.33	54972.16
556.50	54913.65
556.66	55187.49
556.83	55107.91
556.99	55433.25
557.16	55508.14
557.32	55529.21
557.49	55292.82
557.65	55250.69
557.82	55257.71
557.98	55250.69
558.15	55267.07
558.32	55629.85
558.48	55442.61
558.65	55583.04
558.81	55421.55
558.98	55283.45
559.14	55543.25
559.31	55264.73
559.47	55641.56
559.64	55241.32
559.80	55559.64
559.97	55622.83
560.13	55428.57
560.30	55189.83
560.46	55561.98
560.63	55458.99
560.79	55505.80
560.96	55594.74
561.12	55664.96
561.29	55688.37
561.45	55552.62
561.61	55648.58
561.78	55728.16
561.94	55793.69
562.11	55639.22
562.27	55599.43
562.44	55351.33
562.60	55793.69
562.77	55463.67
562.93	55597.09
563.10	55763.26
563.26	55430.91
563.42	55999.66
563.59	55805.39
563.75	55812.41
563.92	56109.66
564.08	55627.51
564.24	55739.86
564.41	55599.43
564.57	55597.09
564.74	55657.94
564.90	55765.60
565.07	55737.52
565.23	55751.56
565.39	55906.04
565.56	56006.68
565.72	55564.32
565.88	56032.42
566.05	55796.03
566.21	56004.34
566.38	55751.56
566.54	55992.64
566.70	55924.76
566.87	56310.95
567.03	55812.41
567.19	56030.08
567.36	55615.81
567.52	55636.87
567.68	56100.30
567.85	55725.81
568.01	55927.10
568.17	56086.26
568.34	55973.91
568.50	55894.33
568.66	56280.52
568.83	56135.41
568.99	55728.16
569.15	55812.41
569.32	55786.67
569.48	55735.18
569.64	56058.17
569.81	55934.12
569.97	56041.79
570.13	56060.51
570.30	55903.70
570.46	56130.73
570.62	56226.69
570.78	55880.29
570.95	55929.44
571.11	55906.04
571.27	55948.17
571.43	56004.34
571.60	56081.58
571.76	55807.73
571.92	56119.02
572.09	56231.37
572.25	56526.28
572.41	56147.11
572.57	56353.08
572.74	56453.72
572.90	56119.02
573.06	56119.02
573.22	56023.06
573.38	56168.18
573.55	56039.45
573.71	56563.73
573.87	56353.08
574.03	56296.91
574.20	56306.27
574.36	55999.66
574.52	56151.79
574.68	55929.44
574.84	55969.23
575.01	56076.90
575.17	56245.41
575.33	56097.96
575.49	56140.09
575.65	56402.23
575.82	56360.10
575.98	56322.65
576.14	56170.52
576.30	56177.54
576.46	56172.86
576.62	55952.85
576.79	56301.59
576.95	56324.99
577.11	56301.59
577.27	56130.73
577.43	56378.82
577.59	56245.41
577.75	56341.38
577.92	56086.26
578.08	56149.45
578.24	56317.97
578.40	56210.31
578.56	56411.59
578.72	56163.50
578.88	56378.82
579.04	56512.23
579.21	56285.20
579.37	56282.86
579.53	56392.87
579.69	56217.33
579.85	56212.65
580.01	56346.06
580.17	56137.75
580.33	56060.51
580.49	56240.73
580.65	56465.42
580.82	56512.23
580.98	56357.76
581.14	56371.80
581.30	56556.70
581.46	56002.00
581.62	56282.86
581.78	56046.47
581.94	56378.82
582.10	56317.97
582.26	56357.76
582.42	56313.29
582.58	56435.00
582.74	56577.77
582.90	56542.66
583.06	56324.99
583.22	56198.60
583.38	56306.27
583.54	56320.31
583.70	56142.43
583.86	56109.66
584.02	56207.97
584.18	56402.23
584.34	56413.93
584.50	56348.40
584.66	56296.91
584.82	56172.86
584.98	56577.77
585.14	56093.28
585.30	56074.55
585.46	56114.34
585.62	56100.30
585.78	56357.76
585.94	56144.77
586.10	56168.18
586.26	56308.61
586.42	56411.59
586.58	56640.96
586.74	56247.75
586.90	56090.94
587.06	56371.80
587.22	56364.78
587.38	56399.89
587.54	56378.82
587.70	56507.55
587.86	56521.60
588.02	56474.79
588.18	56486.49
588.34	56442.02
588.49	56367.12
588.65	56135.41
588.81	56353.08
588.97	56542.66
589.13	56446.70
589.29	56341.38
589.45	56694.80
589.61	56619.90
