SpectraSuite Data File
++++++++++++++++++++++++++++++++++++
Date: Fri Oct 18 13:54:27 GMT-05:00 2013
User: bianchi
Dark Spectrum Present: No
Reference Spectrum Present: No
Number of Sampled Component Spectra: 1
Spectrometers: USB2+H05261
Integration Time (usec): 100000 (USB2+H05261)
Spectra Averaged: 1 (USB2+H05261)
Boxcar Smoothing: 0 (USB2+H05261)
Correct for Electrical Dark: No (USB2+H05261)
Strobe/Lamp Enabled: No (USB2+H05261)
Correct for Detector Non-linearity: No (USB2+H05261)
Correct for Stray Light: No (USB2+H05261)
Number of Pixels in Processed Spectrum: 2048
>>>>>Begin Processed Spectral Data<<<<<
365.73	0.00
365.92	0.00
366.12	0.00
366.32	0.00
366.52	0.00
366.72	0.00
366.91	0.00
367.11	0.00
367.31	0.00
367.51	0.00
367.70	0.00
367.90	0.00
368.10	0.00
368.30	0.00
368.49	0.00
368.69	0.00
368.89	0.00
369.09	0.00
369.28	0.00
369.48	0.00
369.68	0.00
369.87	0.00
370.07	0.00
370.27	0.00
370.47	86.60
370.66	339.38
370.86	304.27
371.06	372.15
371.25	355.76
371.45	299.59
371.65	376.83
371.84	301.93
372.04	294.91
372.24	402.57
372.44	409.59
372.63	433.00
372.83	442.36
373.03	433.00
373.22	369.80
373.42	477.47
373.62	440.02
373.81	421.30
374.01	528.96
374.21	528.96
374.40	540.66
374.60	521.94
374.79	517.26
374.99	566.41
375.19	500.87
375.38	517.26
375.58	585.13
375.78	585.13
375.97	545.34
376.17	615.56
376.37	475.13
376.56	622.58
376.76	552.37
376.95	493.85
377.15	624.92
377.35	517.26
377.54	538.32
377.74	512.58
377.93	547.69
378.13	561.73
378.33	454.06
378.52	550.03
378.72	582.79
378.91	667.05
379.11	613.22
379.31	596.84
379.50	547.69
379.70	566.41
379.89	599.18
380.09	678.76
380.28	592.16
380.48	655.35
380.68	603.86
380.87	587.47
381.07	629.60
381.26	566.41
381.46	674.07
381.65	645.99
381.85	706.84
382.04	744.29
382.24	718.54
382.43	697.48
382.63	676.41
382.83	706.84
383.02	702.16
383.22	716.20
383.41	758.33
383.61	823.87
383.80	798.12
384.00	678.76
384.19	706.84
384.39	809.83
384.58	798.12
384.78	760.67
384.97	718.54
385.17	692.80
385.36	739.61
385.56	940.90
385.75	828.55
385.95	835.57
386.14	861.32
386.34	851.96
386.53	819.19
386.72	758.33
386.92	997.07
387.11	877.70
387.31	875.36
387.50	849.61
387.70	952.60
387.89	837.91
388.09	863.66
388.28	936.21
388.48	964.30
388.67	968.98
388.86	936.21
389.06	922.17
389.25	968.98
389.45	964.30
389.64	929.19
389.84	1060.26
390.03	1041.54
390.22	1053.24
390.42	938.55
390.61	978.34
390.81	1004.09
391.00	980.68
391.19	1071.97
391.39	1039.20
391.58	1048.56
391.78	1076.65
391.97	1078.99
392.16	961.96
392.36	1132.82
392.55	1170.27
392.75	1130.48
392.94	1135.16
393.13	1090.69
393.33	1245.16
393.52	1137.50
393.71	1123.46
393.91	1275.59
394.10	1181.97
394.29	1210.06
394.49	1252.19
394.68	1240.48
394.88	1135.16
395.07	1179.63
395.26	1249.85
395.46	1313.04
395.65	1352.83
395.84	1324.74
396.04	1296.66
396.23	1329.42
396.42	1322.40
396.62	1362.19
396.81	1378.58
397.00	1329.42
397.19	1458.15
397.39	1413.68
397.58	1474.54
397.77	1444.11
397.97	1432.41
398.16	1516.67
398.35	1474.54
398.55	1519.01
398.74	1561.14
398.93	1479.22
399.12	1446.45
399.32	1455.81
399.51	1476.88
399.70	1563.48
399.90	1490.92
400.09	1633.69
400.28	1682.85
400.47	1565.82
400.67	1547.09
400.86	1640.72
401.05	1741.36
401.24	1605.61
401.44	1685.19
401.63	1692.21
401.82	1703.91
402.01	1650.08
402.21	1652.42
402.40	1708.59
402.59	1771.79
402.78	1753.06
402.97	1898.17
403.17	1842.00
403.36	1837.32
403.55	1849.02
403.74	1961.37
403.93	1891.15
404.13	1907.54
404.32	1944.99
404.51	1858.39
404.70	1893.49
404.89	1980.09
405.09	2005.84
405.28	2010.52
405.47	2052.65
405.66	1996.48
405.85	2017.54
406.05	1989.46
406.24	2179.04
406.43	2092.44
406.62	2139.25
406.81	2174.36
407.00	2211.81
407.20	2125.21
407.39	2270.32
407.58	2258.62
407.77	2207.13
407.96	2272.66
408.15	2345.22
408.34	2345.22
408.54	2319.47
408.73	2258.62
408.92	2487.99
409.11	2483.31
409.30	2511.39
409.49	2497.35
409.68	2487.99
409.87	2424.80
410.07	2637.78
410.26	2537.14
410.45	2642.46
410.64	2551.18
410.83	2609.70
411.02	2583.95
411.21	2754.81
411.40	2696.30
411.59	2806.30
411.78	2785.24
411.98	2796.94
412.17	2864.82
412.36	2822.69
412.55	2920.99
412.74	2871.84
412.93	2855.45
413.12	2913.97
413.31	3073.12
413.50	2993.55
413.69	3171.43
413.88	3169.09
414.07	3136.32
414.26	3171.43
414.45	3222.92
414.64	3251.00
414.83	3279.09
415.02	3438.25
415.22	3295.47
415.41	3379.73
415.60	3405.48
415.79	3414.84
415.98	3405.48
416.17	3496.76
416.36	3529.53
416.55	3609.11
416.74	3548.25
416.93	3714.43
417.12	3616.13
417.31	3707.41
417.50	3637.19
417.69	3747.20
417.88	3829.12
418.07	3854.86
418.26	3911.04
418.45	3751.88
418.64	3948.48
418.83	3960.19
419.02	3971.89
419.21	4086.58
419.39	3964.87
419.58	4074.87
419.77	4032.74
419.96	4025.72
420.15	3999.98
420.34	3997.64
420.53	4184.88
420.72	4346.37
420.91	4241.05
421.10	4124.02
421.29	4414.25
421.48	4269.14
421.67	4311.27
421.86	4372.12
422.05	4395.53
422.24	4243.39
422.43	4402.55
422.61	4397.87
422.80	4533.62
422.99	4521.92
423.18	4542.98
423.37	4521.92
423.56	4521.92
423.75	4507.87
423.94	4386.16
424.13	4105.30
424.32	4292.54
424.50	4617.88
424.69	4732.56
424.88	4667.03
425.07	4440.00
425.26	4379.14
425.45	4594.47
425.64	4615.54
425.83	4582.77
426.01	4762.99
426.20	4660.01
426.39	4573.41
426.58	4650.64
426.77	4608.51
426.96	4631.92
427.15	4692.77
427.33	4704.48
427.52	4819.16
427.71	4760.65
427.90	4805.12
428.09	4746.61
428.28	4842.57
428.46	4985.34
428.65	4971.30
428.84	5170.24
429.03	5043.85
429.22	4777.03
429.40	5102.37
429.59	5191.31
429.78	4849.59
429.97	4730.22
430.16	4947.89
430.34	5018.11
430.53	5212.37
430.72	5057.90
430.91	5095.35
431.10	5095.35
431.28	5221.74
431.47	5327.06
431.66	5495.58
431.85	5401.96
432.03	5460.47
432.22	5514.30
432.41	5399.62
432.60	5392.59
432.79	5310.68
432.97	5570.48
433.16	5584.52
433.35	5446.43
433.54	5556.43
433.72	5603.24
433.91	5549.41
434.10	5483.88
434.28	5657.07
434.47	5678.14
434.66	5865.38
434.85	5919.21
435.03	6012.84
435.22	5729.63
435.41	6043.26
435.59	5865.38
435.78	6043.26
435.97	5916.87
436.16	5982.41
436.34	5909.85
436.53	5865.38
436.72	6115.82
436.90	5968.37
437.09	6038.58
437.28	6054.97
437.46	6080.71
437.65	6167.31
437.84	6176.67
438.02	5994.11
438.21	6150.93
438.40	6221.14
438.58	6441.15
438.77	6389.66
438.96	6511.37
439.14	6478.60
439.33	6558.18
439.52	6661.16
439.70	6590.95
439.89	6663.51
440.08	6984.16
440.26	6675.21
440.45	6871.81
440.63	7005.22
440.82	7103.53
441.01	6827.34
441.19	7246.30
441.38	7070.76
441.57	7206.51
441.75	7293.11
441.94	7499.08
442.12	7379.71
442.31	7470.99
442.50	7440.56
442.68	7492.05
442.87	7456.95
443.05	7452.27
443.24	7557.59
443.43	7552.91
443.61	7487.37
443.80	7796.32
443.98	7435.88
444.17	7330.56
444.35	7576.31
444.54	7751.85
444.73	7637.17
444.91	7578.65
445.10	7691.00
445.28	7744.83
445.47	7676.96
445.65	7831.43
445.84	7772.92
446.02	7878.24
446.21	7765.90
446.39	7735.47
446.58	7775.26
446.77	7770.58
446.95	7581.00
447.14	7700.36
447.32	7796.32
447.51	7864.20
447.69	7779.94
447.88	7864.20
448.06	7812.71
448.25	7775.26
448.43	8173.15
448.62	8025.70
448.80	7894.63
448.99	8013.99
449.17	8011.65
449.36	8360.39
449.54	8135.70
449.73	8262.09
449.91	8234.00
450.10	8194.22
450.28	8475.08
450.46	8416.57
450.65	8149.75
450.83	8390.82
451.02	8341.67
451.20	8411.89
451.39	8655.30
451.57	8402.52
451.76	8414.23
451.94	8603.81
452.13	8767.65
452.31	8512.53
452.49	8575.72
452.68	8601.47
452.86	8622.53
453.05	8851.91
453.23	8751.26
453.42	8596.79
453.60	8767.65
453.78	8793.39
453.97	8791.05
454.15	8655.30
454.34	8674.03
454.52	8957.23
454.70	8894.04
454.89	9048.51
455.07	8966.59
455.26	9385.55
455.44	9095.32
455.62	9146.81
455.81	9221.71
455.99	9046.17
456.17	9366.82
456.36	9179.58
456.54	9329.38
456.73	9287.25
456.91	9434.70
457.09	9659.39
457.28	9542.36
457.46	9420.66
457.64	9650.03
457.83	9535.34
458.01	9549.39
458.19	9846.63
458.38	9717.90
458.56	9858.34
458.74	9907.49
458.93	10054.94
459.11	9832.59
459.29	9982.38
459.48	9912.17
459.66	10038.56
459.84	10366.23
460.03	10368.57
460.21	10010.47
460.39	10260.91
460.57	10094.73
460.76	10417.72
460.94	10324.10
461.12	10321.76
461.31	10429.43
461.49	10307.72
461.67	10450.49
461.85	10733.70
462.04	10471.56
462.22	10991.16
462.40	10586.24
462.59	10611.99
462.77	10775.83
462.95	10899.87
463.13	10724.33
463.32	10700.93
463.50	10806.25
463.68	10626.03
463.86	10803.91
464.05	10745.40
464.23	10792.21
464.41	10869.45
464.59	10469.22
464.78	11080.10
464.96	10736.04
465.14	10787.53
465.32	10998.18
465.50	10953.71
465.69	11225.21
465.87	10878.81
466.05	11103.50
466.23	11180.74
466.41	11351.60
466.60	11438.20
466.78	10995.84
466.96	11246.27
467.14	11131.59
467.32	11272.02
467.51	11239.25
467.69	10970.09
467.87	11398.41
468.05	11597.35
468.23	11241.59
468.41	11513.10
468.60	11545.86
468.78	11882.90
468.96	11515.44
469.14	11524.80
469.32	11819.71
469.50	11580.97
469.69	11983.54
469.87	12098.23
470.05	12046.74
470.23	12065.46
470.41	12058.44
470.59	12182.49
470.77	12147.38
470.95	12074.82
471.14	12407.18
471.32	12131.00
471.50	12636.55
471.68	12571.02
471.86	12381.43
472.04	12645.91
472.22	12805.07
472.40	12685.70
472.58	12746.56
472.77	12840.18
472.95	12903.37
473.13	13441.70
473.31	12943.16
473.49	12753.58
473.67	13055.51
473.85	13233.39
474.03	13392.55
474.21	13537.66
474.39	13507.23
474.57	13514.25
474.75	13675.75
474.93	13886.40
475.12	13638.30
475.30	13865.33
475.48	13788.10
475.66	13790.44
475.84	13762.35
476.02	13942.57
476.20	14368.55
476.38	14513.66
476.56	14324.08
476.74	14553.45
476.92	14883.47
477.10	14822.61
477.28	14827.29
477.46	14867.08
477.64	15096.46
477.82	14995.81
478.00	15419.45
478.18	15585.63
478.36	15885.22
478.54	15426.47
478.72	15761.17
478.90	16065.44
479.08	16126.29
479.26	16271.40
479.44	16395.45
479.62	16306.51
479.80	16519.50
479.98	16765.26
480.16	16858.88
480.34	16622.48
480.52	17102.29
480.70	17238.05
480.88	16833.13
481.06	17469.76
481.24	17238.05
481.41	17568.06
481.59	18001.06
481.77	17954.25
481.95	18265.54
482.13	17781.05
482.31	18321.71
482.49	18314.69
482.67	18302.99
482.85	18836.63
483.03	19014.51
483.21	19171.33
483.39	18998.13
483.57	19094.09
483.74	19103.45
483.92	19435.81
484.10	19681.56
484.28	20163.72
484.46	20130.95
484.64	20680.97
484.82	20027.96
485.00	20444.58
485.18	20673.95
485.35	20943.11
485.53	21137.38
485.71	20900.98
485.89	21706.13
486.07	21493.14
486.25	21319.94
486.43	21673.36
486.61	21785.71
486.78	22003.38
486.96	22197.64
487.14	22740.64
487.32	22162.53
487.50	22899.80
487.68	22817.88
487.85	23412.38
488.03	23489.62
488.21	23672.18
488.39	23456.85
488.57	24245.61
488.75	23688.56
488.92	24449.24
489.10	24348.59
489.28	24430.51
489.46	24856.49
489.64	24737.12
489.81	25415.88
489.99	25252.04
490.17	25216.93
490.35	25589.08
490.53	25898.03
490.70	25961.22
490.88	25949.52
491.06	26157.83
491.24	26338.05
491.41	26455.08
491.59	26782.75
491.77	27075.32
491.95	27227.45
492.13	27758.75
492.30	27594.92
492.48	27316.39
492.66	27899.19
492.84	27632.36
493.01	27852.38
493.19	28114.52
493.37	28493.68
493.54	28800.29
493.72	29013.28
493.90	28936.04
494.08	28971.15
494.25	29551.60
494.43	29376.06
494.61	29500.11
494.79	29670.97
494.96	29797.36
495.14	29860.55
495.32	29731.83
495.49	30204.61
495.67	30462.07
495.85	30754.64
496.02	31002.74
496.20	31239.13
496.38	31321.05
496.55	31639.36
496.73	31339.77
496.91	31325.73
497.09	32048.96
497.26	32444.51
497.44	31688.51
497.62	31960.02
497.79	32229.18
497.97	32023.21
498.14	32772.18
498.32	32994.53
498.50	33064.75
498.67	33783.29
498.85	33191.14
499.03	32914.95
499.20	33261.35
499.38	33567.96
499.56	33872.23
499.73	33928.41
499.91	34183.52
500.08	34230.33
500.26	34244.38
500.44	34845.90
500.61	34504.18
500.79	34188.21
500.97	35077.61
501.14	35030.80
501.32	34939.52
501.49	35065.91
501.67	35227.40
501.84	35290.60
502.02	35164.21
502.20	35805.52
502.37	36121.49
502.55	36072.34
502.72	36257.24
502.90	35702.53
503.07	36172.98
503.25	36271.28
503.43	36093.40
503.60	36751.09
503.78	36774.50
503.95	36772.16
504.13	36952.38
504.30	37113.87
504.48	36730.03
504.65	37106.85
504.83	37432.19
505.01	37488.36
505.18	37652.20
505.36	37972.85
505.53	37827.74
505.71	37989.24
505.88	37762.20
506.06	38052.43
506.23	38225.63
506.41	38749.91
506.58	38759.27
506.76	38103.92
506.93	38663.31
507.11	38726.50
507.28	39203.97
507.46	38766.29
507.63	39318.66
507.81	39358.45
507.98	39255.46
508.16	39236.74
508.33	39236.74
508.50	39372.49
508.68	39555.05
508.85	40245.51
509.03	40210.40
509.20	40418.71
509.38	40514.67
509.55	40334.45
509.73	40257.21
509.90	40577.87
510.08	40598.93
510.25	40371.90
510.42	41069.38
510.60	41153.64
510.77	41144.28
510.95	41092.79
511.12	41165.34
511.30	40957.03
511.47	41652.17
511.64	41652.17
511.82	41528.13
511.99	41949.42
512.17	42260.71
512.34	42089.85
512.51	42366.04
512.69	42178.79
512.86	42337.95
513.04	42618.81
513.21	42862.23
513.38	42667.97
513.56	42735.84
513.73	42733.50
513.90	43098.62
514.08	42597.75
514.25	43072.88
514.43	43129.05
514.60	43599.50
514.77	43555.03
514.95	43658.01
515.12	43517.58
515.29	43697.80
515.47	43775.04
515.64	44027.82
515.81	43707.16
515.99	44079.31
516.16	44847.00
516.33	44697.21
516.51	44552.10
516.68	44552.10
516.85	44479.54
517.03	44732.32
517.20	45132.55
517.37	44825.94
517.54	45034.25
517.72	45116.17
517.89	45352.56
518.06	45059.99
518.24	44804.88
518.41	45123.19
518.58	45237.87
518.75	45294.05
518.93	45731.73
519.10	45467.25
519.27	45682.58
519.45	45471.93
519.62	45762.15
519.79	45738.75
519.96	46363.67
520.14	45965.78
520.31	45993.87
520.48	46431.55
520.65	46710.07
520.83	46541.55
521.00	46143.66
521.17	46501.76
521.34	46068.76
521.52	46738.16
521.69	46600.07
521.86	46944.12
522.03	46981.57
522.20	46904.34
522.38	47487.13
522.55	46759.22
522.72	47084.56
522.89	47206.26
523.07	47419.25
523.24	47325.63
523.41	47899.06
523.58	47430.96
523.75	47730.54
523.92	47260.10
524.10	47597.13
524.27	47632.24
524.44	47945.87
524.61	47924.81
524.78	48428.02
524.96	48280.57
525.13	48168.22
525.30	48545.05
525.47	48285.25
525.64	48889.11
525.81	48322.70
525.98	48751.02
526.16	48671.44
526.33	48669.10
526.50	49235.51
526.67	48629.31
526.84	49043.59
527.01	49008.48
527.18	48825.92
527.36	49294.02
527.53	49448.50
527.70	49830.01
527.87	49860.43
528.04	49502.33
528.21	49682.55
528.38	48975.71
528.55	49453.18
528.72	49490.63
528.89	49605.31
529.07	49680.21
529.24	49722.34
529.41	49785.54
529.58	49860.43
529.75	49932.99
529.92	49394.67
530.09	50117.89
530.26	50120.23
530.43	50080.44
530.60	49860.43
530.77	50113.21
530.94	50040.65
531.11	50333.22
531.28	50309.82
531.46	50099.17
531.63	50578.98
531.80	50717.07
531.97	50979.21
532.14	51143.05
532.31	50693.66
532.48	50738.13
532.65	50684.30
532.82	50567.27
532.99	50717.07
533.16	50831.75
533.33	51077.51
533.50	51213.26
533.67	51318.59
533.84	51274.12
534.01	50773.24
534.18	50534.51
534.35	51327.95
534.52	51192.20
534.69	51721.16
534.86	51489.45
535.03	51049.42
535.20	51636.90
535.37	51730.52
535.54	51398.16
535.71	51068.15
535.88	51725.84
536.05	51821.80
536.22	51950.53
536.38	51833.50
536.55	52004.36
536.72	51887.34
536.89	51564.34
537.06	51821.80
537.23	51793.71
537.40	51760.95
537.57	51695.41
537.74	51877.97
537.91	52491.19
538.08	52240.76
538.25	52044.15
538.42	52186.92
538.59	52633.97
538.75	52465.45
538.92	52350.76
539.09	52390.55
539.26	52493.54
539.43	52636.31
539.60	52783.76
539.77	52772.06
539.94	52589.50
540.11	52720.57
540.28	52556.73
540.44	52636.31
540.61	52683.12
540.78	52772.06
540.95	52795.46
541.12	53020.16
541.29	52875.04
541.46	52743.97
541.62	52652.69
541.79	52743.97
541.96	52678.44
542.13	53066.97
542.30	53169.95
542.47	53478.90
542.63	53106.76
542.80	53155.91
542.97	53581.88
543.14	53675.51
543.31	53361.87
543.48	53593.59
543.64	53680.19
543.81	53710.61
543.98	53727.00
544.15	53790.19
544.32	53745.72
544.48	53841.68
544.65	53579.54
544.82	53867.43
544.99	53638.06
545.16	53883.81
545.32	53799.55
545.49	53914.24
545.66	54319.15
545.83	54169.36
546.00	54389.37
546.16	54019.56
546.33	53961.05
546.50	53621.67
546.67	53989.14
546.83	53741.04
547.00	53935.30
547.17	54300.43
547.34	54302.77
547.50	54136.59
547.67	54363.62
547.84	54288.73
548.00	54274.68
548.17	54445.54
548.34	54384.69
548.51	54665.55
548.67	54768.54
548.84	54672.57
549.01	54588.31
549.18	54349.58
549.34	54600.02
549.51	54429.16
549.68	54532.14
549.84	54506.40
550.01	54600.02
550.18	54466.61
550.34	54548.53
550.51	54993.23
550.68	54883.22
550.84	54546.18
551.01	54803.64
551.18	54471.29
551.34	54747.47
551.51	54548.53
551.68	55009.61
551.84	54951.10
552.01	54845.77
552.18	55185.15
552.34	54775.56
552.51	55035.36
552.68	54637.47
552.84	54934.71
553.01	55049.40
553.18	55140.68
553.34	55089.19
553.51	54827.05
553.67	55379.42
553.84	55412.18
554.01	55339.63
554.17	55295.16
554.34	55519.85
554.51	55250.69
554.67	55302.18
554.84	55292.82
555.00	55398.14
555.17	55201.53
555.33	55430.91
555.50	55332.60
555.67	55323.24
555.83	55360.69
556.00	55538.57
556.16	55578.36
556.33	55475.38
556.50	55381.76
556.66	55674.32
556.83	55292.82
556.99	55508.14
557.16	55877.95
557.32	55793.69
557.49	55618.15
557.65	55480.06
557.82	55487.08
557.98	55657.94
558.15	55826.46
558.32	55730.50
558.48	55716.45
558.65	55817.10
558.81	55835.82
558.98	55924.76
559.14	55913.06
559.31	55650.92
559.47	55847.52
559.64	55781.99
559.80	55667.30
559.97	55854.54
560.13	55664.96
560.30	55704.75
560.46	56048.81
560.63	55627.51
560.79	55868.59
560.96	55927.10
561.12	55819.44
561.29	55913.06
561.45	56053.49
561.61	56086.26
561.78	56299.25
561.94	55966.89
562.11	56334.35
562.27	55987.95
562.44	55880.29
562.60	56083.92
562.77	56046.47
562.93	55908.38
563.10	56329.67
563.26	56004.34
563.42	56341.38
563.59	56090.94
563.75	56264.14
563.92	56175.20
564.08	56189.24
564.24	56149.45
564.41	55889.65
564.57	56048.81
564.74	56186.90
564.90	56074.55
565.07	56205.62
565.23	56243.07
565.39	56229.03
565.56	56126.05
565.72	56097.96
565.88	56292.22
566.05	56065.19
566.21	56004.34
566.38	55952.85
566.54	56135.41
566.70	56449.04
566.87	56423.29
567.03	56376.48
567.19	56381.16
567.36	56226.69
567.52	56212.65
567.68	56317.97
567.85	56355.42
568.01	56542.66
568.17	56243.07
568.34	56554.36
568.50	56512.23
568.66	56584.79
568.83	56605.86
568.99	56292.22
569.15	56477.13
569.32	56306.27
569.48	56088.60
569.64	56416.27
569.81	56411.59
569.97	56523.94
570.13	56570.75
570.30	56591.81
570.46	56636.28
570.62	56554.36
570.78	56502.87
570.95	56240.73
571.11	56383.51
571.27	56371.80
571.43	56392.87
571.60	56463.08
571.76	56535.64
571.92	56526.28
572.09	56692.46
572.25	56697.14
572.41	56446.70
572.57	56486.49
572.74	56659.69
572.90	56516.92
573.06	56509.89
573.22	56521.60
573.38	56594.15
573.55	56570.75
573.71	56907.79
573.87	56685.43
574.03	56636.28
574.20	56467.76
574.36	56472.45
574.52	56530.96
574.68	56488.83
574.84	56362.44
575.01	56671.39
575.17	56725.22
575.33	56446.70
575.49	56652.67
575.65	56868.00
575.82	56729.90
575.98	56509.89
576.14	56781.40
576.30	56603.52
576.46	56605.86
576.62	56603.52
576.79	56535.64
576.95	56545.00
577.11	56699.48
577.27	56449.04
577.43	56587.13
577.59	56479.47
577.75	56701.82
577.92	56446.70
578.08	56610.54
578.24	56545.00
578.40	56626.92
578.56	56467.76
578.72	56612.88
578.88	56615.22
579.04	56722.88
579.21	56547.34
579.37	56711.18
579.53	56809.48
579.69	56566.07
579.85	56465.42
580.01	56577.77
580.17	56643.30
580.33	56505.21
580.49	56743.95
580.65	56872.68
580.82	57073.96
580.98	56722.88
581.14	56587.13
581.30	56760.33
581.46	56687.78
581.62	56622.24
581.78	56573.09
581.94	56928.85
582.10	56629.26
582.26	56671.39
582.42	56753.31
582.58	56708.84
582.74	56821.19
582.90	56935.87
583.06	56767.35
583.22	56694.80
583.38	56690.12
583.54	56619.90
583.70	56610.54
583.86	56690.12
584.02	56348.40
584.18	56678.41
584.34	56846.93
584.50	56882.04
584.66	56725.22
584.82	56561.39
584.98	56530.96
585.14	56713.52
585.30	56612.88
585.46	56692.46
585.62	56823.53
585.78	56680.75
585.94	56587.13
586.10	56755.65
586.26	56697.14
586.42	56879.70
586.58	56814.16
586.74	56718.20
586.90	56486.49
587.06	56399.89
587.22	56652.67
587.38	56727.56
587.54	56818.84
587.70	56933.53
587.86	57041.20
588.02	56903.10
588.18	56741.61
588.34	56690.12
588.49	56835.23
588.65	56853.95
588.81	56622.24
588.97	56692.46
589.13	56793.10
589.29	56699.48
589.45	56596.49
589.61	56809.48
