SpectraSuite Data File
++++++++++++++++++++++++++++++++++++
Date: Fri Oct 18 13:54:56 GMT-05:00 2013
User: bianchi
Dark Spectrum Present: No
Reference Spectrum Present: No
Number of Sampled Component Spectra: 1
Spectrometers: USB2+H05261
Integration Time (usec): 100000 (USB2+H05261)
Spectra Averaged: 1 (USB2+H05261)
Boxcar Smoothing: 0 (USB2+H05261)
Correct for Electrical Dark: No (USB2+H05261)
Strobe/Lamp Enabled: No (USB2+H05261)
Correct for Detector Non-linearity: No (USB2+H05261)
Correct for Stray Light: No (USB2+H05261)
Number of Pixels in Processed Spectrum: 2048
>>>>>Begin Processed Spectral Data<<<<<
365.73	0.00
365.92	0.00
366.12	0.00
366.32	0.00
366.52	0.00
366.72	0.00
366.91	0.00
367.11	0.00
367.31	0.00
367.51	0.00
367.70	0.00
367.90	0.00
368.10	0.00
368.30	0.00
368.49	0.00
368.69	0.00
368.89	0.00
369.09	0.00
369.28	0.00
369.48	0.00
369.68	0.00
369.87	0.00
370.07	0.00
370.27	0.00
370.47	72.56
370.66	248.10
370.86	294.91
371.06	376.83
371.25	414.27
371.45	351.08
371.65	346.40
371.84	285.55
372.04	435.34
372.24	374.49
372.44	421.30
372.63	367.46
372.83	409.59
373.03	339.38
373.22	386.19
373.42	479.81
373.62	489.17
373.81	454.06
374.01	444.70
374.21	543.00
374.40	470.45
374.60	573.43
374.79	575.77
374.99	559.39
375.19	568.75
375.38	610.88
375.58	496.19
375.78	538.32
375.97	507.90
376.17	699.82
376.37	500.87
376.56	550.03
376.76	505.56
376.95	573.43
377.15	580.45
377.35	503.22
377.54	592.16
377.74	550.03
377.93	589.82
378.13	624.92
378.33	610.88
378.52	589.82
378.72	641.31
378.91	624.92
379.11	589.82
379.31	655.35
379.50	538.32
379.70	594.50
379.89	653.01
380.09	751.31
380.28	622.58
380.48	650.67
380.68	594.50
380.87	690.46
381.07	685.78
381.26	772.38
381.46	638.97
381.65	741.95
381.85	671.73
382.04	669.39
382.24	772.38
382.43	676.41
382.63	795.78
382.83	793.44
383.02	805.14
383.22	774.72
383.41	737.27
383.61	784.08
383.80	755.99
384.00	788.76
384.19	805.14
384.39	774.72
384.58	800.46
384.78	851.96
384.97	755.99
385.17	786.42
385.36	784.08
385.56	844.93
385.75	851.96
385.95	772.38
386.14	805.14
386.34	793.44
386.53	915.15
386.72	910.47
386.92	980.68
387.11	875.36
387.31	894.08
387.50	870.68
387.70	802.80
387.89	910.47
388.09	1013.45
388.28	887.06
388.48	990.05
388.67	1039.20
388.86	952.60
389.06	880.04
389.25	999.41
389.45	1083.67
389.64	1025.15
389.84	1004.09
390.03	1076.65
390.22	1004.09
390.42	976.00
390.61	997.07
390.81	1048.56
391.00	994.73
391.19	1107.07
391.39	1086.01
391.58	1064.94
391.78	1067.28
391.97	1057.92
392.16	1153.88
392.36	1139.84
392.55	1144.52
392.75	1184.31
392.94	1165.59
393.13	1158.57
393.33	1132.82
393.52	1170.27
393.71	1228.78
393.91	1254.53
394.10	1203.04
394.29	1217.08
394.49	1146.86
394.68	1174.95
394.88	1268.57
395.07	1322.40
395.26	1341.13
395.46	1226.44
395.65	1364.53
395.84	1352.83
396.04	1465.18
396.23	1350.49
396.42	1322.40
396.62	1303.68
396.81	1406.66
397.00	1317.72
397.19	1404.32
397.39	1357.51
397.58	1453.47
397.77	1327.08
397.97	1451.13
398.16	1516.67
398.35	1612.63
398.55	1476.88
398.74	1511.99
398.93	1619.65
399.12	1453.47
399.32	1502.62
399.51	1526.03
399.70	1558.80
399.90	1537.73
400.09	1584.54
400.28	1650.08
400.47	1654.76
400.67	1607.95
400.86	1743.70
401.05	1652.42
401.24	1631.35
401.44	1818.60
401.63	1774.13
401.82	1666.46
402.01	1732.00
402.21	1825.62
402.40	1760.08
402.59	1844.34
402.78	1909.88
402.97	1804.55
403.17	1788.17
403.36	1949.67
403.55	1818.60
403.74	1877.11
403.93	1844.34
404.13	1963.71
404.32	1956.69
404.51	1952.01
404.70	2026.90
404.89	2052.65
405.09	2022.22
405.28	1998.82
405.47	2146.27
405.66	2169.68
405.85	2108.82
406.05	2108.82
406.24	2172.02
406.43	2108.82
406.62	2270.32
406.81	2277.34
407.00	2235.21
407.20	2148.61
407.39	2202.44
407.58	2211.81
407.77	2328.83
407.96	2354.58
408.15	2354.58
408.34	2359.26
408.54	2387.35
408.73	2401.39
408.92	2420.11
409.11	2525.44
409.30	2502.03
409.49	2497.35
409.68	2406.07
409.87	2574.59
410.07	2586.29
410.26	2668.21
410.45	2675.23
410.64	2609.70
410.83	2682.25
411.02	2703.32
411.21	2691.62
411.40	2710.34
411.59	2818.00
411.78	2780.56
411.98	2693.96
412.17	2871.84
412.36	2913.97
412.55	2991.20
412.74	3038.02
412.93	2937.37
413.12	2892.90
413.31	3136.32
413.50	3016.95
413.69	3063.76
413.88	3178.45
414.07	3185.47
414.26	3307.18
414.45	3316.54
414.64	3379.73
414.83	3311.86
415.02	3363.35
415.22	3349.31
415.41	3452.29
415.60	3426.54
415.79	3510.80
415.98	3555.27
416.17	3508.46
416.36	3520.17
416.55	3557.61
416.74	3662.94
416.93	3728.47
417.12	3658.26
417.31	3805.71
417.50	3770.60
417.69	3988.27
417.88	3950.82
418.07	3859.54
418.26	3894.65
418.45	3885.29
418.64	4014.02
418.83	4021.04
419.02	3997.64
419.21	4072.53
419.39	4009.34
419.58	4231.69
419.77	4210.62
419.96	4201.26
420.15	4182.54
420.34	4290.20
420.53	4215.30
420.72	4322.97
420.91	4290.20
421.10	4376.80
421.29	4557.02
421.48	4269.14
421.67	4369.78
421.86	4360.42
422.05	4601.49
422.24	4308.93
422.43	4414.25
422.61	4496.17
422.80	4690.43
422.99	4657.67
423.18	4657.67
423.37	4641.28
423.56	4573.41
423.75	4531.28
423.94	4454.04
424.13	4236.37
424.32	4266.80
424.50	4617.88
424.69	4695.11
424.88	4636.60
425.07	4503.19
425.26	4496.17
425.45	4503.19
425.64	4664.69
425.83	4585.11
426.01	4788.74
426.20	4620.22
426.39	4685.75
426.58	4599.15
426.77	4683.41
426.96	4734.90
427.15	4685.75
427.33	4917.47
427.52	4762.99
427.71	4828.53
427.90	4999.38
428.09	4978.32
428.28	4940.87
428.46	5018.11
428.65	4828.53
428.84	5130.45
429.03	5125.77
429.22	4975.98
429.40	5151.52
429.59	5193.65
429.78	4884.70
429.97	4816.82
430.16	5043.85
430.34	5205.35
430.53	5345.78
430.72	5397.28
430.91	5245.14
431.10	5214.71
431.28	5336.42
431.47	5336.42
431.66	5493.24
431.85	5266.21
432.03	5591.54
432.22	5692.18
432.41	5483.88
432.60	5411.32
432.79	5607.92
432.97	5554.09
433.16	5701.54
433.35	5614.95
433.54	5764.74
433.72	5760.06
433.91	5748.36
434.10	5760.06
434.28	5706.23
434.47	5647.71
434.66	6033.90
434.85	5959.00
435.03	5907.51
435.22	5827.93
435.41	6069.01
435.59	6155.61
435.78	6043.26
435.97	5893.47
436.16	6036.24
436.34	6139.23
436.53	6094.76
436.72	6141.57
436.90	6120.50
437.09	6221.14
437.28	6085.39
437.46	6251.57
437.65	6146.25
437.84	6427.11
438.02	6204.76
438.21	6274.98
438.40	6422.43
438.58	6691.59
438.77	6604.99
438.96	6523.07
439.14	6649.46
439.33	6747.76
439.52	6597.97
439.70	6705.63
439.89	7054.37
440.08	6944.37
440.26	6860.11
440.45	6813.30
440.63	7117.57
440.82	7180.76
441.01	7066.08
441.19	7241.62
441.38	7363.33
441.57	7241.62
441.75	7377.37
441.94	7276.73
442.12	7389.07
442.31	7482.69
442.50	7531.84
442.68	7602.06
442.87	7368.01
443.05	7456.95
443.24	7758.88
443.43	7728.45
443.61	7494.40
443.80	7918.03
443.98	7665.25
444.17	7363.33
444.35	7756.54
444.54	7770.58
444.73	7784.62
444.91	7983.57
445.10	7941.44
445.28	7873.56
445.47	7616.10
445.65	7971.86
445.84	7840.79
446.02	7978.89
446.21	7747.17
446.39	7786.96
446.58	7946.12
446.77	7943.78
446.95	7634.83
447.14	8011.65
447.32	8098.25
447.51	8044.42
447.69	7976.55
447.88	8095.91
448.06	8023.36
448.25	8018.68
448.43	7981.23
448.62	7962.50
448.80	7852.50
448.99	8112.30
449.17	8383.80
449.36	8156.77
449.54	8383.80
449.73	8400.18
449.91	8638.92
450.10	8407.20
450.28	8489.12
450.46	8458.70
450.65	8601.47
450.83	8622.53
451.02	8491.46
451.20	8896.38
451.39	8830.84
451.57	8528.91
451.76	8446.99
451.94	8592.11
452.13	8805.10
452.31	8751.26
452.49	8582.74
452.68	8833.18
452.86	9064.89
453.05	8865.95
453.23	8872.97
453.42	8905.74
453.60	8980.64
453.78	9013.40
453.97	8821.48
454.15	8975.95
454.34	9018.08
454.52	8997.02
454.70	8936.17
454.89	9291.93
455.07	9275.54
455.26	9186.60
455.44	9284.91
455.62	9282.56
455.81	9404.27
455.99	9256.82
456.17	9423.00
456.36	9415.98
456.54	9577.47
456.73	9544.70
456.91	9865.36
457.09	9853.66
457.28	9790.46
457.46	9823.23
457.64	9685.14
457.83	9956.64
458.01	9633.64
458.19	9966.00
458.38	9935.57
458.56	9996.43
458.74	10008.13
458.93	10010.47
459.11	9947.28
459.29	10038.56
459.48	10174.31
459.66	10209.42
459.84	10209.42
460.03	10307.72
460.21	10326.44
460.39	10415.38
460.57	10307.72
460.76	10328.78
460.94	10438.79
461.12	10633.05
461.31	10310.06
461.49	10616.67
461.67	10434.11
461.85	10806.25
462.04	10752.42
462.22	10651.78
462.40	10675.18
462.59	10874.13
462.77	11026.26
462.95	10810.93
463.13	10998.18
463.32	11007.54
463.50	11103.50
463.68	11070.73
463.86	10782.85
464.05	10815.62
464.23	10993.50
464.41	11269.68
464.59	10920.94
464.78	10981.79
464.96	11154.99
465.14	10836.68
465.32	11396.07
465.50	11449.90
465.69	11412.45
465.87	11304.79
466.05	11356.28
466.23	11304.79
466.41	11323.51
466.60	11700.34
466.78	11332.87
466.96	11337.56
467.14	11356.28
467.32	11683.95
467.51	11555.22
467.69	11389.05
467.87	11719.06
468.05	11653.53
468.23	11857.15
468.41	11569.27
468.60	11941.41
468.78	12184.83
468.96	11707.36
469.14	11889.92
469.32	11866.52
469.50	11672.25
469.69	12128.66
469.87	12175.47
470.05	12372.07
470.23	12442.29
470.41	12245.68
470.59	12320.58
470.77	12224.62
470.95	12446.97
471.14	12491.44
471.32	12482.08
471.50	12805.07
471.68	12514.84
471.86	12695.07
472.04	12716.13
472.22	13050.83
472.40	12716.13
472.58	12671.66
472.77	13153.81
472.95	13102.32
473.13	13465.10
473.31	13142.11
473.49	13329.35
473.67	13317.65
473.85	13376.16
474.03	13568.09
474.21	13973.00
474.39	13760.01
474.57	13767.03
474.75	14003.43
474.93	13965.98
475.12	14136.84
475.30	14036.19
475.48	14363.87
475.66	14153.22
475.84	14562.81
476.02	14628.35
476.20	14640.05
476.38	14731.33
476.56	14855.38
476.74	14890.49
476.92	14916.23
477.10	14991.13
477.28	15218.16
477.46	14881.13
477.64	15061.35
477.82	15370.30
478.00	15875.85
478.18	15882.88
478.36	15896.92
478.54	16037.35
478.72	16072.46
478.90	15995.22
479.08	16329.92
479.26	16477.37
479.44	16402.47
479.62	16959.52
479.80	16982.93
479.98	16788.66
480.16	16940.80
480.34	16755.90
480.52	17263.79
480.70	17568.06
480.88	17273.15
481.06	17488.48
481.24	17483.80
481.41	17570.40
481.59	17996.38
481.77	18607.26
481.95	18204.69
482.13	18249.16
482.31	18380.23
482.49	18813.23
482.67	18860.04
482.85	19058.98
483.03	19499.00
483.21	19566.88
483.39	19559.86
483.57	19293.04
483.74	19697.95
483.92	20156.69
484.10	19922.64
484.28	20255.00
484.46	20648.21
484.64	20788.64
484.82	20680.97
485.00	20732.47
485.18	21020.35
485.35	21591.44
485.53	21390.16
485.71	21397.18
485.89	22136.79
486.07	21542.29
486.25	21759.96
486.43	22111.04
486.61	22214.02
486.78	22665.75
486.96	22553.40
487.14	23309.40
487.32	22778.09
487.50	23082.36
487.68	23332.80
487.85	23828.99
488.03	23920.28
488.21	24287.74
488.39	24039.64
488.57	24245.61
488.75	24355.61
488.92	24910.32
489.10	24711.38
489.28	24882.24
489.46	25123.31
489.64	25165.44
489.81	25436.94
489.99	25750.57
490.17	25846.54
490.35	26052.50
490.53	26260.81
490.70	26263.15
490.88	26721.90
491.06	26937.23
491.24	26871.69
491.41	26939.57
491.59	27044.89
491.77	27417.04
491.95	27711.94
492.13	28278.35
492.30	28011.53
492.48	27805.56
492.66	27950.68
492.84	28205.80
493.01	28746.46
493.19	28568.58
493.37	28570.92
493.54	29029.66
493.72	29380.74
493.90	29380.74
494.08	29261.38
494.25	29818.42
494.43	29638.20
494.61	30422.28
494.79	30277.17
494.96	30405.90
495.14	30190.57
495.32	30801.45
495.49	30675.06
495.67	30965.29
495.85	31861.71
496.02	31339.77
496.20	31349.14
496.38	31805.54
496.55	31672.13
496.73	32720.69
496.91	32219.81
497.09	32315.78
497.26	32634.09
497.44	32409.40
497.62	32776.86
497.79	33174.75
497.97	33001.55
498.14	33177.09
498.32	33762.23
498.50	33539.88
498.67	34036.07
498.85	33998.62
499.03	33958.83
499.20	34382.47
499.38	34298.21
499.56	35103.35
499.73	34728.87
499.91	35164.21
500.08	34815.47
500.26	34778.02
500.44	34756.96
500.61	35304.64
500.79	35051.86
500.97	35768.07
501.14	35924.88
501.32	36086.38
501.49	36119.15
501.67	35950.63
501.84	36486.61
502.02	36308.73
502.20	36364.90
502.37	36699.60
502.55	36388.31
502.72	36711.30
502.90	36919.61
503.07	36613.00
503.25	37181.75
503.43	36737.05
503.60	36959.40
503.78	37406.44
503.95	37909.66
504.13	37581.98
504.30	37762.20
504.48	37900.29
504.65	37963.49
504.83	38167.12
505.01	38625.86
505.18	37942.42
505.36	38829.49
505.53	38504.15
505.71	38848.21
505.88	38705.44
506.06	38384.79
506.23	39241.42
506.41	39395.90
506.58	39442.71
506.76	39262.49
506.93	39274.19
507.11	39372.49
507.28	39672.08
507.46	39959.97
507.63	40175.30
507.81	40280.62
507.98	39985.71
508.16	40002.10
508.33	40236.15
508.50	40474.88
508.68	40449.14
508.85	40935.97
509.03	40973.42
509.20	40851.71
509.38	41160.66
509.55	41546.85
509.73	41387.69
509.90	40917.25
510.08	41612.38
510.25	41390.03
510.42	41373.65
510.60	41855.80
510.77	41834.74
510.95	42080.49
511.12	41816.01
511.30	41930.70
511.47	42136.66
511.64	41933.04
511.82	42227.95
511.99	42534.56
512.17	42909.04
512.34	42426.89
512.51	43044.79
512.69	43147.78
512.86	43234.38
513.04	43735.25
513.21	43335.02
513.38	43299.91
513.56	43524.60
513.73	43161.82
513.90	43681.42
514.08	43885.04
514.25	43744.61
514.43	43924.83
514.60	44278.25
514.77	44552.10
514.95	44437.41
515.12	44301.66
515.29	44421.03
515.47	44746.36
515.64	44491.24
515.81	44449.11
515.99	45340.86
516.16	45399.37
516.33	45291.71
516.51	45551.51
516.68	45310.43
516.85	45216.81
517.03	45378.31
517.20	45338.52
517.37	46024.29
517.54	45724.71
517.72	45439.16
517.89	45794.92
518.06	46061.74
518.24	45586.61
518.41	45876.84
518.58	46305.16
518.75	46321.54
518.93	46206.86
519.10	46742.84
519.27	46483.04
519.45	46227.92
519.62	46560.28
519.79	46497.08
519.96	46368.35
520.14	47374.78
520.31	46770.93
520.48	47026.04
520.65	47093.92
520.83	47426.28
521.00	47323.29
521.17	47559.69
521.34	46976.89
521.52	47613.52
521.69	47344.36
521.86	47950.56
522.03	47908.43
522.20	48121.41
522.38	47929.49
522.55	48348.45
522.72	48086.31
522.89	48303.98
523.07	48563.78
523.24	48329.72
523.41	48505.26
523.58	48266.53
523.75	48498.24
523.92	48444.41
524.10	48458.45
524.27	48596.54
524.44	48821.23
524.61	49279.98
524.78	49127.84
524.96	49074.01
525.13	49188.70
525.30	49247.21
525.47	49359.56
525.64	49411.05
525.81	49378.28
525.98	49635.74
526.16	49715.32
526.33	49638.08
526.50	49743.41
526.67	49734.04
526.84	49682.55
527.01	49631.06
527.18	49846.39
527.36	49944.69
527.53	50412.80
527.70	50274.71
527.87	50534.51
528.04	50024.27
528.21	50363.65
528.38	49975.12
528.55	50431.52
528.72	50059.38
528.89	50597.70
529.07	50571.96
529.24	50347.26
529.41	50841.12
529.58	50632.81
529.75	50710.05
529.92	50431.52
530.09	50333.22
530.26	50745.15
530.43	51103.26
530.60	50838.78
530.77	51138.36
530.94	51323.27
531.11	51063.47
531.28	50696.00
531.46	50883.25
531.63	51299.86
531.80	51313.90
531.97	51290.50
532.14	51615.83
532.31	51257.73
532.48	51416.89
532.65	51751.59
532.82	51236.67
532.99	51311.56
533.16	51173.47
533.33	51793.71
533.50	51856.91
533.67	51634.56
533.84	51594.77
534.01	52065.22
534.18	51667.33
534.35	51950.53
534.52	51669.67
534.69	52133.09
534.86	52451.41
535.03	52053.51
535.20	52444.38
535.37	52428.00
535.54	52205.65
535.71	51906.06
535.88	52168.20
536.05	52486.51
536.22	52734.61
536.38	52811.85
536.55	52577.79
536.72	52685.46
536.89	52205.65
537.06	52261.82
537.23	52488.85
537.40	52395.23
537.57	52570.77
537.74	52811.85
537.91	52734.61
538.08	53055.26
538.25	52739.29
538.42	53097.39
538.59	53099.73
538.75	52725.25
538.92	53015.47
539.09	52844.62
539.26	53354.85
539.43	53333.79
539.60	53244.85
539.77	53179.31
539.94	53516.35
540.11	53303.36
540.28	53268.25
540.44	53450.81
540.61	53434.43
540.78	53471.88
540.95	53708.27
541.12	53633.38
541.29	53574.86
541.46	53506.99
541.62	53394.64
541.79	53778.49
541.96	53272.93
542.13	53649.76
542.30	53869.77
542.47	54120.21
542.63	53937.65
542.80	53993.82
542.97	54040.63
543.14	54387.03
543.31	54082.76
543.48	53996.16
543.64	54405.75
543.81	54522.78
543.98	54684.28
544.15	54237.23
544.32	54543.84
544.48	54831.73
544.65	54450.22
544.82	54377.67
544.99	54372.99
545.16	54152.97
545.32	54216.17
545.49	54880.88
545.66	54894.92
545.83	54674.91
546.00	54621.08
546.16	54677.25
546.33	54595.34
546.50	54490.01
546.67	54529.80
546.83	54380.01
547.00	54639.81
547.17	54731.09
547.34	54717.04
547.50	54925.35
547.67	55016.63
547.84	54990.89
548.00	55070.46
548.17	55058.76
548.34	54864.50
548.51	55199.19
548.67	55348.99
548.84	55260.05
549.01	55253.03
549.18	55079.83
549.34	55339.63
549.51	55229.62
549.68	55117.28
549.84	55131.32
550.01	55346.65
550.18	55021.31
550.34	55337.29
550.51	55547.93
550.68	55585.38
550.84	55082.17
551.01	55365.37
551.18	55246.00
551.34	55215.58
551.51	55569.00
551.68	55337.29
551.84	55660.28
552.01	55491.76
552.18	55636.87
552.34	55690.71
552.51	55774.97
552.68	55702.41
552.84	55686.03
553.01	55620.49
553.18	55849.86
553.34	55667.30
553.51	55735.18
553.67	55955.19
553.84	55863.91
554.01	55906.04
554.17	55835.82
554.34	55781.99
554.51	55786.67
554.67	55842.84
554.84	55978.59
555.00	55800.71
555.17	56058.17
555.33	56095.62
555.50	56034.77
555.67	55938.80
555.83	56025.40
556.00	55994.98
556.16	56175.20
556.33	55887.31
556.50	56177.54
556.66	56055.83
556.83	55985.61
556.99	56364.78
557.16	56481.81
557.32	56409.25
557.49	56397.55
557.65	55941.14
557.82	56079.24
557.98	56299.25
558.15	56226.69
558.32	56460.74
558.48	56301.59
558.65	56568.41
558.81	56622.24
558.98	56484.15
559.14	56322.65
559.31	56385.85
559.47	56392.87
559.64	56559.05
559.80	56605.86
559.97	56573.09
560.13	56493.51
560.30	56617.56
560.46	56582.45
560.63	56505.21
560.79	56411.59
560.96	56687.78
561.12	56610.54
561.29	56577.77
561.45	56535.64
561.61	56694.80
561.78	56725.22
561.94	56917.15
562.11	56772.03
562.27	56694.80
562.44	56573.09
562.60	56746.29
562.77	56662.03
562.93	56636.28
563.10	56870.34
563.26	56402.23
563.42	57219.08
563.59	56907.79
563.75	56818.84
563.92	56952.26
564.08	56442.02
564.24	56605.86
564.41	56797.78
564.57	56727.56
564.74	56757.99
564.90	56844.59
565.07	56987.36
565.23	56935.87
565.39	56989.70
565.56	57118.43
565.72	56484.15
565.88	56966.30
566.05	56795.44
566.21	56872.68
566.38	56753.31
566.54	56956.94
566.70	57146.52
566.87	57202.69
567.03	56898.42
567.19	57148.86
567.36	56940.55
567.52	57031.83
567.68	56973.32
567.85	57003.75
568.01	57078.64
568.17	57043.54
568.34	57247.16
568.50	57029.49
568.66	56940.55
568.83	57130.14
568.99	56772.03
569.15	57041.20
569.32	57036.51
569.48	56952.26
569.64	57233.12
569.81	57116.09
569.97	57015.45
570.13	57293.97
570.30	56882.04
570.46	57097.37
570.62	57233.12
570.78	57155.88
570.95	57076.30
571.11	56994.39
571.27	56879.70
571.43	57066.94
571.60	57176.95
571.76	57109.07
571.92	57057.58
572.09	57279.93
572.25	57439.09
572.41	57242.48
572.57	56910.13
572.74	57263.55
572.90	56956.94
573.06	57188.65
573.22	56975.66
573.38	57031.83
573.55	57116.09
573.71	57708.25
573.87	57406.32
574.03	57130.14
574.20	57415.68
574.36	57125.46
574.52	57181.63
574.68	57268.23
574.84	57130.14
575.01	57322.06
575.17	57216.74
575.33	57256.53
575.49	57242.48
575.65	57254.18
575.82	57642.71
575.98	57214.40
576.14	57179.29
576.30	57352.49
576.46	57144.18
576.62	57008.43
576.79	57106.73
576.95	56907.79
577.11	57303.34
577.27	57389.94
577.43	57097.37
577.59	57399.30
577.75	57502.28
577.92	57244.82
578.08	57411.00
578.24	57174.61
578.40	57394.62
578.56	57120.77
578.72	57413.34
578.88	57471.85
579.04	57443.77
579.21	57303.34
579.37	57389.94
579.53	57345.47
579.69	57228.44
579.85	57172.27
580.01	57228.44
580.17	57172.27
580.33	57333.76
580.49	57338.44
580.65	57485.90
580.82	57375.89
580.98	57425.04
581.14	57188.65
581.30	57616.97
581.46	57212.06
581.62	57179.29
581.78	57088.01
581.94	57446.11
582.10	57336.10
582.26	57275.25
582.42	57378.23
582.58	57478.88
582.74	57670.80
582.90	57530.37
583.06	57539.73
583.22	57249.50
583.38	57516.32
583.54	57244.82
583.70	57202.69
583.86	57375.89
584.02	57165.24
584.18	57457.81
584.34	57605.26
584.50	57628.67
584.66	57443.77
584.82	57539.73
584.98	57382.91
585.14	57216.74
585.30	57127.80
585.46	57298.65
585.62	57209.71
585.78	57389.94
585.94	57256.53
586.10	57528.03
586.26	57289.29
586.42	57535.05
586.58	57661.44
586.74	57272.91
586.90	57200.35
587.06	57272.91
587.22	57263.55
587.38	57242.48
587.54	57556.11
587.70	57778.46
587.86	57586.54
588.02	57668.46
588.18	57338.44
588.34	57717.61
588.49	57598.24
588.65	57322.06
588.81	57373.55
588.97	57607.61
589.13	57464.83
589.29	57441.43
589.45	57691.86
