SpectraSuite Data File
++++++++++++++++++++++++++++++++++++
Date: Fri Oct 18 13:54:31 GMT-05:00 2013
User: bianchi
Dark Spectrum Present: No
Reference Spectrum Present: No
Number of Sampled Component Spectra: 1
Spectrometers: USB2+H05261
Integration Time (usec): 100000 (USB2+H05261)
Spectra Averaged: 1 (USB2+H05261)
Boxcar Smoothing: 0 (USB2+H05261)
Correct for Electrical Dark: No (USB2+H05261)
Strobe/Lamp Enabled: No (USB2+H05261)
Correct for Detector Non-linearity: No (USB2+H05261)
Correct for Stray Light: No (USB2+H05261)
Number of Pixels in Processed Spectrum: 2048
>>>>>Begin Processed Spectral Data<<<<<
365.73	0.00
365.92	0.00
366.12	0.00
366.32	0.00
366.52	0.00
366.72	0.00
366.91	0.00
367.11	0.00
367.31	0.00
367.51	0.00
367.70	0.00
367.90	0.00
368.10	0.00
368.30	0.00
368.49	0.00
368.69	0.00
368.89	0.00
369.09	0.00
369.28	0.00
369.48	0.00
369.68	0.00
369.87	0.00
370.07	0.00
370.27	0.00
370.47	0.00
370.66	315.97
370.86	301.93
371.06	402.57
371.25	369.80
371.45	322.99
371.65	409.59
371.84	344.06
372.04	395.55
372.24	360.44
372.44	362.78
372.63	393.21
372.83	437.68
373.03	423.64
373.22	414.27
373.42	365.12
373.62	414.27
373.81	372.15
374.01	493.85
374.21	386.19
374.40	454.06
374.60	428.32
374.79	449.38
374.99	535.98
375.19	477.47
375.38	533.64
375.58	517.26
375.78	540.66
375.97	587.47
376.17	660.03
376.37	514.92
376.56	505.56
376.76	552.37
376.95	535.98
377.15	547.69
377.35	573.43
377.54	547.69
377.74	538.32
377.93	526.62
378.13	550.03
378.33	538.32
378.52	540.66
378.72	519.60
378.91	615.56
379.11	585.13
379.31	634.29
379.50	561.73
379.70	706.84
379.89	669.39
380.09	599.18
380.28	543.00
380.48	524.28
380.68	641.31
380.87	601.52
381.07	587.47
381.26	688.12
381.46	629.60
381.65	653.01
381.85	678.76
382.04	664.71
382.24	751.31
382.43	671.73
382.63	685.78
382.83	725.57
383.02	657.69
383.22	723.23
383.41	716.20
383.61	788.76
383.80	809.83
384.00	737.27
384.19	667.05
384.39	788.76
384.58	788.76
384.78	840.25
384.97	751.31
385.17	748.97
385.36	760.67
385.56	819.19
385.75	786.42
385.95	812.17
386.14	868.34
386.34	912.81
386.53	807.48
386.72	882.38
386.92	894.08
387.11	854.30
387.31	896.43
387.50	781.74
387.70	877.70
387.89	847.27
388.09	826.21
388.28	873.02
388.48	868.34
388.67	1011.11
388.86	891.74
389.06	954.94
389.25	961.96
389.45	901.11
389.64	999.41
389.84	1055.58
390.03	1004.09
390.22	933.87
390.42	1041.54
390.61	964.30
390.81	1050.90
391.00	957.28
391.19	1025.15
391.39	1032.18
391.58	1015.79
391.78	1114.10
391.97	1086.01
392.16	1046.22
392.36	1069.62
392.55	1095.37
392.75	1053.24
392.94	1121.12
393.13	1219.42
393.33	1123.46
393.52	1174.95
393.71	1193.67
393.91	1224.10
394.10	1205.38
394.29	1149.20
394.49	1212.40
394.68	1212.40
394.88	1268.57
395.07	1289.64
395.26	1228.78
395.46	1235.80
395.65	1294.32
395.84	1310.70
396.04	1338.79
396.23	1289.64
396.42	1270.91
396.62	1249.85
396.81	1221.76
397.00	1282.61
397.19	1474.54
397.39	1411.34
397.58	1317.72
397.77	1352.83
397.97	1383.26
398.16	1343.47
398.35	1490.92
398.55	1406.66
398.74	1537.73
398.93	1540.07
399.12	1458.15
399.32	1488.58
399.51	1533.05
399.70	1617.31
399.90	1537.73
400.09	1629.01
400.28	1607.95
400.47	1661.78
400.67	1650.08
400.86	1706.25
401.05	1544.75
401.24	1657.10
401.44	1739.02
401.63	1769.44
401.82	1682.85
402.01	1685.19
402.21	1713.27
402.40	1668.80
402.59	1762.42
402.78	1694.55
402.97	1734.34
403.17	1844.34
403.36	1839.66
403.55	1837.32
403.74	1947.33
403.93	1909.88
404.13	1846.68
404.32	1879.45
404.51	1944.99
404.70	2010.52
404.89	1867.75
405.09	2073.71
405.28	2017.54
405.47	2012.86
405.66	2022.22
405.85	2090.10
406.05	2054.99
406.24	2160.31
406.43	2190.74
406.62	2202.44
406.81	2340.54
407.00	2132.23
407.20	2076.06
407.39	2242.23
407.58	2267.98
407.77	2375.64
407.96	2335.85
408.15	2401.39
408.34	2298.41
408.54	2380.32
408.73	2303.09
408.92	2385.01
409.11	2476.29
409.30	2417.77
409.49	2424.80
409.68	2532.46
409.87	2518.42
410.07	2506.71
410.26	2544.16
410.45	2612.04
410.64	2637.78
410.83	2672.89
411.02	2647.15
411.21	2729.06
411.40	2642.46
411.59	2808.64
411.78	2815.66
411.98	2825.03
412.17	2862.48
412.36	2818.00
412.55	2913.97
412.74	3023.97
412.93	2981.84
413.12	2951.42
413.31	3145.68
413.50	3084.83
413.69	3016.95
413.88	3220.58
414.07	3145.68
414.26	3187.81
414.45	3253.34
414.64	3276.75
414.83	3328.24
415.02	3272.07
415.22	3372.71
415.41	3506.12
415.60	3297.81
415.79	3585.70
415.98	3566.98
416.17	3463.99
416.36	3541.23
416.55	3590.38
416.74	3672.30
416.93	3686.34
417.12	3763.58
417.31	3733.15
417.50	3702.73
417.69	3810.39
417.88	3932.10
418.07	3906.35
418.26	3880.61
418.45	3936.78
418.64	4152.11
418.83	3953.16
419.02	4018.70
419.21	4002.32
419.39	4088.92
419.58	3843.16
419.77	4009.34
419.96	4091.26
420.15	4077.21
420.34	4102.96
420.53	4250.41
420.72	4262.12
420.91	4278.50
421.10	4306.59
421.29	4344.03
421.48	4372.12
421.67	4252.75
421.86	4315.95
422.05	4334.67
422.24	4540.64
422.43	4486.81
422.61	4400.21
422.80	4404.89
422.99	4482.13
423.18	4381.48
423.37	4788.74
423.56	4496.17
423.75	4442.34
423.94	4360.42
424.13	4149.77
424.32	4292.54
424.50	4610.86
424.69	4575.75
424.88	4636.60
425.07	4608.51
425.26	4484.47
425.45	4486.81
425.64	4484.47
425.83	4557.02
426.01	4706.82
426.20	4531.28
426.39	4645.96
426.58	4500.85
426.77	4603.83
426.96	4802.78
427.15	4704.48
427.33	4784.06
427.52	4695.11
427.71	4854.27
427.90	4891.72
428.09	4854.27
428.28	4891.72
428.46	5013.43
428.65	4884.70
428.84	5062.58
429.03	5212.37
429.22	4847.25
429.40	5046.20
429.59	5046.20
429.78	4657.67
429.97	4753.63
430.16	4868.31
430.34	5046.20
430.53	5343.44
430.72	5060.24
430.91	5076.62
431.10	5198.33
431.28	5284.93
431.47	5533.03
431.66	5355.15
431.85	5341.10
432.03	5483.88
432.22	5650.05
432.41	5343.44
432.60	5481.53
432.79	5530.69
432.97	5593.88
433.16	5598.56
433.35	5521.32
433.54	5699.20
433.72	5692.18
433.91	5533.03
434.10	5722.61
434.28	5621.97
434.47	5764.74
434.66	5872.40
434.85	5778.78
435.03	5879.43
435.22	5689.84
435.41	6057.31
435.59	5916.87
435.78	6040.92
435.97	5961.34
436.16	5844.32
436.34	5781.12
436.53	5832.62
436.72	6092.41
436.90	6050.28
437.09	6200.08
437.28	6094.76
437.46	6235.19
437.65	6211.78
437.84	6396.68
438.02	6312.42
438.21	6202.42
438.40	6282.00
438.58	6525.41
438.77	6441.15
438.96	6525.41
439.14	6569.88
439.33	6621.38
439.52	6754.79
439.70	6597.97
439.89	6682.23
440.08	6715.00
440.26	6803.94
440.45	6909.26
440.63	6909.26
440.82	7037.99
441.01	7000.54
441.19	7126.93
441.38	7054.37
441.57	7309.49
441.75	7339.92
441.94	7419.50
442.12	7330.56
442.31	7583.34
442.50	7531.84
442.68	7595.04
442.87	7492.05
443.05	7503.76
443.24	7548.23
443.43	7632.49
443.61	7754.19
443.80	7896.97
443.98	7485.03
444.17	7281.41
444.35	7740.15
444.54	7850.16
444.73	7648.87
444.91	7637.17
445.10	7730.79
445.28	7651.21
445.47	7627.81
445.65	7754.19
445.84	7754.19
446.02	7782.28
446.21	7749.51
446.39	7852.50
446.58	7946.12
446.77	8002.29
446.95	7915.69
447.14	7990.59
447.32	7960.16
447.51	7793.98
447.69	7936.76
447.88	7911.01
448.06	7955.48
448.25	7859.52
448.43	8037.40
448.62	7833.77
448.80	7911.01
448.99	7892.29
449.17	8177.83
449.36	8119.32
449.54	8203.58
449.73	8383.80
449.91	8301.88
450.10	8262.09
450.28	8578.06
450.46	8290.18
450.65	8390.82
450.83	8552.32
451.02	8463.38
451.20	8542.96
451.39	8634.24
451.57	8203.58
451.76	8404.86
451.94	8617.85
452.13	8854.25
452.31	8798.07
452.49	8531.25
452.68	8802.75
452.86	8716.16
453.05	8828.50
453.23	8716.16
453.42	8837.86
453.60	8601.47
453.78	8617.85
453.97	8849.57
454.15	8753.60
454.34	8861.27
454.52	8980.64
454.70	8966.59
454.89	9043.83
455.07	9132.77
455.26	9053.19
455.44	9387.89
455.62	9245.12
455.81	9296.61
455.99	9104.68
456.17	9554.07
456.36	9392.57
456.54	9240.44
456.73	9303.63
456.91	9495.55
457.09	9666.41
457.28	9844.29
457.46	9619.60
457.64	9708.54
457.83	9657.05
458.01	9619.60
458.19	9802.16
458.38	9818.55
458.56	9973.02
458.74	10001.11
458.93	10059.62
459.11	9926.21
459.29	9820.89
459.48	10050.26
459.66	9970.68
459.84	10186.01
460.03	10277.29
460.21	10218.78
460.39	10178.99
460.57	10129.84
460.76	10373.25
460.94	10310.06
461.12	10277.29
461.31	10373.25
461.49	10221.12
461.67	10551.14
461.85	10607.31
462.04	10658.80
462.22	11171.38
462.40	10729.02
462.59	10501.98
462.77	10705.61
462.95	10623.69
463.13	10677.52
463.32	10658.80
463.50	10972.43
463.68	10923.28
463.86	10977.11
464.05	10768.80
464.23	10689.23
464.41	10841.36
464.59	10604.97
464.78	11103.50
464.96	11040.31
465.14	10754.76
465.32	11201.80
465.50	11250.96
465.69	11363.30
465.87	11213.51
466.05	11234.57
466.23	11302.45
466.41	11356.28
466.60	11538.84
466.78	10991.16
466.96	11225.21
467.14	11192.44
467.32	11555.22
467.51	11438.20
467.69	11344.58
467.87	11477.99
468.05	11597.35
468.23	11297.77
468.41	11424.15
468.60	11555.22
468.78	12011.63
468.96	11676.93
469.14	11915.67
469.32	12098.23
469.50	11683.95
469.69	11875.88
469.87	12233.98
470.05	12077.16
470.23	12102.91
470.41	12187.17
470.59	12116.95
470.77	12135.68
470.95	12224.62
471.14	12526.55
471.32	12212.92
471.50	12491.44
471.68	12578.04
471.86	12514.84
472.04	12744.22
472.22	12898.69
472.40	12669.32
472.58	12961.89
472.77	12554.63
472.95	13324.67
473.13	13429.99
473.31	12945.50
473.49	12837.84
473.67	13184.24
473.85	12994.65
474.03	13437.02
474.21	13310.63
474.39	13439.36
474.57	13624.26
474.75	13994.06
474.93	13998.74
475.12	13664.05
475.30	13865.33
475.48	13628.94
475.66	13816.18
475.84	14195.35
476.02	14249.18
476.20	14176.62
476.38	14396.64
476.56	14710.27
476.74	14553.45
476.92	14555.79
477.10	14862.40
477.28	14848.36
477.46	14731.33
477.64	15037.94
477.82	15211.14
478.00	15648.82
478.18	15351.57
478.36	15733.08
478.54	15967.13
478.72	16093.52
478.90	15955.43
479.08	16006.92
479.26	16496.10
479.44	16479.71
479.62	16638.87
479.80	16631.85
479.98	16718.45
480.16	16706.74
480.34	16844.84
480.52	17135.06
480.70	17266.13
480.88	16802.71
481.06	17331.67
481.24	17579.76
481.41	17696.79
481.59	17741.26
481.77	18288.95
481.95	18090.00
482.13	18417.68
482.31	18118.09
482.49	18621.30
482.67	18623.64
482.85	18803.86
483.03	18991.11
483.21	19307.08
483.39	19438.15
483.57	19351.55
483.74	19520.07
483.92	19620.71
484.10	19571.56
484.28	20297.13
484.46	20168.40
484.64	20886.94
484.82	20343.94
485.00	20622.46
485.18	21106.95
485.35	21429.94
485.53	21259.09
485.71	21310.58
485.89	21659.32
486.07	21399.52
486.25	21621.87
486.43	21741.24
486.61	22012.74
486.78	22075.93
486.96	22518.29
487.14	22747.67
487.32	23061.30
487.50	23000.44
487.68	23026.19
487.85	23744.73
488.03	23400.68
488.21	23616.01
488.39	23922.62
488.57	24079.43
488.75	24250.29
488.92	24491.37
489.10	24479.66
489.28	24903.30
489.46	25413.54
489.64	24919.68
489.81	25710.78
489.99	25340.98
490.17	25420.56
490.35	25921.43
490.53	25930.80
490.70	26368.48
490.88	26031.44
491.06	26719.56
491.24	26639.98
491.41	26534.65
491.59	26815.52
491.77	26986.38
491.95	27491.93
492.13	27459.16
492.30	27318.73
492.48	27833.65
492.66	27896.85
492.84	27791.52
493.01	28100.47
493.19	28336.87
493.37	28587.30
493.54	28795.61
493.72	28875.19
493.90	29125.63
494.08	29219.25
494.25	29383.09
494.43	29567.99
494.61	29961.20
494.79	29883.96
494.96	30148.44
495.14	30003.33
495.32	30490.16
495.49	29947.15
495.67	30749.96
495.85	30742.94
496.02	31199.34
496.20	31274.24
496.38	31096.36
496.55	31152.53
496.73	31665.11
496.91	31644.04
497.09	32023.21
497.26	32388.33
497.44	32039.59
497.62	32051.30
497.79	32751.12
497.97	32573.24
498.14	32971.13
498.32	33287.10
498.50	33221.56
498.67	33352.63
498.85	33546.90
499.03	33446.26
499.20	33570.30
499.38	33586.69
499.56	34326.30
499.73	34394.17
499.91	34092.24
500.08	34497.16
500.26	34352.04
500.44	34352.04
500.61	34780.36
500.79	34485.45
500.97	34923.13
501.14	35466.14
501.32	35445.07
501.49	35180.59
501.67	35587.85
501.84	35543.38
502.02	35948.29
502.20	35768.07
502.37	36512.36
502.55	36189.36
502.72	35798.49
502.90	36011.48
503.07	36694.92
503.25	36587.25
503.43	36451.50
503.60	37146.64
503.78	37106.85
503.95	36629.38
504.13	37198.13
504.30	37319.84
504.48	37258.99
504.65	37495.38
504.83	37900.29
505.01	37581.98
505.18	37879.23
505.36	38047.75
505.53	37764.54
505.71	37729.44
505.88	38356.70
506.06	37811.35
506.23	38682.03
506.41	38738.21
506.58	38721.82
506.76	38237.33
506.93	38843.53
507.11	38953.54
507.28	39033.11
507.46	39136.10
507.63	38969.92
507.81	39819.53
507.98	39180.57
508.16	39632.29
508.33	39917.84
508.50	39634.63
508.68	39452.07
508.85	40105.08
509.03	40243.17
509.20	40318.07
509.38	40465.52
509.55	40673.83
509.73	40732.34
509.90	40706.60
510.08	41134.92
510.25	40624.68
510.42	41226.20
510.60	41343.22
510.77	41436.84
510.95	41773.88
511.12	41528.13
511.30	41448.55
511.47	41808.99
511.64	42190.50
511.82	42017.30
511.99	42344.97
512.17	42047.72
512.34	41982.19
512.51	42478.38
512.69	42649.24
512.86	42234.97
513.04	42593.07
513.21	43014.37
513.38	43278.85
513.56	43028.41
513.73	43105.65
513.90	43023.73
514.08	43161.82
514.25	43688.44
514.43	43744.61
514.60	43828.87
514.77	43838.23
514.95	44149.53
515.12	43800.79
515.29	43751.63
515.47	44320.38
515.64	44406.98
515.81	44161.23
515.99	44638.70
516.16	44942.97
516.33	44439.75
516.51	44790.83
516.68	44081.65
516.85	44877.43
517.03	45132.55
517.20	44844.66
517.37	44973.39
517.54	45277.66
517.72	44989.78
517.89	45357.24
518.06	45029.57
518.24	45603.00
518.41	45450.86
518.58	45390.01
518.75	45457.88
518.93	45757.47
519.10	45717.68
519.27	46000.89
519.45	45780.88
519.62	45982.16
519.79	46265.37
519.96	46298.14
520.14	46195.15
520.31	46330.90
520.48	46487.72
520.65	47040.09
520.83	46625.81
521.00	46815.40
521.17	46511.13
521.34	46752.20
521.52	46834.12
521.69	47049.45
521.86	47360.74
522.03	47454.36
522.20	47538.62
522.38	47669.69
522.55	47262.44
522.72	47800.76
522.89	47711.82
523.07	48128.44
523.24	47468.40
523.41	48156.52
523.58	47517.56
523.75	48053.54
523.92	48182.27
524.10	47791.40
524.27	48177.59
524.44	48505.26
524.61	48509.94
524.78	48523.99
524.96	48664.42
525.13	48804.85
525.30	48657.40
525.47	48587.18
525.64	48837.62
525.81	48985.07
525.98	49015.50
526.16	48851.66
526.33	49310.41
526.50	49544.46
526.67	49287.00
526.84	49298.70
527.01	49263.60
527.18	49556.16
527.36	49572.55
527.53	49844.05
527.70	50094.49
527.87	49986.82
528.04	49670.85
528.21	49853.41
528.38	49315.09
528.55	49883.84
528.72	49797.24
528.89	50021.93
529.07	49982.14
529.24	50155.34
529.41	50309.82
529.58	50255.98
529.75	50071.08
529.92	49993.84
530.09	50394.07
530.26	50270.03
530.43	49951.71
530.60	50457.27
530.77	50553.23
530.94	50644.51
531.11	50405.78
531.28	50712.39
531.46	50679.62
531.63	50733.45
531.80	50773.24
531.97	51360.72
532.14	51049.42
532.31	50972.19
532.48	50937.08
532.65	50897.29
532.82	50944.10
532.99	51084.53
533.16	51009.64
533.33	51337.31
533.50	51526.89
533.67	51594.77
533.84	51398.16
534.01	51428.59
534.18	51213.26
534.35	51580.73
534.52	51711.80
534.69	51915.42
534.86	51852.23
535.03	51625.20
535.20	51625.20
535.37	51880.31
535.54	51896.70
535.71	51767.97
535.88	52191.61
536.05	51903.72
536.22	52004.36
536.38	52135.43
536.55	52102.67
536.72	51835.84
536.89	51924.78
537.06	52186.92
537.23	52161.18
537.40	52002.02
537.57	52095.64
537.74	51952.87
537.91	52849.30
538.08	52652.69
538.25	52420.98
538.42	52402.25
538.59	52809.51
538.75	52266.50
538.92	52502.90
539.09	52697.16
539.26	53022.50
539.43	52896.11
539.60	52877.38
539.77	52779.08
539.94	52987.39
540.11	52720.57
540.28	52830.57
540.44	53038.88
540.61	52711.20
540.78	52842.27
540.95	52940.58
541.12	52985.05
541.29	53258.89
541.46	53029.52
541.62	53172.29
541.79	53286.98
541.96	52809.51
542.13	53106.76
542.30	53244.85
542.47	53420.39
542.63	53392.30
542.80	53722.32
542.97	53354.85
543.14	53785.51
543.31	53387.62
543.48	53682.53
543.64	53801.89
543.81	53851.05
543.98	53844.02
544.15	53989.14
544.32	53939.99
544.48	54162.34
544.65	53872.11
544.82	53647.42
544.99	53712.95
545.16	54150.63
545.32	54129.57
545.49	54546.18
545.66	54372.99
545.83	54068.72
546.00	54213.83
546.16	54143.61
546.33	54099.14
546.50	53708.27
546.67	54183.40
546.83	53801.89
547.00	54337.88
547.17	54342.56
547.34	54412.77
547.50	54511.08
547.67	54780.24
547.84	54169.36
548.00	54412.77
548.17	54541.50
548.34	54777.90
548.51	54789.60
548.67	54700.66
548.84	54731.09
549.01	54707.68
549.18	54878.54
549.34	54707.68
549.51	54770.88
549.68	54789.60
549.84	54707.68
550.01	54791.94
550.18	54728.75
550.34	54885.56
550.51	54995.57
550.68	54981.52
550.84	54688.96
551.01	54958.12
551.18	54646.83
551.34	54791.94
551.51	54930.03
551.68	55018.97
551.84	54967.48
552.01	55199.19
552.18	55079.83
552.34	54995.57
552.51	55257.71
552.68	54925.35
552.84	55037.70
553.01	55311.54
553.18	55306.86
553.34	55339.63
553.51	55395.80
553.67	55379.42
553.84	55447.29
554.01	55526.87
554.17	55657.94
554.34	55220.26
554.51	55344.31
554.67	55583.04
554.84	55613.47
555.00	55625.17
555.17	55735.18
555.33	55604.11
555.50	55587.72
555.67	55557.30
555.83	55744.54
556.00	55526.87
556.16	55725.81
556.33	55442.61
556.50	55480.06
556.66	55714.11
556.83	55458.99
556.99	55845.18
557.16	56182.22
557.32	55903.70
557.49	55969.23
557.65	55629.85
557.82	55697.73
557.98	55725.81
558.15	55962.21
558.32	56135.41
558.48	55943.48
558.65	56034.77
558.81	55957.53
558.98	55987.95
559.14	56128.39
559.31	56009.02
559.47	55922.42
559.64	55964.55
559.80	56161.15
559.97	55985.61
560.13	55774.97
560.30	56055.83
560.46	56095.62
560.63	55812.41
560.79	56128.39
560.96	56406.91
561.12	56362.44
561.29	56142.43
561.45	56048.81
561.61	56219.67
561.78	56404.57
561.94	56308.61
562.11	56350.74
562.27	56397.55
562.44	56149.45
562.60	56404.57
562.77	55941.14
562.93	55976.25
563.10	56376.48
563.26	56212.65
563.42	56594.15
563.59	56552.02
563.75	56388.19
563.92	56484.15
564.08	56243.07
564.24	56357.76
564.41	56334.35
564.57	56432.66
564.74	56388.19
564.90	56423.29
565.07	56327.33
565.23	56516.92
565.39	56474.79
565.56	56610.54
565.72	56294.56
565.88	56346.06
566.05	56537.98
566.21	56357.76
566.38	56355.42
566.54	56498.19
566.70	56528.62
566.87	56905.44
567.03	56631.60
567.19	56655.01
567.36	56486.49
567.52	56507.55
567.68	56591.81
567.85	56324.99
568.01	56685.43
568.17	56577.77
568.34	56598.83
568.50	56542.66
568.66	56680.75
568.83	56603.52
568.99	56493.51
569.15	56472.45
569.32	56486.49
569.48	56453.72
569.64	56559.05
569.81	56678.41
569.97	56388.19
570.13	56877.36
570.30	56645.65
570.46	56774.37
570.62	56605.86
570.78	56690.12
570.95	56601.18
571.11	56804.80
571.27	56282.86
571.43	56725.22
571.60	56762.67
571.76	56690.12
571.92	56680.75
572.09	56729.90
572.25	56884.38
572.41	56718.20
572.57	56722.88
572.74	56748.63
572.90	56711.18
573.06	56362.44
573.22	56851.61
573.38	56898.42
573.55	56697.14
573.71	57125.46
573.87	56987.36
574.03	56875.02
574.20	57017.79
574.36	56851.61
574.52	56638.62
574.68	56577.77
574.84	56793.10
575.01	56772.03
575.17	56858.63
575.33	56889.06
575.49	56767.35
575.65	56839.91
575.82	56921.83
575.98	56788.42
576.14	56830.55
576.30	57006.09
576.46	56919.49
576.62	56706.50
576.79	56865.66
576.95	56748.63
577.11	56676.07
577.27	56748.63
577.43	56931.19
577.59	56781.40
577.75	56928.85
577.92	56844.59
578.08	56697.14
578.24	56757.99
578.40	56767.35
578.56	56647.99
578.72	56910.13
578.88	56816.50
579.04	57066.94
579.21	56882.04
579.37	56746.29
579.53	57064.60
579.69	56980.34
579.85	56891.40
580.01	56856.29
580.17	56713.52
580.33	56779.06
580.49	56645.65
580.65	56956.94
580.82	57116.09
580.98	56952.26
581.14	56830.55
581.30	56966.30
581.46	56797.78
581.62	56800.12
581.78	56523.94
581.94	56938.21
582.10	56725.22
582.26	57095.03
582.42	56912.47
582.58	57137.16
582.74	57013.11
582.90	57099.71
583.06	57013.11
583.22	56849.27
583.38	56851.61
583.54	56868.00
583.70	56933.53
583.86	56898.42
584.02	56687.78
584.18	57251.84
584.34	56844.59
584.50	57055.24
584.66	56928.85
584.82	56830.55
584.98	56722.88
585.14	56835.23
585.30	56690.12
585.46	56938.21
585.62	56980.34
585.78	56882.04
585.94	56975.66
586.10	57167.58
586.26	57195.67
586.42	57176.95
586.58	57179.29
586.74	56825.87
586.90	56907.79
587.06	57029.49
587.22	56992.04
587.38	56886.72
587.54	57258.87
587.70	57293.97
587.86	57193.33
588.02	57155.88
588.18	56970.98
588.34	56898.42
588.49	56877.36
588.65	56804.80
588.81	57165.24
588.97	57099.71
589.13	56863.32
589.29	57137.16
589.45	57146.52
589.61	57403.98
