SpectraSuite Data File
++++++++++++++++++++++++++++++++++++
Date: Fri Oct 18 13:58:31 GMT-05:00 2013
User: bianchi
Dark Spectrum Present: No
Reference Spectrum Present: No
Number of Sampled Component Spectra: 1
Spectrometers: USB2+H05261
Integration Time (usec): 50000 (USB2+H05261)
Spectra Averaged: 1 (USB2+H05261)
Boxcar Smoothing: 0 (USB2+H05261)
Correct for Electrical Dark: No (USB2+H05261)
Strobe/Lamp Enabled: No (USB2+H05261)
Correct for Detector Non-linearity: No (USB2+H05261)
Correct for Stray Light: No (USB2+H05261)
Number of Pixels in Processed Spectrum: 2048
>>>>>Begin Processed Spectral Data<<<<<
365.73	0.00
365.92	0.00
366.12	0.00
366.32	0.00
366.52	0.00
366.72	0.00
366.91	0.00
367.11	0.00
367.31	0.00
367.51	0.00
367.70	0.00
367.90	0.00
368.10	0.00
368.30	0.00
368.49	0.00
368.69	0.00
368.89	0.00
369.09	0.00
369.28	0.00
369.48	0.00
369.68	0.00
369.87	0.00
370.07	0.00
370.27	0.00
370.47	4.68
370.66	49.15
370.86	102.98
371.06	133.41
371.25	203.63
371.45	77.24
371.65	184.90
371.84	121.71
372.04	152.13
372.24	175.54
372.44	98.30
372.63	138.09
372.83	269.16
373.03	266.82
373.22	110.01
373.42	210.65
373.62	229.37
373.81	231.71
374.01	241.08
374.21	271.50
374.40	271.50
374.60	299.59
374.79	212.99
374.99	252.78
375.19	220.01
375.38	304.27
375.58	205.97
375.78	255.12
375.97	236.39
376.17	241.08
376.37	278.52
376.56	292.57
376.76	220.01
376.95	220.01
377.15	210.65
377.35	294.91
377.54	245.76
377.74	236.39
377.93	320.65
378.13	278.52
378.33	339.38
378.52	259.80
378.72	243.42
378.91	271.50
379.11	304.27
379.31	217.67
379.50	269.16
379.70	262.14
379.89	294.91
380.09	198.95
380.28	287.89
380.48	346.40
380.68	327.68
380.87	299.59
381.07	332.36
381.26	299.59
381.46	332.36
381.65	236.39
381.85	367.46
382.04	294.91
382.24	348.74
382.43	273.84
382.63	374.49
382.83	339.38
383.02	386.19
383.22	311.29
383.41	365.12
383.61	367.46
383.80	376.83
384.00	369.80
384.19	395.55
384.39	407.25
384.58	365.12
384.78	330.02
384.97	353.42
385.17	376.83
385.36	344.06
385.56	337.04
385.75	311.29
385.95	407.25
386.14	367.46
386.34	409.59
386.53	341.72
386.72	430.66
386.92	330.02
387.11	421.30
387.31	379.17
387.50	397.89
387.70	393.21
387.89	451.72
388.09	409.59
388.28	444.70
388.48	425.98
388.67	437.68
388.86	484.49
389.06	482.15
389.25	543.00
389.45	418.96
389.64	512.58
389.84	423.64
390.03	444.70
390.22	505.56
390.42	561.73
390.61	535.98
390.81	491.51
391.00	479.81
391.19	463.43
391.39	519.60
391.58	503.22
391.78	507.90
391.97	468.11
392.16	440.02
392.36	657.69
392.55	526.62
392.75	521.94
392.94	582.79
393.13	594.50
393.33	622.58
393.52	557.05
393.71	538.32
393.91	531.30
394.10	557.05
394.29	554.71
394.49	521.94
394.68	692.80
394.88	636.63
395.07	559.39
395.26	592.16
395.46	592.16
395.65	617.90
395.84	671.73
396.04	615.56
396.23	615.56
396.42	662.37
396.62	582.79
396.81	713.86
397.00	664.71
397.19	678.76
397.39	636.63
397.58	622.58
397.77	620.24
397.97	685.78
398.16	695.14
398.35	713.86
398.55	725.57
398.74	716.20
398.93	664.71
399.12	662.37
399.32	697.48
399.51	741.95
399.70	772.38
399.90	706.84
400.09	662.37
400.28	767.70
400.47	781.74
400.67	814.51
400.86	727.91
401.05	741.95
401.24	844.93
401.44	704.50
401.63	800.46
401.82	753.65
402.01	791.10
402.21	784.08
402.40	856.64
402.59	793.44
402.78	723.23
402.97	866.00
403.17	798.12
403.36	793.44
403.55	873.02
403.74	926.85
403.93	760.67
404.13	814.51
404.32	903.45
404.51	858.98
404.70	945.58
404.89	898.77
405.09	938.55
405.28	910.47
405.47	961.96
405.66	924.51
405.85	901.11
406.05	873.02
406.24	898.77
406.43	961.96
406.62	1013.45
406.81	1020.47
407.00	964.30
407.20	1032.18
407.39	957.28
407.58	964.30
407.77	1081.33
407.96	1081.33
408.15	1057.92
408.34	938.55
408.54	1121.12
408.73	1050.90
408.92	1034.52
409.11	1100.05
409.30	1125.80
409.49	1104.73
409.68	1081.33
409.87	1179.63
410.07	1139.84
410.26	1139.84
410.45	1256.87
410.64	1146.86
410.83	1163.25
411.02	1188.99
411.21	1135.16
411.40	1172.61
411.59	1233.46
411.78	1263.89
411.98	1167.93
412.17	1231.12
412.36	1249.85
412.55	1364.53
412.74	1203.04
412.93	1364.53
413.12	1280.27
413.31	1427.73
413.50	1322.40
413.69	1291.98
413.88	1380.92
414.07	1441.77
414.26	1439.43
414.45	1315.38
414.64	1446.45
414.83	1420.71
415.02	1451.13
415.22	1483.90
415.41	1511.99
415.60	1404.32
415.79	1511.99
415.98	1526.03
416.17	1607.95
416.36	1575.18
416.55	1556.46
416.74	1612.63
416.93	1579.86
417.12	1544.75
417.31	1582.20
417.50	1584.54
417.69	1682.85
417.88	1600.93
418.07	1605.61
418.26	1593.90
418.45	1535.39
418.64	1825.62
418.83	1767.10
419.02	1715.61
419.21	1797.53
419.39	1783.49
419.58	1724.97
419.77	1774.13
419.96	1830.30
420.15	1900.52
420.34	1898.17
420.53	1804.55
420.72	1919.24
420.91	1860.73
421.10	1949.67
421.29	1921.58
421.48	1893.49
421.67	1895.83
421.86	1959.03
422.05	1949.67
422.24	1879.45
422.43	2029.24
422.61	1937.96
422.80	1991.80
422.99	2057.33
423.18	1982.43
423.37	2076.06
423.56	1879.45
423.75	1919.24
423.94	1942.64
424.13	1886.47
424.32	1865.41
424.50	1907.54
424.69	2101.80
424.88	1998.82
425.07	2043.29
425.26	1877.11
425.45	1942.64
425.64	1930.94
425.83	1977.75
426.01	2066.69
426.20	2001.16
426.39	2071.37
426.58	1984.77
426.77	1956.69
426.96	2015.20
427.15	2080.74
427.33	2148.61
427.52	2127.55
427.71	2094.78
427.90	2167.34
428.09	2202.44
428.28	2253.94
428.46	2186.06
428.65	2246.91
428.84	2111.16
429.03	2214.15
429.22	2125.21
429.40	2221.17
429.59	2333.51
429.78	2204.78
429.97	2256.28
430.16	2209.47
430.34	2326.49
430.53	2193.08
430.72	2363.94
430.91	2324.15
431.10	2298.41
431.28	2406.07
431.47	2282.02
431.66	2389.69
431.85	2347.56
432.03	2349.90
432.22	2448.20
432.41	2387.35
432.60	2361.60
432.79	2450.54
432.97	2436.50
433.16	2352.24
433.35	2363.94
433.54	2628.42
433.72	2424.80
433.91	2326.49
434.10	2499.69
434.28	2457.56
434.47	2389.69
434.66	2497.35
434.85	2623.74
435.03	2593.31
435.22	2605.02
435.41	2642.46
435.59	2672.89
435.78	2597.99
435.97	2637.78
436.16	2649.49
436.34	2595.65
436.53	2651.83
436.72	2818.00
436.90	2656.51
437.09	2668.21
437.28	2658.85
437.46	2705.66
437.65	2626.08
437.84	2771.19
438.02	2668.21
438.21	2708.00
438.40	2640.12
438.58	2768.85
438.77	2881.20
438.96	2846.09
439.14	2935.03
439.33	2897.58
439.52	3026.31
439.70	2928.01
439.89	2841.41
440.08	2970.14
440.26	3023.97
440.45	2951.42
440.63	3012.27
440.82	3087.17
441.01	2953.76
441.19	3143.34
441.38	3016.95
441.57	3159.72
441.75	3157.38
441.94	3208.87
442.12	3098.87
442.31	3337.60
442.50	3180.79
442.68	3243.98
442.87	3204.19
443.05	3267.39
443.24	3260.37
443.43	3206.53
443.61	3251.00
443.80	3543.57
443.98	3204.19
444.17	3169.09
444.35	3328.24
444.54	3375.05
444.73	3499.10
444.91	3339.94
445.10	3417.18
445.28	3384.41
445.47	3314.20
445.65	3323.56
445.84	3300.16
446.02	3382.07
446.21	3555.27
446.39	3508.46
446.58	3391.44
446.77	3431.23
446.95	3377.39
447.14	3391.44
447.32	3489.74
447.51	3440.59
447.69	3403.14
447.88	3412.50
448.06	3569.32
448.25	3445.27
448.43	3454.63
448.62	3459.31
448.80	3428.88
448.99	3585.70
449.17	3529.53
449.36	3405.48
449.54	3536.55
449.73	3566.98
449.91	3641.87
450.10	3667.62
450.28	3578.68
450.46	3676.98
450.65	3620.81
450.83	3602.08
451.02	3721.45
451.20	3794.01
451.39	3723.79
451.57	3674.64
451.76	3758.90
451.94	3655.92
452.13	3765.92
452.31	3854.86
452.49	3695.71
452.68	3653.58
452.86	3936.78
453.05	3808.05
453.23	3868.91
453.42	3840.82
453.60	3669.96
453.78	3784.65
453.97	3866.56
454.15	3894.65
454.34	3791.67
454.52	3911.04
454.70	3857.20
454.89	4081.89
455.07	3967.21
455.26	3964.87
455.44	4138.07
455.62	3995.29
455.81	3922.74
455.99	3866.56
456.17	4032.74
456.36	4088.92
456.54	4145.09
456.73	4198.92
456.91	4238.71
457.09	4109.98
457.28	4290.20
457.46	4135.73
457.64	4308.93
457.83	4348.72
458.01	4297.22
458.19	4283.18
458.38	4332.33
458.56	4461.06
458.74	4365.10
458.93	4386.16
459.11	4337.01
459.29	4308.93
459.48	4458.72
459.66	4430.63
459.84	4561.70
460.03	4547.66
460.21	4624.90
460.39	4500.85
460.57	4528.94
460.76	4409.57
460.94	4557.02
461.12	4454.04
461.31	4503.19
461.49	4322.97
461.67	4587.45
461.85	4699.80
462.04	4629.58
462.22	4704.48
462.40	4608.51
462.59	4638.94
462.77	4655.33
462.95	4835.55
463.13	4863.63
463.32	4610.86
463.50	4861.29
463.68	4863.63
463.86	4657.67
464.05	4704.48
464.23	4535.96
464.41	4713.84
464.59	4667.03
464.78	4858.95
464.96	4917.47
465.14	4784.06
465.32	4858.95
465.50	4786.40
465.69	4863.63
465.87	4809.80
466.05	4975.98
466.23	4950.23
466.41	4971.30
466.60	5074.28
466.78	5041.51
466.96	4865.97
467.14	4819.16
467.32	5083.64
467.51	5144.50
467.69	4835.55
467.87	5151.52
468.05	5095.35
468.23	4959.60
468.41	5067.26
468.60	5102.37
468.78	5118.75
468.96	5093.01
469.14	5226.42
469.32	5228.76
469.50	5233.44
469.69	5238.12
469.87	5404.30
470.05	5336.42
470.23	5425.36
470.41	5401.96
470.59	5378.55
470.77	5355.15
470.95	5575.16
471.14	5423.02
471.32	5310.68
471.50	5490.90
471.68	5462.81
471.86	5558.77
472.04	5556.43
472.22	5636.01
472.40	5577.50
472.58	5408.98
472.77	5650.05
472.95	5645.37
473.13	5877.09
473.31	5636.01
473.49	5678.14
473.67	5776.44
473.85	5853.68
474.03	5884.11
474.21	5893.47
474.39	6012.84
474.57	5975.39
474.75	5998.79
474.93	6181.35
475.12	5994.11
475.30	6069.01
475.48	6029.22
475.66	6064.33
475.84	6427.11
476.02	6033.90
476.20	6263.27
476.38	6326.47
476.56	6457.54
476.74	6307.74
476.92	6270.30
477.10	6586.27
477.28	6532.44
477.46	6469.24
477.64	6384.98
477.82	6572.22
478.00	6813.30
478.18	6817.98
478.36	6874.15
478.54	6892.88
478.72	6913.94
478.90	7033.31
479.08	6977.14
479.26	7176.08
479.44	7260.34
479.62	7187.79
479.80	7290.77
479.98	7215.87
480.16	7524.82
480.34	7335.24
480.52	7637.17
480.70	7426.52
480.88	7295.45
481.06	7515.46
481.24	7918.03
481.41	7775.26
481.59	7602.06
481.77	8018.68
481.95	7763.56
482.13	8016.33
482.31	8013.99
482.49	8152.09
482.67	8102.93
482.85	8224.64
483.03	8533.59
483.21	8400.18
483.39	8592.11
483.57	8308.90
483.74	8669.34
483.92	8566.36
484.10	8676.37
484.28	8446.99
484.46	8835.52
484.64	8905.74
484.82	8936.17
485.00	9071.92
485.18	9055.53
485.35	9102.34
485.53	9104.68
485.71	9476.83
485.89	9385.55
486.07	9329.38
486.25	9437.04
486.43	9390.23
486.61	9453.42
486.78	9455.76
486.96	9921.53
487.14	9863.02
487.32	9757.69
487.50	9958.98
487.68	10071.33
487.85	10169.63
488.03	10204.74
488.21	10200.05
488.39	10209.42
488.57	10480.92
488.75	10399.00
488.92	10595.61
489.10	10637.73
489.28	10616.67
489.46	11012.22
489.64	10892.85
489.81	11037.97
489.99	11077.76
490.17	10942.00
490.35	11576.29
490.53	11337.56
490.70	11433.52
490.88	11363.30
491.06	11456.92
491.24	11587.99
491.41	11602.04
491.59	11894.60
491.77	11632.46
491.95	11686.29
492.13	11894.60
492.30	12084.19
492.48	11836.09
492.66	11932.05
492.84	12301.86
493.01	12135.68
493.19	12463.35
493.37	12332.28
493.54	12547.61
493.72	12709.11
493.90	12858.90
494.08	12744.22
494.25	12879.97
494.43	12894.01
494.61	12975.93
494.79	12891.67
494.96	13116.36
495.14	13221.69
495.32	13217.01
495.49	13118.70
495.67	13390.20
495.85	13710.86
496.02	13453.40
496.20	13598.51
496.38	13462.76
496.55	13549.36
496.73	14185.99
496.91	13991.72
497.09	13781.07
497.26	14211.73
497.44	13996.40
497.62	14036.19
497.79	14279.61
497.97	14207.05
498.14	14324.08
498.32	14579.20
498.50	14490.26
498.67	14714.95
498.85	14693.88
499.03	14853.04
499.20	14834.32
499.38	14906.87
499.56	14623.67
499.73	15077.73
499.91	15040.28
500.08	15255.61
500.26	14941.98
500.44	15000.49
500.61	15255.61
500.79	15147.95
500.97	15250.93
501.14	15431.15
501.32	15412.43
501.49	15438.17
501.67	15578.61
501.84	15609.03
502.02	15513.07
502.20	15730.74
502.37	15690.95
502.55	15875.85
502.72	15880.53
502.90	15838.41
503.07	15854.79
503.25	16252.68
503.43	15798.62
503.60	16212.89
503.78	16374.39
503.95	16210.55
504.13	16308.85
504.30	16126.29
504.48	16400.13
504.65	16315.87
504.83	16917.39
505.01	16603.76
505.18	16411.84
505.36	17001.65
505.53	16629.51
505.71	16662.27
505.88	17123.36
506.06	16755.90
506.23	17242.73
506.41	17144.42
506.58	17418.27
506.76	17060.16
506.93	17013.35
507.11	16821.43
507.28	17149.11
507.46	17275.49
507.63	16947.82
507.81	17586.79
507.98	17308.26
508.16	17366.78
508.33	17315.28
508.50	17303.58
508.68	17722.54
508.85	17972.97
509.03	17472.10
509.20	17848.93
509.38	18223.41
509.55	18005.74
509.73	17998.72
509.90	17884.03
510.08	17963.61
510.25	18239.79
510.42	18434.06
510.60	18349.80
510.77	18113.41
510.95	18382.57
511.12	18293.63
511.30	18328.74
511.47	18523.00
511.64	18555.77
511.82	18649.39
511.99	18586.19
512.17	18806.20
512.34	18356.82
512.51	18757.05
512.69	18939.62
512.86	18824.93
513.04	18845.99
513.21	19028.56
513.38	19002.81
513.56	19063.66
513.73	19077.71
513.90	19215.80
514.08	18909.19
514.25	19204.10
514.43	19332.82
514.60	19414.74
514.77	19173.67
514.95	19527.09
515.12	19473.26
515.29	19400.70
515.47	19770.51
515.64	19623.05
515.81	19658.16
515.99	19728.38
516.16	20013.92
516.33	19920.30
516.51	20016.26
516.68	19714.33
516.85	19700.29
517.03	19985.83
517.20	20100.52
517.37	20189.46
517.54	20348.62
517.72	20100.52
517.89	20025.62
518.06	20372.02
518.24	20500.75
518.41	20348.62
518.58	20444.58
518.75	20519.48
518.93	20526.50
519.10	20477.35
519.27	20526.50
519.45	20486.71
519.62	20657.57
519.79	20477.35
519.96	20781.62
520.14	20807.36
520.31	20720.76
520.48	20842.47
520.65	20945.45
520.83	20877.58
521.00	20917.37
521.17	20868.22
521.34	20952.48
521.52	21238.02
521.69	21062.48
521.86	21135.04
522.03	21172.49
522.20	21425.26
522.38	21514.20
522.55	21350.37
522.72	21752.94
522.89	21233.34
523.07	21951.88
523.24	21525.91
523.41	21762.30
523.58	21575.06
523.75	21729.53
523.92	21687.40
524.10	21802.09
524.27	21935.50
524.44	21734.21
524.61	22207.00
524.78	22188.28
524.96	21708.47
525.13	22202.32
525.30	22150.83
525.47	22080.61
525.64	22003.38
525.81	21909.75
525.98	22415.31
526.16	22338.07
526.33	22003.38
526.50	22291.26
526.67	22483.19
526.84	22129.77
527.01	22324.03
527.18	22494.89
527.36	22618.94
527.53	22466.80
527.70	22780.43
527.87	22700.86
528.04	22384.88
528.21	22852.99
528.38	22841.29
528.55	22829.59
528.72	22574.47
528.89	22745.33
529.07	22843.63
529.24	23143.22
529.41	23058.96
529.58	23143.22
529.75	23269.61
529.92	23051.94
530.09	23005.13
530.26	23075.34
530.43	23222.80
530.60	23318.76
530.77	23431.10
530.94	23290.67
531.11	23271.95
531.28	23215.77
531.46	23190.03
531.63	23398.34
531.80	23267.27
531.97	23477.91
532.14	23442.81
532.31	23480.25
532.48	23494.30
532.65	23770.48
532.82	23466.21
532.99	23487.28
533.16	23648.77
533.33	23941.34
533.50	23948.36
533.67	24027.94
533.84	23665.16
534.01	24187.10
534.18	23697.92
534.35	24039.64
534.52	24049.00
534.69	24107.52
534.86	24416.47
535.03	23924.96
535.20	23924.96
535.37	24472.64
535.54	24182.42
535.71	24369.66
535.88	24360.30
536.05	24252.63
536.22	24191.78
536.38	24435.19
536.55	24308.80
536.72	24669.25
536.89	24177.73
537.06	24467.96
537.23	24311.14
537.40	24327.53
537.57	24540.52
537.74	24510.09
537.91	24800.32
538.08	24566.26
538.25	24119.22
538.42	24702.01
538.59	24823.72
538.75	24776.91
538.92	24662.22
539.09	24650.52
539.26	24973.52
539.43	24980.54
539.60	24826.06
539.77	25146.72
539.94	25050.75
540.11	24893.94
540.28	25053.09
540.44	25123.31
540.61	24994.58
540.78	25427.58
540.95	25214.59
541.12	25481.41
541.29	24982.88
541.46	25165.44
541.62	24797.98
541.79	25514.18
541.96	25223.95
542.13	25013.31
542.30	25235.66
542.47	25310.55
542.63	25582.06
542.80	25792.70
542.97	25530.56
543.14	25546.95
543.31	25640.57
543.48	25722.49
543.64	26092.29
543.81	25865.26
543.98	26333.37
544.15	25984.63
544.32	26118.04
544.48	26302.94
544.65	25706.10
544.82	25764.62
544.99	25991.65
545.16	26361.45
545.32	26045.48
545.49	26745.30
545.66	26071.23
545.83	26139.10
546.00	26108.68
546.16	26178.89
546.33	25874.62
546.50	25972.92
546.67	26408.26
546.83	26223.36
547.00	26080.59
547.17	26354.43
547.34	26415.29
547.50	26436.35
547.67	26403.58
547.84	26644.66
548.00	26689.13
548.17	27040.21
548.34	26930.20
548.51	26897.44
548.67	27082.34
548.84	26515.93
549.01	26579.12
549.18	26668.06
549.34	26558.06
549.51	26616.57
549.68	26656.36
549.84	26593.17
550.01	26918.50
550.18	26565.08
550.34	26700.83
550.51	27264.90
550.68	27278.94
550.84	26841.26
551.01	26803.82
551.18	26930.20
551.34	26806.16
551.51	26876.37
551.68	26944.25
551.84	27126.81
552.01	26834.24
552.18	27330.44
552.34	27150.21
552.51	27171.28
552.68	26962.97
552.84	27267.24
553.01	27402.99
553.18	27555.13
553.34	27285.97
553.51	27529.38
553.67	27339.80
553.84	27611.30
554.01	27253.20
554.17	27454.48
554.34	27147.87
554.51	27555.13
554.67	27489.59
554.84	27466.19
555.00	27431.08
555.17	27527.04
555.33	27606.62
555.50	27693.22
555.67	27419.38
555.83	27360.86
556.00	27789.18
556.16	28252.61
556.33	27562.15
556.50	27821.95
556.66	27601.94
556.83	28107.49
556.99	28126.22
557.16	28334.53
557.32	27704.92
557.49	27967.06
557.65	27894.50
557.82	27852.38
557.98	27489.59
558.15	27662.79
558.32	28107.49
558.48	28009.19
558.65	27910.89
558.81	28144.94
558.98	27887.48
559.14	27887.48
559.31	27938.97
559.47	28079.41
559.64	28002.17
559.80	27960.04
559.97	28222.18
560.13	28039.62
560.30	28250.27
560.46	28184.73
560.63	28023.23
560.79	28056.00
560.96	28236.22
561.12	28095.79
561.29	27826.63
561.45	28304.10
561.61	28514.75
561.78	28318.14
561.94	28233.88
562.11	28554.54
562.27	28437.51
562.44	28318.14
562.60	28748.80
562.77	28584.96
562.93	28549.85
563.10	28540.49
563.26	28332.18
563.42	28652.84
563.59	28140.26
563.75	28329.84
563.92	28570.92
564.08	28641.14
564.24	28428.15
564.41	28481.98
564.57	28173.03
564.74	28744.12
564.90	28456.23
565.07	28231.54
565.23	28528.79
565.39	28645.82
565.56	28699.65
565.72	28393.04
565.88	28734.76
566.05	28402.40
566.21	28451.55
566.38	28423.47
566.54	29024.98
566.70	28535.81
566.87	28891.57
567.03	28774.55
567.19	28734.76
567.36	28772.21
567.52	28655.18
567.68	28519.43
567.85	28489.00
568.01	28758.16
568.17	28554.54
568.34	28435.17
568.50	28753.48
568.66	28971.15
568.83	28982.85
568.99	28563.90
569.15	28545.17
569.32	28477.30
569.48	28322.82
569.64	28655.18
569.81	28622.41
569.97	28629.43
570.13	28804.97
570.30	28781.57
570.46	28875.19
570.62	29024.98
570.78	28678.58
570.95	28648.16
571.11	28631.77
571.27	28788.59
571.43	28439.85
571.60	28687.95
571.76	28877.53
571.92	28685.61
572.09	28964.13
572.25	29214.57
572.41	28666.88
572.57	29029.66
572.74	28994.56
572.90	28807.31
573.06	29249.67
573.22	28870.51
573.38	29282.44
573.55	29090.52
573.71	29373.72
573.87	29214.57
574.03	29158.39
574.20	29134.99
574.36	29067.11
574.52	28795.61
574.68	28882.21
574.84	29006.26
575.01	28992.22
575.17	29146.69
575.33	28622.41
575.49	28828.38
575.65	28929.02
575.82	29184.14
575.98	29048.39
576.14	28849.44
576.30	29064.77
576.46	29202.86
576.62	28959.45
576.79	28765.18
576.95	29273.08
577.11	29387.77
577.27	29174.78
577.43	28938.38
577.59	28929.02
577.75	29223.93
577.92	28732.42
578.08	29029.66
578.24	29078.82
578.40	29226.27
578.56	29132.65
578.72	29088.18
578.88	29097.54
579.04	29364.36
579.21	29088.18
579.37	29205.20
579.53	29193.50
579.69	28889.23
579.85	29219.25
580.01	28954.77
580.17	28865.83
580.33	29284.78
580.49	29071.79
580.65	28896.25
580.82	29069.45
580.98	28922.00
581.14	29420.53
581.30	29277.76
581.46	29097.54
581.62	29369.04
581.78	29146.69
581.94	29113.92
582.10	29097.54
582.26	29511.81
582.42	29277.76
582.58	29296.49
582.74	29158.39
582.90	29214.57
583.06	29593.73
583.22	29216.91
583.38	29467.34
583.54	29209.89
583.70	29476.71
583.86	29296.49
584.02	29090.52
584.18	29261.38
584.34	29315.21
584.50	29490.75
584.66	29188.82
584.82	28929.02
584.98	28868.17
585.14	29542.24
585.30	28954.77
585.46	29081.16
585.62	28875.19
585.78	29518.84
585.94	29308.19
586.10	29427.56
586.26	29156.05
586.42	29488.41
586.58	29612.46
586.74	29429.90
586.90	28741.78
587.06	29095.20
587.22	29095.20
587.38	29298.83
587.54	29397.13
587.70	29352.66
587.86	29319.89
588.02	29298.83
588.18	29792.68
588.34	29336.27
588.49	29591.39
588.65	29350.32
588.81	29184.14
588.97	29558.63
589.13	29102.22
589.29	29200.52
589.45	29322.23
589.61	29685.01
589.77	29797.36
589.93	29682.67
590.08	30085.25
590.24	29675.65
590.40	29338.62
590.56	29591.39
590.72	29457.98
590.88	29404.15
591.04	29259.04
591.20	29689.70
591.35	29706.08
591.51	29649.91
591.67	29706.08
591.83	29888.64
591.99	29982.26
