SpectraSuite Data File
++++++++++++++++++++++++++++++++++++
Date: Fri Oct 18 13:58:01 GMT-05:00 2013
User: bianchi
Dark Spectrum Present: No
Reference Spectrum Present: No
Number of Sampled Component Spectra: 1
Spectrometers: USB2+H05261
Integration Time (usec): 50000 (USB2+H05261)
Spectra Averaged: 1 (USB2+H05261)
Boxcar Smoothing: 0 (USB2+H05261)
Correct for Electrical Dark: No (USB2+H05261)
Strobe/Lamp Enabled: No (USB2+H05261)
Correct for Detector Non-linearity: No (USB2+H05261)
Correct for Stray Light: No (USB2+H05261)
Number of Pixels in Processed Spectrum: 2048
>>>>>Begin Processed Spectral Data<<<<<
365.73	0.00
365.92	0.00
366.12	0.00
366.32	0.00
366.52	0.00
366.72	0.00
366.91	0.00
367.11	0.00
367.31	0.00
367.51	0.00
367.70	0.00
367.90	0.00
368.10	0.00
368.30	0.00
368.49	0.00
368.69	0.00
368.89	0.00
369.09	0.00
369.28	0.00
369.48	0.00
369.68	0.00
369.87	0.00
370.07	0.00
370.27	0.00
370.47	0.00
370.66	86.60
370.86	91.28
371.06	107.66
371.25	173.20
371.45	119.37
371.65	128.73
371.84	224.69
372.04	231.71
372.24	154.48
372.44	191.92
372.63	140.43
372.83	166.18
373.03	290.23
373.22	152.13
373.42	189.58
373.62	189.58
373.81	203.63
374.01	241.08
374.21	250.44
374.40	152.13
374.60	280.86
374.79	203.63
374.99	147.45
375.19	194.26
375.38	315.97
375.58	215.33
375.78	266.82
375.97	285.55
376.17	285.55
376.37	257.46
376.56	266.82
376.76	306.61
376.95	264.48
377.15	255.12
377.35	290.23
377.54	306.61
377.74	238.73
377.93	315.97
378.13	320.65
378.33	222.35
378.52	215.33
378.72	266.82
378.91	250.44
379.11	374.49
379.31	245.76
379.50	327.68
379.70	252.78
379.89	318.31
380.09	273.84
380.28	252.78
380.48	285.55
380.68	351.08
380.87	308.95
381.07	259.80
381.26	285.55
381.46	348.74
381.65	308.95
381.85	404.91
382.04	339.38
382.24	386.19
382.43	322.99
382.63	311.29
382.83	337.04
383.02	308.95
383.22	334.70
383.41	271.50
383.61	278.52
383.80	358.10
384.00	381.51
384.19	341.72
384.39	360.44
384.58	386.19
384.78	334.70
384.97	301.93
385.17	414.27
385.36	318.31
385.56	379.17
385.75	449.38
385.95	341.72
386.14	458.74
386.34	376.83
386.53	362.78
386.72	414.27
386.92	418.96
387.11	411.93
387.31	465.77
387.50	381.51
387.70	411.93
387.89	365.12
388.09	402.57
388.28	489.17
388.48	414.27
388.67	393.21
388.86	430.66
389.06	360.44
389.25	409.59
389.45	526.62
389.64	442.36
389.84	397.89
390.03	543.00
390.22	430.66
390.42	472.79
390.61	397.89
390.81	482.15
391.00	491.51
391.19	507.90
391.39	458.74
391.58	554.71
391.78	451.72
391.97	505.56
392.16	454.06
392.36	550.03
392.55	512.58
392.75	613.22
392.94	636.63
393.13	582.79
393.33	538.32
393.52	573.43
393.71	580.45
393.91	477.47
394.10	573.43
394.29	526.62
394.49	545.34
394.68	531.30
394.88	514.92
395.07	573.43
395.26	615.56
395.46	547.69
395.65	650.67
395.84	573.43
396.04	662.37
396.23	690.46
396.42	610.88
396.62	578.11
396.81	645.99
397.00	634.29
397.19	566.41
397.39	631.94
397.58	650.67
397.77	716.20
397.97	664.71
398.16	613.22
398.35	650.67
398.55	699.82
398.74	653.01
398.93	767.70
399.12	767.70
399.32	791.10
399.51	772.38
399.70	798.12
399.90	711.52
400.09	723.23
400.28	622.58
400.47	744.29
400.67	795.78
400.86	770.04
401.05	770.04
401.24	840.25
401.44	844.93
401.63	765.36
401.82	751.31
402.01	779.40
402.21	868.34
402.40	837.91
402.59	819.19
402.78	856.64
402.97	866.00
403.17	891.74
403.36	905.79
403.55	809.83
403.74	882.38
403.93	929.19
404.13	950.26
404.32	870.68
404.51	971.32
404.70	877.70
404.89	905.79
405.09	966.64
405.28	912.81
405.47	1006.43
405.66	940.90
405.85	938.55
406.05	1025.15
406.24	1029.84
406.43	1018.13
406.62	1060.26
406.81	1076.65
407.00	987.71
407.20	992.39
407.39	1020.47
407.58	1039.20
407.77	1015.79
407.96	1104.73
408.15	1156.22
408.34	1050.90
408.54	1081.33
408.73	1205.38
408.92	1100.05
409.11	1165.59
409.30	1137.50
409.49	1144.52
409.68	1139.84
409.87	1095.37
410.07	1146.86
410.26	1203.04
410.45	1210.06
410.64	1245.16
410.83	1170.27
411.02	1186.65
411.21	1219.42
411.40	1235.80
411.59	1212.40
411.78	1221.76
411.98	1261.55
412.17	1282.61
412.36	1242.82
412.55	1270.91
412.74	1317.72
412.93	1418.36
413.12	1369.21
413.31	1357.51
413.50	1310.70
413.69	1427.73
413.88	1394.96
414.07	1385.60
414.26	1453.47
414.45	1467.52
414.64	1519.01
414.83	1413.68
415.02	1502.62
415.22	1523.69
415.41	1575.18
415.60	1535.39
415.79	1493.26
415.98	1519.01
416.17	1565.82
416.36	1593.90
416.55	1645.40
416.74	1659.44
416.93	1706.25
417.12	1685.19
417.31	1664.12
417.50	1626.67
417.69	1652.42
417.88	1673.48
418.07	1659.44
418.26	1844.34
418.45	1732.00
418.64	1806.89
418.83	1933.28
419.02	1799.87
419.21	1799.87
419.39	1832.64
419.58	1727.32
419.77	1877.11
419.96	1923.92
420.15	1863.07
420.34	1818.60
420.53	1888.81
420.72	1949.67
420.91	1963.71
421.10	2026.90
421.29	1996.48
421.48	1856.04
421.67	1909.88
421.86	1942.64
422.05	1881.79
422.24	1933.28
422.43	1956.69
422.61	2092.44
422.80	2064.35
422.99	1968.39
423.18	1954.35
423.37	2094.78
423.56	2017.54
423.75	1994.14
423.94	1989.46
424.13	1753.06
424.32	2031.58
424.50	1935.62
424.69	2071.37
424.88	1942.64
425.07	1987.11
425.26	2101.80
425.45	1980.09
425.64	2015.20
425.83	2031.58
426.01	2113.50
426.20	2015.20
426.39	1975.41
426.58	2026.90
426.77	2080.74
426.96	2143.93
427.15	2076.06
427.33	2059.67
427.52	2031.58
427.71	2057.33
427.90	2148.61
428.09	2251.60
428.28	2193.08
428.46	2242.23
428.65	2167.34
428.84	2251.60
429.03	2216.49
429.22	2179.04
429.40	2209.47
429.59	2324.15
429.78	2193.08
429.97	2118.18
430.16	2300.75
430.34	2356.92
430.53	2307.77
430.72	2293.72
430.91	2342.88
431.10	2256.28
431.28	2249.25
431.47	2317.13
431.66	2303.09
431.85	2251.60
432.03	2373.30
432.22	2471.61
432.41	2380.32
432.60	2452.88
432.79	2352.24
432.97	2424.80
433.16	2452.88
433.35	2513.74
433.54	2457.56
433.72	2518.42
433.91	2483.31
434.10	2539.48
434.28	2504.37
434.47	2677.57
434.66	2534.80
434.85	2621.40
435.03	2546.50
435.22	2644.81
435.41	2588.63
435.59	2569.91
435.78	2569.91
435.97	2743.11
436.16	2553.52
436.34	2654.17
436.53	2686.94
436.72	2738.43
436.90	2705.66
437.09	2710.34
437.28	2565.23
437.46	2661.19
437.65	2841.41
437.84	2787.58
438.02	2698.64
438.21	2710.34
438.40	2703.32
438.58	2871.84
438.77	2883.54
438.96	2888.22
439.14	2883.54
439.33	2930.35
439.52	2958.44
439.70	2932.69
439.89	3157.38
440.08	3021.63
440.26	2998.23
440.45	3084.83
440.63	3133.98
440.82	3152.70
441.01	3052.06
441.19	3103.55
441.38	3173.77
441.57	3143.34
441.75	3243.98
441.94	3356.33
442.12	3382.07
442.31	3222.92
442.50	3276.75
442.68	3339.94
442.87	3314.20
443.05	3314.20
443.24	3391.44
443.43	3431.23
443.61	3461.65
443.80	3520.17
443.98	3218.24
444.17	3316.54
444.35	3438.25
444.54	3463.99
444.73	3396.12
444.91	3417.18
445.10	3396.12
445.28	3309.52
445.47	3510.80
445.65	3576.34
445.84	3393.78
446.02	3389.10
446.21	3342.28
446.39	3459.31
446.58	3529.53
446.77	3414.84
446.95	3370.37
447.14	3384.41
447.32	3454.63
447.51	3407.82
447.69	3550.59
447.88	3466.33
448.06	3517.83
448.25	3552.93
448.43	3531.87
448.62	3513.14
448.80	3648.90
448.99	3508.46
449.17	3702.73
449.36	3571.66
449.54	3595.06
449.73	3772.94
449.91	3559.95
450.10	3634.85
450.28	3627.83
450.46	3719.11
450.65	3723.79
450.83	3845.50
451.02	3646.55
451.20	3662.94
451.39	3857.20
451.57	3695.71
451.76	3747.20
451.94	3812.73
452.13	3882.95
452.31	3864.22
452.49	3875.93
452.68	3960.19
452.86	3990.61
453.05	3896.99
453.23	4077.21
453.42	4004.66
453.60	3817.41
453.78	3913.38
453.97	3852.52
454.15	3999.98
454.34	3990.61
454.52	4021.04
454.70	4067.85
454.89	3999.98
455.07	4077.21
455.26	3988.27
455.44	4152.11
455.62	4051.47
455.81	4074.87
455.99	4039.76
456.17	3988.27
456.36	4044.45
456.54	4290.20
456.73	4138.07
456.91	4238.71
457.09	4266.80
457.28	4322.97
457.46	4189.56
457.64	4292.54
457.83	4369.78
458.01	4248.07
458.19	4428.29
458.38	4278.50
458.56	4468.08
458.74	4379.14
458.93	4329.99
459.11	4397.87
459.29	4465.74
459.48	4634.26
459.66	4568.73
459.84	4512.55
460.03	4585.11
460.21	4615.54
460.39	4603.83
460.57	4547.66
460.76	4634.26
460.94	4526.60
461.12	4688.09
461.31	4624.90
461.49	4449.36
461.67	4554.68
461.85	4842.57
462.04	4524.26
462.22	4901.08
462.40	4732.56
462.59	4681.07
462.77	4716.18
462.95	4767.67
463.13	4755.97
463.32	4873.00
463.50	4706.82
463.68	4861.29
463.86	4807.46
464.05	4744.27
464.23	4912.78
464.41	4896.40
464.59	4777.03
464.78	5064.92
464.96	4992.36
465.14	4985.34
465.32	5034.49
465.50	4924.49
465.69	5025.13
465.87	4894.06
466.05	5006.41
466.23	4875.34
466.41	5078.96
466.60	5212.37
466.78	4990.02
466.96	5057.90
467.14	5008.75
467.32	4975.98
467.51	5214.71
467.69	4903.42
467.87	5160.88
468.05	5104.71
468.23	5151.52
468.41	5102.37
468.60	5111.73
468.78	5067.26
468.96	5043.85
469.14	5313.02
469.32	5298.97
469.50	5233.44
469.69	5224.08
469.87	5430.04
470.05	5645.37
470.23	5411.32
470.41	5423.02
470.59	5495.58
470.77	5390.25
470.95	5420.68
471.14	5455.79
471.32	5448.77
471.50	5710.91
471.68	5563.45
471.86	5694.52
472.04	5591.54
472.22	5888.79
472.40	5537.71
472.58	5675.80
472.77	5722.61
472.95	5977.73
473.13	5928.58
473.31	5921.56
473.49	5764.74
473.67	5916.87
473.85	5844.32
474.03	6040.92
474.21	6001.13
474.39	5916.87
474.57	6230.51
474.75	6010.50
474.93	6232.85
475.12	6162.63
475.30	6174.33
475.48	6141.57
475.66	6235.19
475.84	6181.35
476.02	6422.43
476.20	6317.11
476.38	6436.47
476.56	6729.04
476.74	6539.46
476.92	6558.18
477.10	6396.68
477.28	6642.44
477.46	6602.65
477.64	6951.39
477.82	6775.85
478.00	6925.65
478.18	6970.12
478.36	6754.79
478.54	6883.52
478.72	6904.58
478.90	7227.57
479.08	7213.53
479.26	7424.18
479.44	7293.11
479.62	7375.03
479.80	7499.08
479.98	7637.17
480.16	7473.33
480.34	7321.20
480.52	7672.28
480.70	7716.75
480.88	7573.97
481.06	7550.57
481.24	7623.12
481.41	7833.77
481.59	7822.07
481.77	7941.44
481.95	7992.93
482.13	7969.52
482.31	7932.08
482.49	8234.00
482.67	8032.72
482.85	8379.12
483.03	8477.42
483.21	8496.14
483.39	8374.44
483.57	8652.96
483.74	8692.75
483.92	8631.90
484.10	8545.30
484.28	8872.97
484.46	9032.13
484.64	9088.30
484.82	8975.95
485.00	9039.15
485.18	9121.07
485.35	9469.81
485.53	9256.82
485.71	9399.59
485.89	9647.69
486.07	9467.47
486.25	9511.94
486.43	9774.08
486.61	9643.01
486.78	9748.33
486.96	9767.06
487.14	10019.83
487.32	10115.80
487.50	9916.85
487.68	10113.45
487.85	10417.72
488.03	10335.81
488.21	10473.90
488.39	10569.86
488.57	10855.40
488.75	10555.82
488.92	10743.06
489.10	11044.99
489.28	11028.60
489.46	11089.46
489.64	10986.47
489.81	11288.40
489.99	11110.52
490.17	11506.07
490.35	11557.57
490.53	11403.09
490.70	11618.42
490.88	11700.34
491.06	11826.73
491.24	11527.14
491.41	11864.18
491.59	11761.19
491.77	11742.47
491.95	12177.81
492.13	12081.85
492.30	12311.22
492.48	12133.34
492.66	12285.47
492.84	12428.24
493.01	12421.22
493.19	12561.66
493.37	12809.75
493.54	12971.25
493.72	12910.40
493.90	12975.93
494.08	13111.68
494.25	13069.55
494.43	12943.16
494.61	13270.84
494.79	13301.26
494.96	13231.05
495.14	13315.31
495.32	13455.74
495.49	13511.91
495.67	13458.08
495.85	13806.82
496.02	14031.51
496.20	14012.79
496.38	13846.61
496.55	13848.95
496.73	13987.04
496.91	14087.68
497.09	14305.35
497.26	14064.28
497.44	14204.71
497.62	14506.64
497.79	14665.80
497.97	14462.17
498.14	14923.26
498.32	14871.76
498.50	14839.00
498.67	14824.95
498.85	14803.89
499.03	14988.79
499.20	14977.09
499.38	15009.86
499.56	15042.62
499.73	15152.63
499.91	15403.07
500.08	15377.32
500.26	15101.14
500.44	15239.23
500.61	15400.72
500.79	15339.87
500.97	15733.08
501.14	15824.36
501.32	15934.37
501.49	15477.96
501.67	15466.26
501.84	15754.15
502.02	15932.03
502.20	15955.43
502.37	16072.46
502.55	15908.62
502.72	16077.14
502.90	15962.45
503.07	16299.49
503.25	16191.83
503.43	16030.33
503.60	16671.64
503.78	16367.37
503.95	16582.70
504.13	16613.12
504.30	16652.91
504.48	16489.07
504.65	16849.52
504.83	16879.94
505.01	17006.33
505.18	16926.75
505.36	17135.06
505.53	16758.24
505.71	16980.59
505.88	17214.64
506.06	17231.02
506.23	17256.77
506.41	17294.22
506.58	17284.86
506.76	17392.52
506.93	17357.41
507.11	17376.14
507.28	17619.55
507.46	17586.79
507.63	17502.53
507.81	17994.04
507.98	17570.40
508.16	17565.72
508.33	17867.65
508.50	17860.63
508.68	18082.98
508.85	18136.81
509.03	18155.54
509.20	18312.35
509.38	18260.86
509.55	18436.40
509.73	18075.96
509.90	18307.67
510.08	18249.16
510.25	18527.68
510.42	18434.06
510.60	18576.83
510.77	18703.22
510.95	19126.86
511.12	18583.85
511.30	18483.21
511.47	18347.46
511.64	18909.19
511.82	19066.00
511.99	18881.10
512.17	19129.20
512.34	19075.37
512.51	18920.89
512.69	19023.87
512.86	18981.74
513.04	19061.32
513.21	19239.20
513.38	19276.65
513.56	19290.70
513.73	19499.00
513.90	19365.59
514.08	19447.51
514.25	19506.02
514.43	19829.02
514.60	19726.04
514.77	19541.13
514.95	19709.65
515.12	19817.32
515.29	19756.46
515.47	19660.50
515.64	20173.08
515.81	19917.96
515.99	20524.16
516.16	20467.98
516.33	20194.14
516.51	20273.72
516.68	20212.87
516.85	20472.67
517.03	20170.74
517.20	20446.92
517.37	20713.74
517.54	20252.66
517.72	20414.15
517.89	20318.19
518.06	20484.37
518.24	20308.83
518.41	20585.01
518.58	20926.73
518.75	20769.91
518.93	20826.09
519.10	20798.00
519.27	20809.70
519.45	20748.85
519.62	20999.29
519.79	20697.36
519.96	20994.61
520.14	21418.24
520.31	20875.24
520.48	21301.22
520.65	21139.72
520.83	21195.89
521.00	21333.98
521.17	21029.71
521.34	21273.13
521.52	21460.37
521.69	21436.97
521.86	21514.20
522.03	21895.71
522.20	21685.06
522.38	21905.07
522.55	21429.94
522.72	21717.83
522.89	21954.22
523.07	21996.35
523.24	21958.91
523.41	22082.95
523.58	21954.22
523.75	22073.59
523.92	21624.21
524.10	22197.64
524.27	22256.15
524.44	21984.65
524.61	22525.32
524.78	22342.75
524.96	22452.76
525.13	22632.98
525.30	22384.88
525.47	22340.41
525.64	22415.31
525.81	22625.96
525.98	22775.75
526.16	22970.02
526.33	22754.69
526.50	22824.90
526.67	22459.78
526.84	22352.12
527.01	22490.21
527.18	22747.67
527.36	23150.24
527.53	23073.00
527.70	23318.76
527.87	23494.30
528.04	23243.86
528.21	23304.71
528.38	23023.85
528.55	23030.87
528.72	23178.33
528.89	23271.95
529.07	23407.70
529.24	23274.29
529.41	23782.18
529.58	23613.66
529.75	23557.49
529.92	23550.47
530.09	23548.13
530.26	23592.60
530.43	23728.35
530.60	23353.87
530.77	23901.55
530.94	23866.44
531.11	23672.18
531.28	23625.37
531.46	23744.73
531.63	23955.38
531.80	23723.67
531.97	24250.29
532.14	23969.43
532.31	23913.25
532.48	23978.79
532.65	24341.57
532.82	24149.65
532.99	24116.88
533.16	24233.91
533.33	24189.44
533.50	24236.25
533.67	24844.79
533.84	23903.89
534.01	24229.23
534.18	24432.85
534.35	24524.13
534.52	24690.31
534.69	24498.39
534.86	24692.65
535.03	24716.06
535.20	24645.84
535.37	24758.19
535.54	24940.75
535.71	24643.50
535.88	24699.67
536.05	24634.14
536.22	24783.93
536.38	25256.72
536.55	25116.29
536.72	24823.72
536.89	24931.39
537.06	24957.13
537.23	24875.21
537.40	25099.90
537.57	24797.98
537.74	24975.86
537.91	25383.11
538.08	24912.66
538.25	24797.98
538.42	25329.28
538.59	25174.80
538.75	24987.56
538.92	25418.22
539.09	25570.35
539.26	25600.78
539.43	25303.53
539.60	25254.38
539.77	25624.18
539.94	25624.18
540.11	25455.67
540.28	25436.94
540.44	25486.09
540.61	25233.32
540.78	25303.53
540.95	25455.67
541.12	25635.89
541.29	25626.53
541.46	25687.38
541.62	25537.59
541.79	25671.00
541.96	25142.03
542.13	25949.52
542.30	25823.13
542.47	25965.90
542.63	26036.12
542.80	26239.75
542.97	26441.03
543.14	26284.22
543.31	26113.36
543.48	25804.41
543.64	26274.85
543.81	26511.25
543.98	26504.23
544.15	26396.56
544.32	26434.01
544.48	27005.10
544.65	26871.69
544.82	26405.92
544.99	26256.13
545.16	26703.17
545.32	26558.06
545.49	27098.72
545.66	26754.66
545.83	26532.31
546.00	26955.95
546.16	26551.04
546.33	26394.22
546.50	26625.93
546.67	26754.66
546.83	26455.08
547.00	26574.44
547.17	26787.43
547.34	26843.60
547.50	26871.69
547.67	26862.33
547.84	27047.23
548.00	26824.88
548.17	27337.46
548.34	27208.73
548.51	27222.77
548.67	27206.39
548.84	27084.68
549.01	27089.36
549.18	27346.82
549.34	27307.03
549.51	27344.48
549.68	27548.11
549.84	27260.22
550.01	26747.64
550.18	27019.14
550.34	27445.12
550.51	27541.08
550.68	27592.58
550.84	27269.58
551.01	27653.43
551.18	27157.24
551.34	27346.82
551.51	27138.51
551.68	27527.04
551.84	27505.98
552.01	27285.97
552.18	27611.30
552.34	27520.02
552.51	27744.71
552.68	27718.96
552.84	27793.86
553.01	27637.05
553.18	27700.24
553.34	27597.26
553.51	27798.54
553.67	28327.50
553.84	28081.75
554.01	27789.18
554.17	27885.14
554.34	27950.68
554.51	27786.84
554.67	27936.63
554.84	27924.93
555.00	28381.34
555.17	28339.21
555.33	28210.48
555.50	28203.46
555.67	28245.58
555.83	28060.68
556.00	28636.45
556.16	28329.84
556.33	28173.03
556.50	28018.55
556.66	28526.45
556.83	28170.69
556.99	28290.06
557.16	28645.82
557.32	28357.93
557.49	28650.50
557.65	28311.12
557.82	28493.68
557.98	28290.06
558.15	28395.38
558.32	28624.75
558.48	28362.61
558.65	28587.30
558.81	28545.17
558.98	28732.42
559.14	28514.75
559.31	28659.86
559.47	28589.64
559.64	28723.05
559.80	28465.60
559.97	28926.68
560.13	28400.06
560.30	28692.63
560.46	28847.10
560.63	28713.69
560.79	28800.29
560.96	28751.14
561.12	28662.20
561.29	28741.78
561.45	29036.69
561.61	28608.37
561.78	28907.96
561.94	28903.28
562.11	28811.99
562.27	29109.24
562.44	28606.03
562.60	28821.36
562.77	28664.54
562.93	28599.01
563.10	28947.75
563.26	29205.20
563.42	29003.92
563.59	29142.01
563.75	29036.69
563.92	29221.59
564.08	28865.83
564.24	28744.12
564.41	28837.74
564.57	29074.13
564.74	29057.75
564.90	29055.41
565.07	29142.01
565.23	28809.65
565.39	28814.34
565.56	29097.54
565.72	29296.49
565.88	29134.99
566.05	29205.20
566.21	29013.28
566.38	29191.16
566.54	29247.33
566.70	29441.60
566.87	29542.24
567.03	29085.84
567.19	29783.32
567.36	29294.14
567.52	29219.25
567.68	29415.85
567.85	29280.10
568.01	29125.63
568.17	29486.07
568.34	29146.69
568.50	29062.43
568.66	29621.82
568.83	29940.13
568.99	29029.66
569.15	29474.37
569.32	29226.27
569.48	29242.65
569.64	29685.01
569.81	29598.41
569.97	29373.72
570.13	29415.85
570.30	29418.19
570.46	29443.94
570.62	29406.49
570.78	29448.62
570.95	29296.49
571.11	29261.38
571.27	29198.18
571.43	29242.65
571.60	29579.69
571.76	29514.16
571.92	29415.85
572.09	29460.32
572.25	29448.62
572.41	29635.86
572.57	29902.68
572.74	29848.85
572.90	29123.29
573.06	29364.36
573.22	29752.89
573.38	29605.44
573.55	29788.00
573.71	29677.99
573.87	29572.67
574.03	29745.87
574.20	29455.64
574.36	29689.70
574.52	29600.76
574.68	29511.81
574.84	29530.54
575.01	29563.31
575.17	29706.08
575.33	29294.14
575.49	29455.64
575.65	29511.81
575.82	29905.02
575.98	29518.84
576.14	29706.08
576.30	29511.81
576.46	29481.39
576.62	29717.78
576.79	29647.57
576.95	30080.56
577.11	30061.84
577.27	29570.33
577.43	29518.84
577.59	29736.51
577.75	29621.82
577.92	29432.24
578.08	29457.98
578.24	29212.23
578.40	29610.12
578.56	29556.28
578.72	29467.34
578.88	29993.97
579.04	29991.62
579.21	29713.10
579.37	29729.48
579.53	29979.92
579.69	29467.34
579.85	29715.44
580.01	29596.07
580.17	29586.71
580.33	29591.39
580.49	29549.26
580.65	29762.25
580.82	30127.38
580.98	30242.06
581.14	29949.50
581.30	29860.55
581.46	29670.97
581.62	29490.75
581.78	29406.49
581.94	29780.98
582.10	29682.67
582.26	29830.13
582.42	29893.32
582.58	29680.33
582.74	29743.53
582.90	30040.78
583.06	29628.84
583.22	29930.77
583.38	29818.42
583.54	29820.77
583.70	29696.72
583.86	29809.06
584.02	29813.74
584.18	29308.19
584.34	30323.98
584.50	29785.66
584.66	29951.84
584.82	29729.48
584.98	29518.84
585.14	29722.46
585.30	29858.21
585.46	29949.50
585.62	29996.31
585.78	29954.18
585.94	29944.81
586.10	29902.68
586.26	29914.39
586.42	30019.71
586.58	30029.07
586.74	30022.05
586.90	29832.47
587.06	29876.94
587.22	29937.79
587.38	29584.37
587.54	30010.35
587.70	29685.01
587.86	29912.05
588.02	30195.25
588.18	29991.62
588.34	30600.16
588.49	29883.96
588.65	30235.04
588.81	29883.96
588.97	30036.09
589.13	29844.17
589.29	30237.38
589.45	30118.01
589.61	30246.74
589.77	30455.05
589.93	30391.86
590.08	30473.78
590.24	30436.33
590.40	30141.42
590.56	30298.23
590.72	30171.85
590.88	30115.67
591.04	30253.76
591.20	30047.80
591.35	30768.68
591.51	30522.93
591.67	30134.40
591.83	30541.65
591.99	30092.27
