SpectraSuite Data File
++++++++++++++++++++++++++++++++++++
Date: Fri Oct 18 13:58:03 GMT-05:00 2013
User: bianchi
Dark Spectrum Present: No
Reference Spectrum Present: No
Number of Sampled Component Spectra: 1
Spectrometers: USB2+H05261
Integration Time (usec): 50000 (USB2+H05261)
Spectra Averaged: 1 (USB2+H05261)
Boxcar Smoothing: 0 (USB2+H05261)
Correct for Electrical Dark: No (USB2+H05261)
Strobe/Lamp Enabled: No (USB2+H05261)
Correct for Detector Non-linearity: No (USB2+H05261)
Correct for Stray Light: No (USB2+H05261)
Number of Pixels in Processed Spectrum: 2048
>>>>>Begin Processed Spectral Data<<<<<
365.73	0.00
365.92	0.00
366.12	0.00
366.32	0.00
366.52	0.00
366.72	0.00
366.91	0.00
367.11	0.00
367.31	0.00
367.51	0.00
367.70	0.00
367.90	0.00
368.10	0.00
368.30	0.00
368.49	0.00
368.69	0.00
368.89	0.00
369.09	0.00
369.28	0.00
369.48	0.00
369.68	0.00
369.87	0.00
370.07	0.00
370.27	0.00
370.47	0.00
370.66	112.35
370.86	187.24
371.06	152.13
371.25	168.52
371.45	210.65
371.65	184.90
371.84	201.29
372.04	86.60
372.24	241.08
372.44	156.82
372.63	156.82
372.83	231.71
373.03	191.92
373.22	198.95
373.42	191.92
373.62	152.13
373.81	154.48
374.01	224.69
374.21	245.76
374.40	269.16
374.60	257.46
374.79	243.42
374.99	212.99
375.19	182.56
375.38	217.67
375.58	278.52
375.78	212.99
375.97	255.12
376.17	276.18
376.37	264.48
376.56	198.95
376.76	205.97
376.95	224.69
377.15	257.46
377.35	252.78
377.54	306.61
377.74	229.37
377.93	280.86
378.13	285.55
378.33	276.18
378.52	243.42
378.72	304.27
378.91	229.37
379.11	262.14
379.31	346.40
379.50	320.65
379.70	280.86
379.89	243.42
380.09	292.57
380.28	294.91
380.48	299.59
380.68	287.89
380.87	231.71
381.07	248.10
381.26	262.14
381.46	325.33
381.65	273.84
381.85	299.59
382.04	351.08
382.24	327.68
382.43	367.46
382.63	273.84
382.83	322.99
383.02	383.85
383.22	372.15
383.41	264.48
383.61	348.74
383.80	360.44
384.00	327.68
384.19	304.27
384.39	341.72
384.58	287.89
384.78	360.44
384.97	355.76
385.17	362.78
385.36	358.10
385.56	397.89
385.75	381.51
385.95	388.53
386.14	407.25
386.34	407.25
386.53	381.51
386.72	365.12
386.92	440.02
387.11	409.59
387.31	433.00
387.50	433.00
387.70	381.51
387.89	479.81
388.09	402.57
388.28	463.43
388.48	393.21
388.67	447.04
388.86	505.56
389.06	465.77
389.25	421.30
389.45	468.11
389.64	437.68
389.84	566.41
390.03	507.90
390.22	524.28
390.42	411.93
390.61	482.15
390.81	507.90
391.00	507.90
391.19	528.96
391.39	479.81
391.58	465.77
391.78	456.40
391.97	512.58
392.16	479.81
392.36	573.43
392.55	512.58
392.75	524.28
392.94	547.69
393.13	519.60
393.33	587.47
393.52	528.96
393.71	554.71
393.91	645.99
394.10	606.20
394.29	573.43
394.49	589.82
394.68	648.33
394.88	617.90
395.07	573.43
395.26	599.18
395.46	648.33
395.65	653.01
395.84	641.31
396.04	645.99
396.23	779.40
396.42	624.92
396.62	657.69
396.81	650.67
397.00	596.84
397.19	615.56
397.39	631.94
397.58	667.05
397.77	653.01
397.97	692.80
398.16	636.63
398.35	669.39
398.55	678.76
398.74	641.31
398.93	709.18
399.12	660.03
399.32	765.36
399.51	823.87
399.70	765.36
399.90	753.65
400.09	765.36
400.28	791.10
400.47	744.29
400.67	800.46
400.86	767.70
401.05	819.19
401.24	784.08
401.44	847.27
401.63	793.44
401.82	786.42
402.01	823.87
402.21	767.70
402.40	770.04
402.59	770.04
402.78	814.51
402.97	854.30
403.17	819.19
403.36	826.21
403.55	938.55
403.74	851.96
403.93	968.98
404.13	901.11
404.32	931.53
404.51	950.26
404.70	905.79
404.89	917.49
405.09	1078.99
405.28	947.92
405.47	971.32
405.66	985.37
405.85	971.32
406.05	978.34
406.24	1050.90
406.43	968.98
406.62	954.94
406.81	1071.97
407.00	980.68
407.20	1013.45
407.39	1067.28
407.58	1029.84
407.77	1088.35
407.96	1104.73
408.15	1104.73
408.34	1093.03
408.54	1081.33
408.73	1067.28
408.92	1149.20
409.11	1186.65
409.30	1139.84
409.49	1149.20
409.68	1210.06
409.87	1153.88
410.07	1109.41
410.26	1191.33
410.45	1240.48
410.64	1207.72
410.83	1196.01
411.02	1224.10
411.21	1207.72
411.40	1261.55
411.59	1186.65
411.78	1226.44
411.98	1282.61
412.17	1306.02
412.36	1345.81
412.55	1413.68
412.74	1376.24
412.93	1420.71
413.12	1430.07
413.31	1472.20
413.50	1306.02
413.69	1397.30
413.88	1432.41
414.07	1392.62
414.26	1533.05
414.45	1516.67
414.64	1423.05
414.83	1528.37
415.02	1523.69
415.22	1582.20
415.41	1617.31
415.60	1502.62
415.79	1540.07
415.98	1582.20
416.17	1593.90
416.36	1675.82
416.55	1561.14
416.74	1596.25
416.93	1591.56
417.12	1624.33
417.31	1612.63
417.50	1629.01
417.69	1671.14
417.88	1614.97
418.07	1729.66
418.26	1809.23
418.45	1839.66
418.64	1790.51
418.83	1664.12
419.02	1746.04
419.21	1930.94
419.39	1842.00
419.58	1727.32
419.77	1806.89
419.96	1755.40
420.15	1802.21
420.34	1781.15
420.53	1832.64
420.72	1898.17
420.91	1968.39
421.10	1940.30
421.29	1928.60
421.48	1846.68
421.67	2005.84
421.86	1902.86
422.05	2008.18
422.24	1898.17
422.43	1891.15
422.61	2033.93
422.80	2005.84
422.99	2064.35
423.18	2036.27
423.37	2150.95
423.56	2024.56
423.75	2010.52
423.94	1980.09
424.13	2054.99
424.32	1989.46
424.50	1961.37
424.69	2101.80
424.88	2017.54
425.07	2015.20
425.26	2017.54
425.45	1928.60
425.64	2008.18
425.83	1944.99
426.01	1989.46
426.20	1984.77
426.39	2085.42
426.58	1989.46
426.77	2113.50
426.96	1956.69
427.15	2153.29
427.33	2129.89
427.52	2209.47
427.71	2057.33
427.90	2064.35
428.09	2249.25
428.28	2207.13
428.46	2237.55
428.65	2251.60
428.84	2253.94
429.03	2342.88
429.22	2237.55
429.40	2225.85
429.59	2326.49
429.78	2265.64
429.97	2073.71
430.16	2296.07
430.34	2321.81
430.53	2279.68
430.72	2431.82
430.91	2366.28
431.10	2249.25
431.28	2354.58
431.47	2338.20
431.66	2427.14
431.85	2352.24
432.03	2511.39
432.22	2394.37
432.41	2490.33
432.60	2420.11
432.79	2324.15
432.97	2406.07
433.16	2455.22
433.35	2462.24
433.54	2476.29
433.72	2590.97
433.91	2452.88
434.10	2537.14
434.28	2429.48
434.47	2637.78
434.66	2516.08
434.85	2553.52
435.03	2504.37
435.22	2635.44
435.41	2574.59
435.59	2698.64
435.78	2572.25
435.97	2796.94
436.16	2600.34
436.34	2644.81
436.53	2794.60
436.72	2597.99
436.90	2682.25
437.09	2602.68
437.28	2724.38
437.46	2663.53
437.65	2764.17
437.84	2906.95
438.02	2869.50
438.21	2717.36
438.40	2773.53
438.58	2876.52
438.77	2949.08
438.96	2787.58
439.14	2822.69
439.33	2906.95
439.52	2946.73
439.70	2904.60
439.89	3101.21
440.08	3047.38
440.26	2988.86
440.45	2932.69
440.63	3061.42
440.82	3185.47
441.01	3112.91
441.19	3133.98
441.38	3213.56
441.57	3162.06
441.75	3101.21
441.94	3265.05
442.12	3297.81
442.31	3316.54
442.50	3356.33
442.68	3328.24
442.87	3243.98
443.05	3358.67
443.24	3403.14
443.43	3368.03
443.61	3475.70
443.80	3393.78
443.98	3330.58
444.17	3363.35
444.35	3461.65
444.54	3426.54
444.73	3426.54
444.91	3335.26
445.10	3454.63
445.28	3309.52
445.47	3435.91
445.65	3421.86
445.84	3407.82
446.02	3471.01
446.21	3447.61
446.39	3494.42
446.58	3384.41
446.77	3412.50
446.95	3463.99
447.14	3445.27
447.32	3508.46
447.51	3440.59
447.69	3489.74
447.88	3440.59
448.06	3531.87
448.25	3475.70
448.43	3538.89
448.62	3595.06
448.80	3456.97
448.99	3581.02
449.17	3623.15
449.36	3632.51
449.54	3592.72
449.73	3595.06
449.91	3693.37
450.10	3719.11
450.28	3775.28
450.46	3791.67
450.65	3796.35
450.83	3695.71
451.02	3674.64
451.20	3918.06
451.39	3803.37
451.57	3763.58
451.76	3681.66
451.94	3981.25
452.13	3712.09
452.31	3875.93
452.49	3686.34
452.68	3843.16
452.86	3794.01
453.05	3882.95
453.23	4018.70
453.42	3824.44
453.60	3892.31
453.78	3957.85
453.97	3815.07
454.15	3922.74
454.34	3920.40
454.52	4147.43
454.70	3941.46
454.89	4007.00
455.07	3995.29
455.26	4042.11
455.44	4079.55
455.62	4065.51
455.81	4154.45
455.99	4025.72
456.17	3936.78
456.36	4156.79
456.54	4152.11
456.73	4198.92
456.91	4353.40
457.09	4208.28
457.28	4414.25
457.46	4351.06
457.64	4337.01
457.83	4458.72
458.01	4353.40
458.19	4402.55
458.38	4393.19
458.56	4510.21
458.74	4435.32
458.93	4465.74
459.11	4484.47
459.29	4594.47
459.48	4498.51
459.66	4524.26
459.84	4505.53
460.03	4592.13
460.21	4585.11
460.39	4463.40
460.57	4564.04
460.76	4573.41
460.94	4608.51
461.12	4683.41
461.31	4524.26
461.49	4613.20
461.67	4671.71
461.85	4716.18
462.04	4652.98
462.22	4908.10
462.40	4746.61
462.59	4826.18
462.77	4755.97
462.95	4704.48
463.13	4767.67
463.32	4734.90
463.50	4868.31
463.68	4849.59
463.86	4901.08
464.05	4758.31
464.23	4777.03
464.41	4877.68
464.59	4692.77
464.78	4954.91
464.96	4830.87
465.14	4938.53
465.32	5107.05
465.50	5055.56
465.69	4980.66
465.87	4877.68
466.05	4968.96
466.23	5020.45
466.41	4863.63
466.60	5104.71
466.78	4968.96
466.96	5032.15
467.14	5083.64
467.32	5121.09
467.51	5210.03
467.69	4943.21
467.87	5022.79
468.05	5205.35
468.23	5226.42
468.41	5310.68
468.60	5165.56
468.78	5123.43
468.96	5226.42
469.14	5238.12
469.32	5387.91
469.50	5313.02
469.69	5439.40
469.87	5537.71
470.05	5427.70
470.23	5327.06
470.41	5451.11
470.59	5582.18
470.77	5502.60
470.95	5509.62
471.14	5633.67
471.32	5497.92
471.50	5657.07
471.68	5600.90
471.86	5586.86
472.04	5720.27
472.22	5664.10
472.40	5699.20
472.58	5661.76
472.77	5902.83
472.95	5755.38
473.13	5870.06
473.31	5921.56
473.49	5900.49
473.67	5811.55
473.85	5797.51
474.03	6076.03
474.21	6150.93
474.39	6083.05
474.57	6031.56
474.75	6061.99
474.93	6183.70
475.12	6193.06
475.30	6162.63
475.48	6303.06
475.66	6265.61
475.84	6277.32
476.02	6230.51
476.20	6380.30
476.38	6455.20
476.56	6593.29
476.74	6422.43
476.92	6513.71
477.10	6661.16
477.28	6825.00
477.46	6656.48
477.64	6686.91
477.82	6787.55
478.00	6956.07
478.18	6897.56
478.36	6890.54
478.54	7169.06
478.72	7265.02
478.90	6998.20
479.08	7115.23
479.26	7180.76
479.44	7236.94
479.62	7393.75
479.80	7496.74
479.98	7445.24
480.16	7634.83
480.34	7274.38
480.52	7646.53
480.70	7681.64
480.88	7555.25
481.06	7676.96
481.24	7637.17
481.41	7824.41
481.59	7995.27
481.77	8035.06
481.95	8011.65
482.13	8154.43
482.31	8077.19
482.49	8348.69
482.67	8318.26
482.85	8454.02
483.03	8397.84
483.21	8533.59
483.39	8549.98
483.57	8425.93
483.74	8421.25
483.92	8587.43
484.10	8709.13
484.28	8999.36
484.46	9018.08
484.64	9268.52
484.82	9123.41
485.00	9043.83
485.18	9301.29
485.35	9455.76
485.53	9371.50
485.71	9495.55
485.89	9741.31
486.07	9507.26
486.25	9486.19
486.43	9816.21
486.61	9928.55
486.78	9905.15
486.96	10066.64
487.14	10066.64
487.32	10080.69
487.50	10296.02
487.68	10090.05
487.85	10396.66
488.03	10590.92
488.21	10806.25
488.39	10693.91
488.57	10913.92
488.75	10623.69
488.92	10810.93
489.10	11061.37
489.28	11138.61
489.46	11096.48
489.64	11075.42
489.81	11199.46
489.99	11304.79
490.17	11087.12
490.35	11351.60
490.53	11470.97
490.70	11639.48
490.88	11721.40
491.06	11679.27
491.24	11789.28
491.41	11791.62
491.59	11910.99
491.77	12095.89
491.95	12339.30
492.13	12025.67
492.30	12336.96
492.48	12351.01
492.66	12475.06
492.84	12271.43
493.01	12776.98
493.19	12713.79
493.37	12968.91
493.54	13013.38
493.72	12924.44
493.90	12901.03
494.08	13092.96
494.25	13252.11
494.43	13369.14
494.61	13652.34
494.79	13380.84
494.96	13170.19
495.14	13376.16
495.32	13626.60
495.49	13479.15
495.67	13720.22
495.85	13825.54
496.02	13811.50
496.20	14221.10
496.38	14209.39
496.55	14043.21
496.73	14260.88
496.91	14326.42
497.09	14401.32
497.26	14281.95
497.44	14342.80
497.62	14532.39
497.79	14803.89
497.97	14579.20
498.14	14736.01
498.32	14717.29
498.50	14864.74
498.67	15002.83
498.85	14897.51
499.03	14853.04
499.20	15269.66
499.38	15154.97
499.56	15059.01
499.73	15234.55
499.91	15524.77
500.08	15241.57
500.26	15405.41
500.44	15199.44
500.61	15335.19
500.79	15646.48
500.97	15587.97
501.14	15857.13
501.32	16018.63
501.49	16035.01
501.67	16032.67
501.84	16177.78
502.02	16114.59
502.20	15817.34
502.37	16257.36
502.55	16269.06
502.72	16032.67
502.90	16191.83
503.07	16154.38
503.25	16285.45
503.43	16280.77
503.60	16418.86
503.78	16582.70
503.95	16622.48
504.13	16833.13
504.30	16634.19
504.48	16716.11
504.65	16886.97
504.83	16952.50
505.01	17252.09
505.18	17111.66
505.36	17041.44
505.53	16975.91
505.71	17163.15
505.88	17219.32
506.06	17123.36
506.23	17380.82
506.41	17305.92
506.58	17476.78
506.76	17481.46
506.93	17696.79
507.11	17287.20
507.28	17631.26
507.46	17411.25
507.63	17788.07
507.81	17991.70
507.98	17673.39
508.16	17916.80
508.33	18106.38
508.50	17657.00
508.68	17874.67
508.85	18195.32
509.03	17818.50
509.20	18293.63
509.38	18436.40
509.55	18583.85
509.73	18368.52
509.90	18443.42
510.08	18398.95
510.25	18429.38
510.42	18714.92
510.60	18707.90
510.77	18618.96
510.95	18941.96
511.12	18682.16
511.30	18707.90
511.47	18869.40
511.64	18930.25
511.82	19220.48
511.99	19187.71
512.17	19133.88
512.34	19227.50
512.51	19234.52
512.69	19262.61
512.86	19410.06
513.04	19599.65
513.21	19335.17
513.38	19260.27
513.56	19637.09
513.73	19524.75
513.90	19609.01
514.08	19520.07
514.25	19761.14
514.43	20060.73
514.60	19924.98
514.77	19819.66
514.95	19826.68
515.12	19775.19
515.29	20034.99
515.47	19955.41
515.64	20123.93
515.81	19929.66
515.99	20119.24
516.16	20402.45
516.33	20423.51
516.51	20353.30
516.68	20308.83
516.85	20446.92
517.03	20542.88
517.20	20601.40
517.37	20446.92
517.54	20856.51
517.72	20924.39
517.89	20561.61
518.06	20531.18
518.24	20528.84
518.41	20800.34
518.58	20599.05
518.75	20812.04
518.93	21198.23
519.10	20718.42
519.27	21153.76
519.45	20996.95
519.62	21048.44
519.79	21188.87
519.96	21338.66
520.14	21109.29
520.31	21343.35
520.48	21305.90
520.65	21104.61
520.83	21518.89
521.00	21425.26
521.17	21333.98
521.34	21521.23
521.52	21511.86
521.69	21771.66
521.86	21706.13
522.03	21928.48
522.20	22097.00
522.38	22038.48
522.55	21914.44
522.72	22253.81
522.89	21893.37
523.07	22101.68
523.24	22326.37
523.41	22155.51
523.58	22169.55
523.75	22445.74
523.92	21928.48
524.10	22010.40
524.27	22558.08
524.44	21940.18
524.61	22632.98
524.78	22698.52
524.96	22537.02
525.13	22459.78
525.30	22698.52
525.47	22544.04
525.64	22480.85
525.81	22759.37
525.98	23126.83
526.16	22703.20
526.33	22965.34
526.50	23110.45
526.67	22927.89
526.84	22675.11
527.01	22691.49
527.18	22855.33
527.36	23115.13
527.53	23269.61
527.70	23527.06
527.87	23704.95
528.04	23009.81
528.21	23604.30
528.38	23473.23
528.55	23407.70
528.72	23255.56
528.89	23351.52
529.07	23438.12
529.24	23358.55
529.41	23775.16
529.58	23562.17
529.75	23522.38
529.92	23442.81
530.09	23623.03
530.26	23882.83
530.43	24030.28
530.60	23880.49
530.77	23473.23
530.94	23983.47
531.11	23880.49
531.28	24046.66
531.46	24025.60
531.63	24212.84
531.80	24187.10
531.97	24135.60
532.14	24346.25
532.31	24322.85
532.48	24313.48
532.65	24219.86
532.82	24067.73
532.99	24372.00
533.16	24254.97
533.33	24505.41
533.50	24568.60
533.67	24573.28
533.84	24219.86
534.01	24503.07
534.18	24458.60
534.35	24807.34
534.52	24372.00
534.69	24610.73
534.86	24877.55
535.03	24687.97
535.20	24982.88
535.37	24865.85
535.54	24849.47
535.71	24723.08
535.88	24606.05
536.05	24819.04
536.22	25029.69
536.38	25025.01
536.55	25336.30
536.72	25043.73
536.89	25057.78
537.06	24933.73
537.23	24985.22
537.40	25062.46
537.57	25340.98
537.74	25139.69
537.91	25331.62
538.08	25294.17
538.25	24926.71
538.42	25102.25
538.59	25472.05
538.75	25071.82
538.92	25532.90
539.09	25528.22
539.26	25734.19
539.43	25860.58
539.60	25682.70
539.77	25502.48
539.94	25940.16
540.11	25511.84
540.28	25872.28
540.44	25790.36
540.61	25795.04
540.78	25823.13
540.95	25804.41
541.12	25961.22
541.29	25867.60
541.46	25907.39
541.62	25993.99
541.79	26008.03
541.96	25652.27
542.13	25671.00
542.30	26270.17
542.47	26441.03
542.63	26108.68
542.80	26326.35
542.97	26635.30
543.14	26431.67
543.31	26434.01
543.48	26183.57
543.64	26586.15
543.81	26529.97
543.98	26754.66
544.15	26782.75
544.32	26731.26
544.48	26845.94
544.65	26658.70
544.82	26654.02
544.99	26492.52
545.16	26899.78
545.32	26852.97
545.49	26857.65
545.66	27089.36
545.83	26768.71
546.00	26885.73
546.16	26984.04
546.33	26733.60
546.50	26625.93
546.67	26817.86
546.83	26410.60
547.00	26759.34
547.17	27190.00
547.34	27089.36
547.50	26958.29
547.67	27679.18
547.84	27297.67
548.00	27295.33
548.17	27281.28
548.34	26831.90
548.51	27449.80
548.67	27190.00
548.84	27470.87
549.01	27623.00
549.18	27431.08
549.34	27501.29
549.51	27190.00
549.68	27580.87
549.84	27508.32
550.01	27484.91
550.18	27023.83
550.34	27784.50
550.51	27349.16
550.68	27704.92
550.84	27559.81
551.01	27793.86
551.18	27143.19
551.34	27571.51
551.51	27704.92
551.68	27725.99
551.84	27585.55
552.01	27899.19
552.18	27747.05
552.34	27786.84
552.51	28161.33
552.68	27976.42
552.84	28140.26
553.01	27852.38
553.18	27513.00
553.34	27978.76
553.51	28208.14
553.67	28095.79
553.84	28151.96
554.01	28271.33
554.17	28311.12
554.34	28053.66
554.51	27990.47
554.67	28320.48
554.84	27894.50
555.00	28252.61
555.17	28386.02
555.33	28577.94
555.50	28215.16
555.67	28266.65
555.83	28081.75
556.00	28615.39
556.16	28589.64
556.33	28706.67
556.50	28400.06
556.66	28350.91
556.83	28334.53
556.99	28807.31
557.16	28936.04
557.32	28713.69
557.49	28802.63
557.65	28732.42
557.82	28257.29
557.98	28877.53
558.15	28744.12
558.32	29048.39
558.48	28671.56
558.65	28772.21
558.81	28779.23
558.98	28851.78
559.14	28732.42
559.31	28500.70
559.47	28416.44
559.64	28933.70
559.80	28882.21
559.97	28943.06
560.13	28582.62
560.30	28823.70
560.46	29036.69
560.63	28938.38
560.79	29132.65
560.96	28889.23
561.12	28865.83
561.29	28816.68
561.45	28666.88
561.61	29450.96
561.78	28912.64
561.94	29027.32
562.11	29200.52
562.27	29441.60
562.44	28811.99
562.60	28849.44
562.77	28767.52
562.93	29057.75
563.10	29158.39
563.26	29032.00
563.42	29095.20
563.59	29689.70
563.75	29223.93
563.92	29149.03
564.08	28847.10
564.24	29511.81
564.41	28886.89
564.57	29078.82
564.74	29149.03
564.90	29429.90
565.07	29256.70
565.23	29352.66
565.39	29125.63
565.56	29376.06
565.72	29142.01
565.88	29329.25
566.05	29268.40
566.21	29230.95
566.38	28994.56
566.54	29282.44
566.70	29523.52
566.87	29933.11
567.03	29778.64
567.19	29799.70
567.36	29202.86
567.52	29317.55
567.68	29546.92
567.85	29333.93
568.01	29415.85
568.17	29179.46
568.34	29647.57
568.50	29436.92
568.66	29317.55
568.83	29703.74
568.99	29289.46
569.15	29495.43
569.32	29355.00
569.48	29174.78
569.64	29816.08
569.81	29696.72
569.97	29909.71
570.13	29766.93
570.30	29738.85
570.46	29448.62
570.62	29408.83
570.78	29467.34
570.95	29715.44
571.11	29848.85
571.27	29734.17
571.43	29338.62
571.60	29537.56
571.76	30008.01
571.92	29818.42
572.09	29816.08
572.25	29804.38
572.41	29869.92
572.57	29809.06
572.74	30038.44
572.90	29720.12
573.06	29560.97
573.22	29689.70
573.38	29766.93
573.55	29928.43
573.71	30300.58
573.87	29717.78
574.03	29369.04
574.20	29970.56
574.36	29373.72
574.52	30054.82
574.68	29844.17
574.84	29823.11
575.01	29844.17
575.17	29989.28
575.33	29949.50
575.49	29916.73
575.65	30162.48
575.82	29912.05
575.98	29685.01
576.14	30045.46
576.30	30008.01
576.46	29699.06
576.62	29710.76
576.79	30071.20
576.95	29935.45
577.11	30026.73
577.27	29867.58
577.43	29738.85
577.59	30029.07
577.75	29584.37
577.92	29694.38
578.08	29792.68
578.24	30022.05
578.40	29869.92
578.56	30073.54
578.72	30328.66
578.88	30190.57
579.04	30078.22
579.21	30211.64
579.37	30162.48
579.53	30157.80
579.69	29759.91
579.85	29591.39
580.01	29743.53
580.17	29682.67
580.33	29996.31
580.49	30211.64
580.65	29972.90
580.82	30263.13
580.98	30225.68
581.14	30167.16
581.30	30136.74
581.46	29769.27
581.62	30045.46
581.78	29813.74
581.94	29876.94
582.10	29984.60
582.26	30061.84
582.42	30106.31
582.58	30075.88
582.74	30019.71
582.90	30368.45
583.06	30323.98
583.22	29993.97
583.38	29862.90
583.54	30455.05
583.70	29909.71
583.86	30000.99
584.02	29914.39
584.18	30218.66
584.34	30274.83
584.50	30553.35
584.66	29993.97
584.82	29682.67
584.98	30333.34
585.14	29663.95
585.30	29902.68
585.46	29893.32
585.62	30087.59
585.78	30181.21
585.94	30433.99
586.10	30363.77
586.26	30309.94
586.42	30309.94
586.58	30134.40
586.74	30136.74
586.90	30260.79
587.06	30239.72
587.22	30106.31
587.38	29823.11
587.54	30118.01
587.70	30574.42
587.86	30529.95
588.02	30480.80
588.18	30328.66
588.34	30340.36
588.49	30293.55
588.65	30125.04
588.81	30363.77
588.97	30359.09
589.13	30043.12
589.29	30417.60
589.45	30576.76
589.61	30691.44
589.77	30431.65
589.93	30270.15
590.08	30265.47
590.24	30857.62
590.40	30499.52
590.56	30707.83
590.72	30323.98
590.88	30176.53
591.04	30249.08
591.20	30569.74
591.35	30759.32
591.51	30558.03
591.67	30761.66
591.83	30813.15
591.99	30719.53
