SpectraSuite Data File
++++++++++++++++++++++++++++++++++++
Date: Fri Oct 18 13:58:36 GMT-05:00 2013
User: bianchi
Dark Spectrum Present: No
Reference Spectrum Present: No
Number of Sampled Component Spectra: 1
Spectrometers: USB2+H05261
Integration Time (usec): 50000 (USB2+H05261)
Spectra Averaged: 1 (USB2+H05261)
Boxcar Smoothing: 0 (USB2+H05261)
Correct for Electrical Dark: No (USB2+H05261)
Strobe/Lamp Enabled: No (USB2+H05261)
Correct for Detector Non-linearity: No (USB2+H05261)
Correct for Stray Light: No (USB2+H05261)
Number of Pixels in Processed Spectrum: 2048
>>>>>Begin Processed Spectral Data<<<<<
365.73	18.72
365.92	18.72
366.12	18.72
366.32	0.00
366.52	0.00
366.72	0.00
366.91	0.00
367.11	0.00
367.31	0.00
367.51	0.00
367.70	0.00
367.90	0.00
368.10	0.00
368.30	0.00
368.49	0.00
368.69	0.00
368.89	0.00
369.09	0.00
369.28	0.00
369.48	0.00
369.68	0.00
369.87	0.00
370.07	0.00
370.27	0.00
370.47	0.00
370.66	60.85
370.86	86.60
371.06	135.75
371.25	119.37
371.45	161.50
371.65	98.30
371.84	138.09
372.04	166.18
372.24	208.31
372.44	170.86
372.63	191.92
372.83	145.11
373.03	252.78
373.22	208.31
373.42	234.05
373.62	229.37
373.81	177.88
374.01	257.46
374.21	191.92
374.40	208.31
374.60	236.39
374.79	177.88
374.99	245.76
375.19	269.16
375.38	224.69
375.58	212.99
375.78	278.52
375.97	248.10
376.17	196.60
376.37	238.73
376.56	248.10
376.76	210.65
376.95	262.14
377.15	255.12
377.35	217.67
377.54	245.76
377.74	210.65
377.93	330.02
378.13	320.65
378.33	292.57
378.52	292.57
378.72	248.10
378.91	215.33
379.11	325.33
379.31	301.93
379.50	238.73
379.70	311.29
379.89	313.63
380.09	325.33
380.28	315.97
380.48	372.15
380.68	330.02
380.87	330.02
381.07	308.95
381.26	241.08
381.46	299.59
381.65	313.63
381.85	383.85
382.04	315.97
382.24	294.91
382.43	337.04
382.63	386.19
382.83	285.55
383.02	304.27
383.22	383.85
383.41	332.36
383.61	360.44
383.80	461.09
384.00	311.29
384.19	411.93
384.39	327.68
384.58	290.23
384.78	447.04
384.97	435.34
385.17	400.23
385.36	407.25
385.56	320.65
385.75	395.55
385.95	348.74
386.14	390.87
386.34	393.21
386.53	496.19
386.72	381.51
386.92	435.34
387.11	327.68
387.31	449.38
387.50	498.53
387.70	461.09
387.89	437.68
388.09	430.66
388.28	442.36
388.48	416.62
388.67	421.30
388.86	402.57
389.06	416.62
389.25	458.74
389.45	421.30
389.64	414.27
389.84	395.55
390.03	435.34
390.22	491.51
390.42	475.13
390.61	477.47
390.81	472.79
391.00	451.72
391.19	512.58
391.39	493.85
391.58	568.75
391.78	484.49
391.97	498.53
392.16	470.45
392.36	568.75
392.55	505.56
392.75	470.45
392.94	620.24
393.13	528.96
393.33	463.43
393.52	482.15
393.71	582.79
393.91	559.39
394.10	575.77
394.29	573.43
394.49	472.79
394.68	585.13
394.88	624.92
395.07	568.75
395.26	528.96
395.46	550.03
395.65	631.94
395.84	575.77
396.04	702.16
396.23	653.01
396.42	664.71
396.62	531.30
396.81	615.56
397.00	575.77
397.19	650.67
397.39	681.10
397.58	648.33
397.77	648.33
397.97	760.67
398.16	697.48
398.35	688.12
398.55	653.01
398.74	690.46
398.93	767.70
399.12	711.52
399.32	702.16
399.51	610.88
399.70	706.84
399.90	767.70
400.09	617.90
400.28	758.33
400.47	744.29
400.67	837.91
400.86	826.21
401.05	821.53
401.24	854.30
401.44	830.89
401.63	737.27
401.82	807.48
402.01	781.74
402.21	842.59
402.40	800.46
402.59	842.59
402.78	767.70
402.97	858.98
403.17	791.10
403.36	830.89
403.55	727.91
403.74	868.34
403.93	887.06
404.13	887.06
404.32	812.17
404.51	772.38
404.70	873.02
404.89	931.53
405.09	966.64
405.28	912.81
405.47	908.13
405.66	936.21
405.85	842.59
406.05	901.11
406.24	891.74
406.43	901.11
406.62	983.02
406.81	880.04
407.00	992.39
407.20	1050.90
407.39	1004.09
407.58	1048.56
407.77	1020.47
407.96	1048.56
408.15	1107.07
408.34	1043.88
408.54	1086.01
408.73	1137.50
408.92	1041.54
409.11	1053.24
409.30	1123.46
409.49	1135.16
409.68	1020.47
409.87	1078.99
410.07	1121.12
410.26	1071.97
410.45	1207.72
410.64	1207.72
410.83	1228.78
411.02	1289.64
411.21	1191.33
411.40	1200.69
411.59	1296.66
411.78	1327.08
411.98	1327.08
412.17	1224.10
412.36	1203.04
412.55	1320.06
412.74	1306.02
412.93	1338.79
413.12	1306.02
413.31	1423.05
413.50	1362.19
413.69	1392.62
413.88	1409.00
414.07	1453.47
414.26	1406.66
414.45	1399.64
414.64	1469.86
414.83	1488.58
415.02	1441.77
415.22	1523.69
415.41	1603.27
415.60	1568.16
415.79	1469.86
415.98	1568.16
416.17	1519.01
416.36	1633.69
416.55	1469.86
416.74	1490.92
416.93	1694.55
417.12	1572.84
417.31	1643.06
417.50	1643.06
417.69	1750.72
417.88	1729.66
418.07	1631.35
418.26	1708.59
418.45	1685.19
418.64	1753.06
418.83	1849.02
419.02	1767.10
419.21	1753.06
419.39	1776.47
419.58	1774.13
419.77	1708.59
419.96	1825.62
420.15	1947.33
420.34	1940.30
420.53	1863.07
420.72	1926.26
420.91	1874.77
421.10	1837.32
421.29	1980.09
421.48	1944.99
421.67	1977.75
421.86	1952.01
422.05	1888.81
422.24	1949.67
422.43	1888.81
422.61	2038.61
422.80	1914.56
422.99	1923.92
423.18	1989.46
423.37	2008.18
423.56	1921.58
423.75	1954.35
423.94	1935.62
424.13	1781.15
424.32	1940.30
424.50	1923.92
424.69	2080.74
424.88	2019.88
425.07	2005.84
425.26	1998.82
425.45	2094.78
425.64	1982.43
425.83	2022.22
426.01	2038.61
426.20	2003.50
426.39	2052.65
426.58	2085.42
426.77	2010.52
426.96	2085.42
427.15	2111.16
427.33	2050.31
427.52	2080.74
427.71	1975.41
427.90	2155.63
428.09	2139.25
428.28	2097.12
428.46	2270.32
428.65	2249.25
428.84	2113.50
429.03	2267.98
429.22	2193.08
429.40	2258.62
429.59	2282.02
429.78	2087.76
429.97	2111.16
430.16	2275.00
430.34	2118.18
430.53	2312.45
430.72	2296.07
430.91	2284.36
431.10	2275.00
431.28	2172.02
431.47	2373.30
431.66	2312.45
431.85	2345.22
432.03	2270.32
432.22	2403.73
432.41	2406.07
432.60	2457.56
432.79	2450.54
432.97	2408.41
433.16	2473.95
433.35	2335.85
433.54	2504.37
433.72	2445.86
433.91	2417.77
434.10	2462.24
434.28	2572.25
434.47	2602.68
434.66	2541.82
434.85	2597.99
435.03	2630.76
435.22	2588.63
435.41	2782.90
435.59	2506.71
435.78	2544.16
435.97	2710.34
436.16	2565.23
436.34	2607.36
436.53	2682.25
436.72	2663.53
436.90	2614.38
437.09	2789.92
437.28	2623.74
437.46	2761.83
437.65	2595.65
437.84	2686.94
438.02	2661.19
438.21	2771.19
438.40	2717.36
438.58	2895.24
438.77	2813.32
438.96	2813.32
439.14	2862.48
439.33	2848.43
439.52	2979.50
439.70	3007.59
439.89	3014.61
440.08	2998.23
440.26	2972.48
440.45	2979.50
440.63	3173.77
440.82	2995.89
441.01	3143.34
441.19	3157.38
441.38	3185.47
441.57	3040.36
441.75	3126.96
441.94	3286.11
442.12	3251.00
442.31	3316.54
442.50	3304.84
442.68	3297.81
442.87	3281.43
443.05	3185.47
443.24	3300.16
443.43	3365.69
443.61	3344.63
443.80	3506.12
443.98	3281.43
444.17	3171.43
444.35	3407.82
444.54	3400.80
444.73	3309.52
444.91	3410.16
445.10	3279.09
445.28	3363.35
445.47	3382.07
445.65	3382.07
445.84	3346.97
446.02	3424.20
446.21	3377.39
446.39	3480.38
446.58	3421.86
446.77	3508.46
446.95	3569.32
447.14	3562.30
447.32	3410.16
447.51	3559.95
447.69	3433.57
447.88	3517.83
448.06	3482.72
448.25	3471.01
448.43	3419.52
448.62	3447.61
448.80	3403.14
448.99	3538.89
449.17	3590.38
449.36	3552.93
449.54	3571.66
449.73	3644.21
449.91	3700.39
450.10	3702.73
450.28	3772.94
450.46	3627.83
450.65	3648.90
450.83	3674.64
451.02	3705.07
451.20	3655.92
451.39	3681.66
451.57	3627.83
451.76	3684.00
451.94	3812.73
452.13	3777.62
452.31	3880.61
452.49	3705.07
452.68	3728.47
452.86	3852.52
453.05	3777.62
453.23	3887.63
453.42	3819.75
453.60	3737.84
453.78	3772.94
453.97	3817.41
454.15	3918.06
454.34	3784.65
454.52	3864.22
454.70	3875.93
454.89	3852.52
455.07	4121.68
455.26	3953.16
455.44	3873.59
455.62	4109.98
455.81	4030.40
455.99	4098.28
456.17	4114.66
456.36	4112.32
456.54	4231.69
456.73	4241.05
456.91	4290.20
457.09	4409.57
457.28	4374.46
457.46	4189.56
457.64	4119.34
457.83	4374.46
458.01	4318.29
458.19	4297.22
458.38	4163.81
458.56	4337.01
458.74	4365.10
458.93	4400.21
459.11	4299.56
459.29	4367.44
459.48	4355.74
459.66	4299.56
459.84	4440.00
460.03	4496.17
460.21	4428.29
460.39	4444.68
460.57	4592.13
460.76	4554.68
460.94	4622.56
461.12	4685.75
461.31	4592.13
461.49	4575.75
461.67	4706.82
461.85	4730.22
462.04	4711.50
462.22	4695.11
462.40	4671.71
462.59	4662.35
462.77	4648.30
462.95	4592.13
463.13	4620.22
463.32	4734.90
463.50	4788.74
463.68	4791.08
463.86	4835.55
464.05	4737.24
464.23	4730.22
464.41	4678.73
464.59	4770.01
464.78	4887.04
464.96	4891.72
465.14	4830.87
465.32	4947.89
465.50	5025.13
465.69	4964.28
465.87	4868.31
466.05	4894.06
466.23	4840.23
466.41	5011.09
466.60	5123.43
466.78	4999.38
466.96	5153.86
467.14	4873.00
467.32	4985.34
467.51	5025.13
467.69	5071.94
467.87	5029.81
468.05	5231.10
468.23	5088.32
468.41	5015.77
468.60	5060.24
468.78	5153.86
468.96	5078.96
469.14	5301.31
469.32	5268.55
469.50	5142.16
469.69	5226.42
469.87	5345.78
470.05	5188.97
470.23	5277.91
470.41	5352.81
470.59	5324.72
470.77	5397.28
470.95	5526.00
471.14	5563.45
471.32	5296.63
471.50	5605.58
471.68	5589.20
471.86	5577.50
472.04	5617.29
472.22	5640.69
472.40	5600.90
472.58	5647.71
472.77	5722.61
472.95	5654.73
473.13	5991.77
473.31	5792.83
473.49	5738.99
473.67	5776.44
473.85	5837.30
474.03	5935.60
474.21	5830.27
474.39	6066.67
474.57	6047.94
474.75	6052.63
474.93	6282.00
475.12	6059.65
475.30	6050.28
475.48	6176.67
475.66	6195.40
475.84	6338.17
476.02	6326.47
476.20	6286.68
476.38	6434.13
476.56	6319.45
476.74	6455.20
476.92	6541.80
477.10	6471.58
477.28	6544.14
477.46	6654.14
477.64	6530.09
477.82	6792.23
478.00	6918.62
478.18	6806.28
478.36	6909.26
478.54	6963.09
478.72	6888.20
478.90	7091.82
479.08	7178.42
479.26	7091.82
479.44	7260.34
479.62	7262.68
479.80	7332.90
479.98	7412.48
480.16	7475.67
480.34	7328.22
480.52	7545.89
480.70	7442.90
480.88	7480.35
481.06	7581.00
481.24	7761.22
481.41	7716.75
481.59	7850.16
481.77	7932.08
481.95	7992.93
482.13	7889.95
482.31	7955.48
482.49	8142.72
482.67	8180.17
482.85	8372.10
483.03	8219.96
483.21	8416.57
483.39	8306.56
483.57	8542.96
483.74	8613.17
483.92	8814.46
484.10	8519.55
484.28	8793.39
484.46	8887.01
484.64	9043.83
484.82	8926.80
485.00	8877.65
485.18	9191.28
485.35	9238.09
485.53	9261.50
485.71	9483.85
485.89	9444.06
486.07	9451.08
486.25	9397.25
486.43	9397.25
486.61	9584.49
486.78	9682.80
486.96	9680.46
487.14	9947.28
487.32	9933.23
487.50	10080.69
487.68	10188.35
487.85	10190.69
488.03	10244.52
488.21	10490.28
488.39	10363.89
488.57	10555.82
488.75	10434.11
488.92	10911.58
489.10	10656.46
489.28	10895.19
489.46	10988.82
489.64	10930.30
489.81	11321.17
489.99	11309.47
490.17	11105.84
490.35	11288.40
490.53	11564.59
490.70	11325.85
490.88	11522.46
491.06	11363.30
491.24	11655.87
491.41	11714.38
491.59	11936.73
491.77	11875.88
491.95	11838.43
492.13	12105.25
492.30	12299.52
492.48	12287.81
492.66	12091.21
492.84	12119.29
493.01	12489.10
493.19	12388.46
493.37	12430.59
493.54	12744.22
493.72	12819.11
493.90	12954.87
494.08	12753.58
494.25	13036.78
494.43	13188.92
494.61	13071.89
494.79	12872.95
494.96	12847.20
495.14	13104.66
495.32	13331.69
495.49	13408.93
495.67	13357.44
495.85	13516.59
496.02	13537.66
496.20	13720.22
496.38	13900.44
496.55	13708.52
496.73	14122.79
496.91	14167.26
497.09	13874.70
497.26	14150.88
497.44	14134.50
497.62	14258.54
497.79	14239.82
497.97	14207.05
498.14	14534.73
498.32	14616.65
498.50	14871.76
498.67	14787.50
498.85	14775.80
499.03	14839.00
499.20	14853.04
499.38	14913.89
499.56	14782.82
499.73	15150.29
499.91	14897.51
500.08	15227.53
500.26	15119.86
500.44	15014.54
500.61	15405.41
500.79	15475.62
500.97	15367.96
501.14	15477.96
501.32	15655.84
501.49	15758.83
501.67	15580.95
501.84	15843.09
502.02	16025.65
502.20	15714.36
502.37	16285.45
502.55	15777.55
502.72	15887.56
502.90	16156.72
503.07	15812.66
503.25	15880.53
503.43	16161.40
503.60	16498.44
503.78	16468.01
503.95	16140.33
504.13	16322.90
504.30	16613.12
504.48	16709.08
504.65	16395.45
504.83	16650.57
505.01	16683.34
505.18	16788.66
505.36	16947.82
505.53	16812.07
505.71	17078.89
505.88	16980.59
506.06	16954.84
506.23	17310.60
506.41	16863.56
506.58	17242.73
506.76	16980.59
506.93	17095.27
507.11	17041.44
507.28	17298.90
507.46	17301.24
507.63	17509.55
507.81	17511.89
507.98	17200.60
508.16	17736.58
508.33	17734.24
508.50	17687.43
508.68	17774.03
508.85	17694.45
509.03	18080.64
509.20	17846.58
509.38	18120.43
509.55	18141.49
509.73	17926.16
509.90	17989.36
510.08	18228.09
510.25	18225.75
510.42	18284.26
510.60	18665.77
510.77	18223.41
510.95	18759.39
511.12	18148.51
511.30	18342.78
511.47	18682.16
511.64	18831.95
511.82	18630.66
511.99	18864.72
512.17	18796.84
512.34	18745.35
512.51	19056.64
512.69	18754.71
512.86	19136.22
513.04	19513.05
513.21	19480.28
513.38	19393.68
513.56	19447.51
513.73	19091.75
513.90	19239.20
514.08	19384.32
514.25	19646.46
514.43	19499.00
514.60	19587.94
514.77	19529.43
514.95	19616.03
515.12	19417.08
515.29	19960.09
515.47	19829.02
515.64	19786.89
515.81	19915.62
515.99	19826.68
516.16	19798.59
516.33	19997.54
516.51	19901.58
516.68	20095.84
516.85	19892.21
517.03	20187.12
517.20	20271.38
517.37	20346.28
517.54	20318.19
517.72	20262.02
517.89	20603.74
518.06	20229.25
518.24	20407.13
518.41	20449.26
518.58	20444.58
518.75	20610.76
518.93	20514.80
519.10	20695.02
519.27	20641.18
519.45	20255.00
519.62	20673.95
519.79	20924.39
519.96	20812.04
520.14	21090.57
520.31	20973.54
520.48	21067.16
520.65	21191.21
520.83	21099.93
521.00	21125.68
521.17	21186.53
521.34	21186.53
521.52	21324.62
521.69	21144.40
521.86	21715.49
522.03	21860.60
522.20	21509.52
522.38	21458.03
522.55	21811.45
522.72	21233.34
522.89	21713.15
523.07	22047.85
523.24	21844.22
523.41	21717.83
523.58	21832.52
523.75	22146.15
523.92	21825.50
524.10	21909.75
524.27	21975.29
524.44	22286.58
524.61	22097.00
524.78	22319.35
524.96	22136.79
525.13	22403.61
525.30	22513.61
525.47	22284.24
525.64	22216.36
525.81	22384.88
525.98	22885.76
526.16	22656.39
526.33	22635.32
526.50	22803.84
526.67	22417.65
526.84	22441.06
527.01	22604.89
527.18	22497.23
527.36	22548.72
527.53	22621.28
527.70	22995.76
527.87	23112.79
528.04	22831.93
528.21	23269.61
528.38	23138.54
528.55	22963.00
528.72	23063.64
528.89	23278.97
529.07	23150.24
529.24	23288.33
529.41	23304.71
529.58	23356.21
529.75	22892.78
529.92	23180.67
530.09	23112.79
530.26	22885.76
530.43	23351.52
530.60	23300.03
530.77	23314.08
530.94	23587.92
531.11	23295.35
531.28	23061.30
531.46	23147.90
531.63	23527.06
531.80	23784.52
531.97	24159.01
532.14	24236.25
532.31	23775.16
532.48	24058.37
532.65	24189.44
532.82	23838.36
532.99	23873.46
533.16	23903.89
533.33	24095.82
533.50	24360.30
533.67	24168.37
533.84	23953.04
534.01	24229.23
534.18	23910.91
534.35	24334.55
534.52	24135.60
534.69	24507.75
534.86	24613.07
535.03	24044.32
535.20	24254.97
535.37	24311.14
535.54	24680.95
535.71	24416.47
535.88	24659.88
536.05	24343.91
536.22	24915.00
536.38	24994.58
536.55	24718.40
536.72	24886.92
536.89	24786.27
537.06	25221.61
537.23	25095.22
537.40	24634.14
537.57	24856.49
537.74	24856.49
537.91	25181.82
538.08	24613.07
538.25	25149.06
538.42	25090.54
538.59	25256.72
538.75	25125.65
538.92	24999.26
539.09	25006.28
539.26	25032.03
539.43	25050.75
539.60	25394.81
539.77	25310.55
539.94	25085.86
540.11	25132.67
540.28	25380.77
540.44	25432.26
540.61	25238.00
540.78	25453.33
540.95	25483.75
541.12	25570.35
541.29	25376.09
541.46	25235.66
541.62	25528.22
541.79	25443.96
541.96	25282.47
542.13	25612.48
542.30	25420.56
542.47	25869.94
542.63	25673.34
542.80	25722.49
542.97	25886.32
543.14	26122.72
543.31	26017.40
543.48	25619.50
543.64	26103.99
543.81	26169.53
543.98	26270.17
544.15	25923.77
544.32	26314.64
544.48	26567.42
544.65	26338.05
544.82	26651.68
544.99	26216.34
545.16	26457.42
545.32	26380.18
545.49	26785.09
545.66	26548.70
545.83	26654.02
546.00	26665.72
546.16	26288.90
546.33	26478.48
546.50	25813.77
546.67	26670.40
546.83	26188.25
547.00	26576.78
547.17	26347.41
547.34	26553.38
547.50	26602.53
547.67	26749.98
547.84	27087.02
548.00	26686.79
548.17	26946.59
548.34	26808.50
548.51	27080.00
548.67	26869.35
548.84	26768.71
549.01	26864.67
549.18	27065.96
549.34	26993.40
549.51	27204.05
549.68	26513.59
549.84	27000.42
550.01	27033.19
550.18	26679.77
550.34	27040.21
550.51	27461.51
550.68	27452.14
550.84	26843.60
551.01	27351.50
551.18	26871.69
551.34	27524.70
551.51	27578.53
551.68	27494.27
551.84	27070.64
552.01	27314.05
552.18	27810.25
552.34	27482.57
552.51	27653.43
552.68	27154.90
552.84	27417.04
553.01	27576.19
553.18	27538.74
553.34	27665.13
553.51	27798.54
553.67	27861.74
553.84	27658.11
554.01	28039.62
554.17	27843.01
554.34	27323.41
554.51	27702.58
554.67	27889.82
554.84	27786.84
555.00	27702.58
555.17	27754.07
555.33	27833.65
555.50	27960.04
555.67	28002.17
555.83	27716.62
556.00	27721.30
556.16	27978.76
556.33	27992.81
556.50	28133.24
556.66	28299.42
556.83	27992.81
556.99	28154.30
557.16	28285.37
557.32	28194.09
557.49	28308.78
557.65	27775.14
557.82	28074.73
557.98	28067.70
558.15	28070.04
558.32	28112.17
558.48	28444.53
558.65	28641.14
558.81	27985.79
558.98	28109.83
559.14	27974.08
559.31	28444.53
559.47	27840.67
559.64	28463.25
559.80	28217.50
559.97	28472.62
560.13	28451.55
560.30	28472.62
560.46	28404.74
560.63	28470.28
560.79	28591.98
560.96	28519.43
561.12	28257.29
561.29	28526.45
561.45	28463.25
561.61	28828.38
561.78	28730.08
561.94	28371.97
562.11	28748.80
562.27	28545.17
562.44	28432.83
562.60	28500.70
562.77	28369.63
562.93	28322.82
563.10	28423.47
563.26	28416.44
563.42	28662.20
563.59	28627.09
563.75	29099.88
563.92	28793.27
564.08	28631.77
564.24	28992.22
564.41	28840.08
564.57	28109.83
564.74	28603.69
564.90	28985.19
565.07	28957.11
565.23	29057.75
565.39	29008.60
565.56	29010.94
565.72	28989.88
565.88	29010.94
566.05	28266.65
566.21	29118.60
566.38	28882.21
566.54	28903.28
566.70	29088.18
566.87	28966.47
567.03	28765.18
567.19	29343.30
567.36	28833.06
567.52	29060.09
567.68	29017.96
567.85	28589.64
568.01	28678.58
568.17	28809.65
568.34	29034.35
568.50	29020.30
568.66	29125.63
568.83	29055.41
568.99	29415.85
569.15	28840.08
569.32	28964.13
569.48	28819.02
569.64	29340.96
569.81	29479.05
569.97	29268.40
570.13	29570.33
570.30	28896.25
570.46	29626.50
570.62	29301.17
570.78	29172.44
570.95	29032.00
571.11	29186.48
571.27	28704.33
571.43	29127.97
571.60	29088.18
571.76	29277.76
571.92	29298.83
572.09	29399.47
572.25	29535.22
572.41	29303.51
572.57	29495.43
572.74	29734.17
572.90	29331.59
573.06	29113.92
573.22	28954.77
573.38	29343.30
573.55	29184.14
573.71	29404.15
573.87	29343.30
574.03	28882.21
574.20	29397.13
574.36	29050.73
574.52	29638.20
574.68	29095.20
574.84	29429.90
575.01	29092.86
575.17	29773.95
575.33	29254.36
575.49	28889.23
575.65	29472.03
575.82	29404.15
575.98	29308.19
576.14	29521.18
576.30	29041.37
576.46	29322.23
576.62	29455.64
576.79	29312.87
576.95	29378.40
577.11	29551.60
577.27	29661.61
577.43	29268.40
577.59	29668.63
577.75	29610.12
577.92	29230.95
578.08	29160.73
578.24	29350.32
578.40	29263.72
578.56	29589.05
578.72	29457.98
578.88	29638.20
579.04	29724.80
579.21	29450.96
579.37	29453.30
579.53	29532.88
579.69	29195.84
579.85	29383.09
580.01	29041.37
580.17	29263.72
580.33	29589.05
580.49	29490.75
580.65	29385.43
580.82	29617.14
580.98	29352.66
581.14	29422.87
581.30	29642.88
581.46	29773.95
581.62	29329.25
581.78	29259.04
581.94	29600.76
582.10	29738.85
582.26	29757.57
582.42	29530.54
582.58	29694.38
582.74	29570.33
582.90	29455.64
583.06	29699.06
583.22	29127.97
583.38	29455.64
583.54	29883.96
583.70	29497.77
583.86	29670.97
584.02	29380.74
584.18	29591.39
584.34	29525.86
584.50	29975.24
584.66	29575.01
584.82	29472.03
584.98	29546.92
585.14	29778.64
585.30	29528.20
585.46	29565.65
585.62	29149.03
585.78	29539.90
585.94	29223.93
586.10	29654.59
586.26	29504.79
586.42	29720.12
586.58	29771.61
586.74	29795.02
586.90	29565.65
587.06	29474.37
587.22	29214.57
587.38	29380.74
587.54	29940.13
587.70	30087.59
587.86	30148.44
588.02	29984.60
588.18	30171.85
588.34	29663.95
588.49	29874.60
588.65	29710.76
588.81	29743.53
588.97	30031.41
589.13	29556.28
589.29	29848.85
589.45	29773.95
589.61	29876.94
589.77	30319.30
589.93	30118.01
590.08	30057.16
590.24	30398.88
590.40	29820.77
590.56	30108.65
590.72	29773.95
590.88	29776.30
591.04	29790.34
591.20	30581.44
591.35	30441.01
591.51	30450.37
591.67	30120.35
591.83	30298.23
591.99	30108.65
