SpectraSuite Data File
++++++++++++++++++++++++++++++++++++
Date: Fri Oct 18 13:57:55 GMT-05:00 2013
User: bianchi
Dark Spectrum Present: No
Reference Spectrum Present: No
Number of Sampled Component Spectra: 1
Spectrometers: USB2+H05261
Integration Time (usec): 50000 (USB2+H05261)
Spectra Averaged: 1 (USB2+H05261)
Boxcar Smoothing: 0 (USB2+H05261)
Correct for Electrical Dark: No (USB2+H05261)
Strobe/Lamp Enabled: No (USB2+H05261)
Correct for Detector Non-linearity: No (USB2+H05261)
Correct for Stray Light: No (USB2+H05261)
Number of Pixels in Processed Spectrum: 2048
>>>>>Begin Processed Spectral Data<<<<<
365.73	0.00
365.92	0.00
366.12	0.00
366.32	0.00
366.52	0.00
366.72	0.00
366.91	0.00
367.11	0.00
367.31	0.00
367.51	0.00
367.70	0.00
367.90	0.00
368.10	0.00
368.30	0.00
368.49	0.00
368.69	0.00
368.89	0.00
369.09	0.00
369.28	0.00
369.48	0.00
369.68	0.00
369.87	0.00
370.07	0.00
370.27	0.00
370.47	0.00
370.66	135.75
370.86	182.56
371.06	138.09
371.25	159.16
371.45	126.39
371.65	135.75
371.84	245.76
372.04	173.20
372.24	196.60
372.44	222.35
372.63	159.16
372.83	252.78
373.03	201.29
373.22	170.86
373.42	142.77
373.62	173.20
373.81	285.55
374.01	290.23
374.21	255.12
374.40	245.76
374.60	229.37
374.79	266.82
374.99	227.03
375.19	278.52
375.38	308.95
375.58	299.59
375.78	283.20
375.97	264.48
376.17	196.60
376.37	217.67
376.56	273.84
376.76	264.48
376.95	201.29
377.15	299.59
377.35	269.16
377.54	220.01
377.74	322.99
377.93	292.57
378.13	306.61
378.33	255.12
378.52	306.61
378.72	283.20
378.91	278.52
379.11	311.29
379.31	318.31
379.50	248.10
379.70	348.74
379.89	334.70
380.09	332.36
380.28	341.72
380.48	327.68
380.68	231.71
380.87	276.18
381.07	334.70
381.26	379.17
381.46	290.23
381.65	255.12
381.85	388.53
382.04	334.70
382.24	383.85
382.43	423.64
382.63	374.49
382.83	348.74
383.02	365.12
383.22	397.89
383.41	248.10
383.61	379.17
383.80	425.98
384.00	395.55
384.19	376.83
384.39	379.17
384.58	360.44
384.78	416.62
384.97	386.19
385.17	390.87
385.36	409.59
385.56	386.19
385.75	379.17
385.95	351.08
386.14	376.83
386.34	444.70
386.53	458.74
386.72	437.68
386.92	395.55
387.11	397.89
387.31	374.49
387.50	430.66
387.70	444.70
387.89	461.09
388.09	444.70
388.28	493.85
388.48	461.09
388.67	475.13
388.86	465.77
389.06	526.62
389.25	491.51
389.45	475.13
389.64	479.81
389.84	564.07
390.03	465.77
390.22	430.66
390.42	454.06
390.61	463.43
390.81	454.06
391.00	550.03
391.19	510.24
391.39	442.36
391.58	561.73
391.78	519.60
391.97	552.37
392.16	554.71
392.36	543.00
392.55	538.32
392.75	580.45
392.94	528.96
393.13	535.98
393.33	538.32
393.52	484.49
393.71	603.86
393.91	599.18
394.10	493.85
394.29	503.22
394.49	617.90
394.68	603.86
394.88	613.22
395.07	622.58
395.26	603.86
395.46	645.99
395.65	585.13
395.84	685.78
396.04	641.31
396.23	578.11
396.42	690.46
396.62	716.20
396.81	641.31
397.00	643.65
397.19	711.52
397.39	629.60
397.58	657.69
397.77	681.10
397.97	650.67
398.16	657.69
398.35	706.84
398.55	727.91
398.74	746.63
398.93	741.95
399.12	753.65
399.32	662.37
399.51	732.59
399.70	723.23
399.90	781.74
400.09	718.54
400.28	779.40
400.47	788.76
400.67	861.32
400.86	676.41
401.05	816.85
401.24	901.11
401.44	910.47
401.63	812.17
401.82	847.27
402.01	739.61
402.21	896.43
402.40	908.13
402.59	877.70
402.78	821.53
402.97	898.77
403.17	889.40
403.36	866.00
403.55	910.47
403.74	856.64
403.93	1006.43
404.13	943.24
404.32	931.53
404.51	959.62
404.70	915.15
404.89	961.96
405.09	966.64
405.28	884.72
405.47	947.92
405.66	999.41
405.85	926.85
406.05	1086.01
406.24	943.24
406.43	1088.35
406.62	1071.97
406.81	1064.94
407.00	1027.50
407.20	1025.15
407.39	1060.26
407.58	1128.14
407.77	1196.01
407.96	1177.29
408.15	1181.97
408.34	1029.84
408.54	1132.82
408.73	1146.86
408.92	1167.93
409.11	1172.61
409.30	1114.10
409.49	1144.52
409.68	1114.10
409.87	1163.25
410.07	1296.66
410.26	1235.80
410.45	1256.87
410.64	1116.44
410.83	1214.74
411.02	1273.25
411.21	1320.06
411.40	1219.42
411.59	1231.12
411.78	1317.72
411.98	1364.53
412.17	1315.38
412.36	1418.36
412.55	1308.36
412.74	1453.47
412.93	1406.66
413.12	1343.47
413.31	1420.71
413.50	1423.05
413.69	1476.88
413.88	1474.54
414.07	1453.47
414.26	1413.68
414.45	1441.77
414.64	1453.47
414.83	1523.69
415.02	1547.09
415.22	1661.78
415.41	1640.72
415.60	1533.05
415.79	1734.34
415.98	1657.10
416.17	1706.25
416.36	1746.04
416.55	1629.01
416.74	1661.78
416.93	1736.68
417.12	1722.63
417.31	1743.70
417.50	1736.68
417.69	1750.72
417.88	1769.44
418.07	1776.47
418.26	1734.34
418.45	1764.76
418.64	1816.26
418.83	1788.17
419.02	1893.49
419.21	1795.19
419.39	1884.13
419.58	1919.24
419.77	1795.19
419.96	1863.07
420.15	1982.43
420.34	1874.77
420.53	1851.36
420.72	2003.50
420.91	1989.46
421.10	1933.28
421.29	2010.52
421.48	1963.71
421.67	1935.62
421.86	1933.28
422.05	2010.52
422.24	2087.76
422.43	1905.20
422.61	2069.03
422.80	2017.54
422.99	1907.54
423.18	2017.54
423.37	2106.48
423.56	2078.40
423.75	1991.80
423.94	1884.13
424.13	1987.11
424.32	1954.35
424.50	2015.20
424.69	2150.95
424.88	2136.91
425.07	2113.50
425.26	2010.52
425.45	2209.47
425.64	2090.10
425.83	2113.50
426.01	2097.12
426.20	2104.14
426.39	2113.50
426.58	2099.46
426.77	2071.37
426.96	2174.36
427.15	2120.53
427.33	2286.70
427.52	2078.40
427.71	2132.23
427.90	2209.47
428.09	2076.06
428.28	2225.85
428.46	2282.02
428.65	2139.25
428.84	2195.42
429.03	2314.79
429.22	2289.04
429.40	2242.23
429.59	2244.57
429.78	2165.00
429.97	2214.15
430.16	2223.51
430.34	2310.11
430.53	2368.62
430.72	2368.62
430.91	2380.32
431.10	2399.05
431.28	2321.81
431.47	2354.58
431.66	2396.71
431.85	2462.24
432.03	2373.30
432.22	2569.91
432.41	2523.10
432.60	2502.03
432.79	2532.46
432.97	2504.37
433.16	2656.51
433.35	2593.31
433.54	2541.82
433.72	2586.29
433.91	2607.36
434.10	2548.84
434.28	2523.10
434.47	2595.65
434.66	2537.14
434.85	2717.36
435.03	2644.81
435.22	2675.23
435.41	2787.58
435.59	2700.98
435.78	2738.43
435.97	2740.77
436.16	2729.06
436.34	2757.15
436.53	2836.73
436.72	2808.64
436.90	2679.91
437.09	2920.99
437.28	2623.74
437.46	2832.05
437.65	2841.41
437.84	2937.37
438.02	2857.79
438.21	2881.20
438.40	2911.63
438.58	2902.26
438.77	3052.06
438.96	2890.56
439.14	2988.86
439.33	2925.67
439.52	3061.42
439.70	3016.95
439.89	3073.12
440.08	3218.24
440.26	3173.77
440.45	3009.93
440.63	3157.38
440.82	3183.13
441.01	3155.04
441.19	3187.81
441.38	3281.43
441.57	3234.62
441.75	3236.96
441.94	3372.71
442.12	3431.23
442.31	3454.63
442.50	3386.76
442.68	3337.60
442.87	3463.99
443.05	3412.50
443.24	3428.88
443.43	3269.73
443.61	3527.19
443.80	3522.51
443.98	3400.80
444.17	3276.75
444.35	3588.04
444.54	3583.36
444.73	3653.58
444.91	3548.25
445.10	3520.17
445.28	3562.30
445.47	3578.68
445.65	3606.77
445.84	3576.34
446.02	3639.53
446.21	3438.25
446.39	3492.08
446.58	3529.53
446.77	3442.93
446.95	3520.17
447.14	3536.55
447.32	3515.48
447.51	3604.42
447.69	3691.02
447.88	3576.34
448.06	3515.48
448.25	3522.51
448.43	3634.85
448.62	3445.27
448.80	3667.62
448.99	3686.34
449.17	3735.50
449.36	3515.48
449.54	3747.20
449.73	3824.44
449.91	3796.35
450.10	3674.64
450.28	3719.11
450.46	3742.52
450.65	3730.81
450.83	3779.97
451.02	3894.65
451.20	3847.84
451.39	3990.61
451.57	3831.46
451.76	3925.08
451.94	3756.56
452.13	4004.66
452.31	4016.36
452.49	4042.11
452.68	3896.99
452.86	3922.74
453.05	4109.98
453.23	4058.49
453.42	4023.38
453.60	3894.65
453.78	4037.42
453.97	4121.68
454.15	4037.42
454.34	4063.17
454.52	4053.81
454.70	4210.62
454.89	4138.07
455.07	4173.18
455.26	4131.05
455.44	4210.62
455.62	4060.83
455.81	4224.67
455.99	4248.07
456.17	4168.49
456.36	4353.40
456.54	4418.93
456.73	4273.82
456.91	4599.15
457.09	4400.21
457.28	4332.33
457.46	4278.50
457.64	4344.03
457.83	4566.39
458.01	4353.40
458.19	4512.55
458.38	4306.59
458.56	4430.63
458.74	4545.32
458.93	4538.30
459.11	4592.13
459.29	4568.73
459.48	4538.30
459.66	4671.71
459.84	4709.16
460.03	4795.76
460.21	4657.67
460.39	4641.28
460.57	4568.73
460.76	4734.90
460.94	4727.88
461.12	4793.42
461.31	4884.70
461.49	4674.05
461.67	4734.90
461.85	4784.06
462.04	4863.63
462.22	5165.56
462.40	4870.65
462.59	4875.34
462.77	4961.94
462.95	5074.28
463.13	4868.31
463.32	4931.51
463.50	5060.24
463.68	4994.70
463.86	4931.51
464.05	4903.42
464.23	4910.44
464.41	4983.00
464.59	5006.41
464.78	4997.04
464.96	5118.75
465.14	5041.51
465.32	5018.11
465.50	4947.89
465.69	5153.86
465.87	5050.88
466.05	5158.54
466.23	5118.75
466.41	5207.69
466.60	5233.44
466.78	5301.31
466.96	5184.29
467.14	5205.35
467.32	5305.99
467.51	5352.81
467.69	5217.05
467.87	5219.39
468.05	5315.36
468.23	5247.48
468.41	5142.16
468.60	5416.00
468.78	5392.59
468.96	5355.15
469.14	5397.28
469.32	5289.61
469.50	5217.05
469.69	5446.43
469.87	5654.73
470.05	5657.07
470.23	5556.43
470.41	5570.48
470.59	5528.35
470.77	5600.90
470.95	5633.67
471.14	5703.89
471.32	5432.38
471.50	5860.70
471.68	5816.23
471.86	5757.72
472.04	5788.14
472.22	5989.43
472.40	5678.14
472.58	5816.23
472.77	6104.12
472.95	5816.23
473.13	6167.31
473.31	6094.76
473.49	6106.46
473.67	5877.09
473.85	6076.03
474.03	6197.74
474.21	6106.46
474.39	6258.59
474.57	6256.25
474.75	6221.14
474.93	6216.46
475.12	6239.87
475.30	6370.94
475.48	6263.27
475.66	6516.05
475.84	6392.00
476.02	6464.56
476.20	6740.74
476.38	6633.08
476.56	6778.19
476.74	6612.01
476.92	6616.69
477.10	6822.66
477.28	6822.66
477.46	6839.05
477.64	6925.65
477.82	6916.28
478.00	7098.84
478.18	7222.89
478.36	7250.98
478.54	7283.75
478.72	7112.89
478.90	7166.72
479.08	7513.12
479.26	7368.01
479.44	7468.65
479.62	7672.28
479.80	7646.53
479.98	7569.29
480.16	7808.03
480.34	7660.57
480.52	7784.62
480.70	7829.09
480.88	7784.62
481.06	7775.26
481.24	7705.04
481.41	7859.52
481.59	8313.58
481.77	8173.15
481.95	8131.02
482.13	8257.41
482.31	8472.74
482.49	8641.26
482.67	8533.59
482.85	8477.42
483.03	8732.54
483.21	8671.68
483.39	8772.33
483.57	8847.22
483.74	8798.07
483.92	8933.82
484.10	8931.48
484.28	9039.15
484.46	9240.44
484.64	9549.39
484.82	9064.89
485.00	9027.45
485.18	9385.55
485.35	9724.93
485.53	9589.17
485.71	9785.78
485.89	9921.53
486.07	9785.78
486.25	10015.15
486.43	9980.04
486.61	10064.30
486.78	10157.92
486.96	10139.20
487.14	10424.75
487.32	10178.99
487.50	10569.86
487.68	10331.12
487.85	10466.88
488.03	10630.71
488.21	10806.25
488.39	10801.57
488.57	10874.13
488.75	10920.94
488.92	11194.78
489.10	11295.43
489.28	11218.19
489.46	11269.68
489.64	11623.10
489.81	11410.11
489.99	11548.20
490.17	11812.68
490.35	11985.88
490.53	11681.61
490.70	11929.71
490.88	11985.88
491.06	12126.32
491.24	11955.46
491.41	12243.34
491.59	12430.59
491.77	12358.03
491.95	12486.76
492.13	12713.79
492.30	12688.04
492.48	12578.04
492.66	12634.21
492.84	12952.52
493.01	12896.35
493.19	13001.68
493.37	13135.09
493.54	13111.68
493.72	13090.62
493.90	12999.34
494.08	13296.58
494.25	13472.12
494.43	13598.51
494.61	13628.94
494.79	13547.02
494.96	13752.99
495.14	13593.83
495.32	14005.77
495.49	13951.93
495.67	14216.41
495.85	14211.73
496.02	14516.00
496.20	14438.76
496.38	14209.39
496.55	14476.21
496.73	14824.95
496.91	14565.15
497.09	14771.12
497.26	14981.77
497.44	14410.68
497.62	14752.40
497.79	15124.54
497.97	14808.57
498.14	15293.06
498.32	15180.71
498.50	15276.68
498.67	15515.41
498.85	15161.99
499.03	15704.99
499.20	15508.39
499.38	15403.07
499.56	15513.07
499.73	15583.29
499.91	15838.41
500.08	16049.05
500.26	15660.52
500.44	16116.93
500.61	16100.55
500.79	15953.09
500.97	16135.65
501.14	16194.17
501.32	16273.74
501.49	16308.85
501.67	16369.71
501.84	16514.82
502.02	16093.52
502.20	16489.07
502.37	16505.46
502.55	16355.66
502.72	16645.89
502.90	16798.02
503.07	16688.02
503.25	16826.11
503.43	17060.16
503.60	17053.14
503.78	17263.79
503.95	17032.08
504.13	17139.74
504.30	17076.55
504.48	17043.78
504.65	17053.14
504.83	17294.22
505.01	17619.55
505.18	17617.21
505.36	17813.82
505.53	17460.40
505.71	17516.57
505.88	17977.65
506.06	17738.92
506.23	17682.75
506.41	17912.12
506.58	17961.27
506.76	18106.38
506.93	17795.09
507.11	17652.32
507.28	17778.71
507.46	18061.91
507.63	18387.25
507.81	18310.01
507.98	18204.69
508.16	18265.54
508.33	18225.75
508.50	18314.69
508.68	18633.00
508.85	18909.19
509.03	18696.20
509.20	18937.27
509.38	18904.51
509.55	18944.30
509.73	18934.93
509.90	18838.97
510.08	18787.48
510.25	19110.47
510.42	19023.87
510.60	19559.86
510.77	18977.06
510.95	19314.10
511.12	18946.64
511.30	19246.23
511.47	19225.16
511.64	19211.12
511.82	19637.09
511.99	19609.01
512.17	19559.86
512.34	19424.11
512.51	19789.23
512.69	19721.35
512.86	19810.29
513.04	20053.71
513.21	20051.37
513.38	20032.65
513.56	20208.19
513.73	19913.28
513.90	19896.89
514.08	20212.87
514.25	20407.13
514.43	20510.11
514.60	20463.30
514.77	20219.89
514.95	20666.93
515.12	20191.80
515.29	20229.25
515.47	20554.58
515.64	20549.90
515.81	20585.01
515.99	20879.92
516.16	20769.91
516.33	20659.91
516.51	21170.15
516.68	20643.52
516.85	20830.77
517.03	20910.35
517.20	21298.88
517.37	21071.84
517.54	20985.24
517.72	21006.31
517.89	21331.64
518.06	21387.82
518.24	21593.78
518.41	21341.00
518.58	21214.62
518.75	21312.92
518.93	21504.84
519.10	21298.88
519.27	21748.26
519.45	21762.30
519.62	21640.59
519.79	21802.09
519.96	21724.85
520.14	21944.86
520.31	21912.10
520.48	22204.66
520.65	21958.91
520.83	21806.77
521.00	22139.13
521.17	21921.46
521.34	22115.72
521.52	22160.19
521.69	22155.51
521.86	22408.29
522.03	22366.16
522.20	22345.09
522.38	22810.86
522.55	22548.72
522.72	22497.23
522.89	22836.61
523.07	23096.41
523.24	23033.21
523.41	22939.59
523.58	22551.06
523.75	23136.20
523.92	22745.33
524.10	22820.22
524.27	22836.61
524.44	22775.75
524.61	22963.00
524.78	23161.94
524.96	23068.32
525.13	23363.23
525.30	23021.51
525.47	23152.58
525.64	23054.28
525.81	23281.31
525.98	23276.63
526.16	23726.01
526.33	23503.66
526.50	23749.42
526.67	23545.79
526.84	23447.49
527.01	23386.63
527.18	23941.34
527.36	23655.79
527.53	23777.50
527.70	24034.96
527.87	24273.70
528.04	23819.63
528.21	23716.65
528.38	23826.65
528.55	24299.44
528.72	24149.65
528.89	24318.17
529.07	24102.84
529.24	24154.33
529.41	24236.25
529.58	24030.28
529.75	24269.01
529.92	24379.02
530.09	24404.77
530.26	24390.72
530.43	24947.77
530.60	24407.11
530.77	24477.32
530.94	24332.21
531.11	24304.12
531.28	24257.31
531.46	24411.79
531.63	24620.10
531.80	24945.43
531.97	24830.74
532.14	24847.13
532.31	24861.17
532.48	25198.21
532.65	24863.51
532.82	25174.80
532.99	25036.71
533.16	24786.27
533.33	24891.60
533.50	25329.28
533.67	25317.57
533.84	25046.07
534.01	25207.57
534.18	25008.62
534.35	25511.84
534.52	25413.54
534.69	25420.56
534.86	25593.76
535.03	25270.76
535.20	25425.24
535.37	25558.65
535.54	25631.21
535.71	25553.97
535.88	25731.85
536.05	25385.45
536.22	25703.76
536.38	25853.56
536.55	25596.10
536.72	25958.88
536.89	25565.67
537.06	25748.23
537.23	26197.62
537.40	25575.03
537.57	25839.51
537.74	25848.88
537.91	25905.05
538.08	26103.99
538.25	26242.09
538.42	25792.70
538.59	26080.59
538.75	25486.09
538.92	26192.94
539.09	26387.20
539.26	26211.66
539.43	26412.95
539.60	26068.89
539.77	26321.66
539.94	26417.63
540.11	26410.60
540.28	26415.29
540.44	26387.20
540.61	26764.03
540.78	26260.81
540.95	26464.44
541.12	26714.87
541.29	26473.80
541.46	26501.89
541.62	26480.82
541.79	26965.31
541.96	26363.79
542.13	26738.28
542.30	26787.43
542.47	26513.59
542.63	26845.94
542.80	27267.24
542.97	26937.23
543.14	26878.71
543.31	27021.48
543.48	26892.76
543.64	27344.48
543.81	27393.63
543.98	27325.75
544.15	27669.81
544.32	27557.47
544.48	27480.23
544.65	27365.54
544.82	27365.54
544.99	27290.65
545.16	27339.80
545.32	27393.63
545.49	27665.13
545.66	27634.71
545.83	27672.15
546.00	27878.12
546.16	27433.42
546.33	27520.02
546.50	27262.56
546.67	27803.22
546.83	27510.66
547.00	28020.89
547.17	28151.96
547.34	27594.92
547.50	27871.10
547.67	28264.31
547.84	27875.78
548.00	27997.49
548.17	28006.85
548.34	28091.11
548.51	28367.29
548.67	28065.36
548.84	28528.79
549.01	28166.01
549.18	28278.35
549.34	28226.86
549.51	28299.42
549.68	27864.08
549.84	28346.23
550.01	27957.70
550.18	28350.91
550.34	28238.56
550.51	28484.32
550.68	28503.04
550.84	28156.64
551.01	28718.37
551.18	28357.93
551.34	28046.64
551.51	28568.58
551.68	28259.63
551.84	28503.04
552.01	28425.81
552.18	28601.35
552.34	28772.21
552.51	28704.33
552.68	28496.02
552.84	28730.08
553.01	28570.92
553.18	28987.53
553.34	28999.24
553.51	28652.84
553.67	28680.92
553.84	29385.43
554.01	29010.94
554.17	28807.31
554.34	28837.74
554.51	28914.98
554.67	28896.25
554.84	29167.76
555.00	28664.54
555.17	29687.36
555.33	29078.82
555.50	29228.61
555.67	29404.15
555.83	29053.07
556.00	28730.08
556.16	29237.97
556.33	29027.32
556.50	29120.95
556.66	29347.98
556.83	29200.52
556.99	29546.92
557.16	29357.34
557.32	29139.67
557.49	29486.07
557.65	29333.93
557.82	29474.37
557.98	29366.70
558.15	29446.28
558.32	29654.59
558.48	29717.78
558.65	29647.57
558.81	29528.20
558.98	29766.93
559.14	29530.54
559.31	29376.06
559.47	29502.45
559.64	29617.14
559.80	29640.54
559.97	29886.30
560.13	29556.28
560.30	29696.72
560.46	29404.15
560.63	29535.22
560.79	29759.91
560.96	29954.18
561.12	30008.01
561.29	29720.12
561.45	29783.32
561.61	29830.13
561.78	30085.25
561.94	29722.46
562.11	30125.04
562.27	30106.31
562.44	30050.14
562.60	30195.25
562.77	29881.62
562.93	29532.88
563.10	30012.69
563.26	29968.22
563.42	29881.62
563.59	30293.55
563.75	30473.78
563.92	30176.53
564.08	29865.24
564.24	29886.30
564.41	29792.68
564.57	29816.08
564.74	30445.69
564.90	30178.87
565.07	30108.65
565.23	30326.32
565.39	29972.90
565.56	30431.65
565.72	30354.41
565.88	30099.29
566.05	29912.05
566.21	29685.01
566.38	30008.01
566.54	30192.91
566.70	30419.94
566.87	30675.06
567.03	30361.43
567.19	30569.74
567.36	30483.14
567.52	30560.37
567.68	30305.26
567.85	30562.72
568.01	30265.47
568.17	30363.77
568.34	30551.01
568.50	30333.34
568.66	30323.98
568.83	30321.64
568.99	30183.55
569.15	30441.01
569.32	30223.34
569.48	30235.04
569.64	30644.63
569.81	30464.41
569.97	30387.18
570.13	30698.47
570.30	30590.80
570.46	30192.91
570.62	30300.58
570.78	30171.85
570.95	30382.49
571.11	30632.93
571.27	30160.14
571.43	30546.33
571.60	30773.36
571.76	30375.47
571.92	30574.42
572.09	30824.86
572.25	31009.76
572.41	30824.86
572.57	30457.39
572.74	30771.02
572.90	30749.96
573.06	30794.43
573.22	30628.25
573.38	30939.54
573.55	30792.09
573.71	30934.86
573.87	31012.10
574.03	30661.02
574.20	30604.84
574.36	30611.87
574.52	30483.14
574.68	30487.82
574.84	30892.73
575.01	30857.62
575.17	30401.22
575.33	30576.76
575.49	30572.08
575.65	30665.70
575.82	31115.08
575.98	30665.70
576.14	31192.32
576.30	30883.37
576.46	30597.82
576.62	30831.88
576.79	31005.08
576.95	30829.54
577.11	30831.88
577.27	30944.22
577.43	31323.39
577.59	30962.95
577.75	30679.74
577.92	30668.04
578.08	30565.06
578.24	30548.67
578.40	30459.73
578.56	31072.95
578.72	31234.45
578.88	30855.28
579.04	31159.55
579.21	30546.33
579.37	31264.88
579.53	31115.08
579.69	30745.28
579.85	30752.30
580.01	30981.67
580.17	31056.57
580.33	30742.94
580.49	30766.34
580.65	30937.20
580.82	31187.64
580.98	31257.85
581.14	30876.35
581.30	30958.27
581.46	31182.96
581.62	30590.80
581.78	30712.51
581.94	31150.19
582.10	30923.16
582.26	30691.44
582.42	30792.09
582.58	30696.13
582.74	30789.75
582.90	30845.92
583.06	31143.17
583.22	30796.77
583.38	30595.48
583.54	31009.76
583.70	30911.46
583.86	31145.51
584.02	30876.35
584.18	31028.48
584.34	31323.39
584.50	31009.76
584.66	30960.61
584.82	30752.30
584.98	30862.30
585.14	30684.42
585.30	31063.59
585.46	30951.24
585.62	30948.90
585.78	31634.68
585.94	30656.34
586.10	31115.08
586.26	31662.77
586.42	31295.30
586.58	31328.07
586.74	30611.87
586.90	31019.12
587.06	30897.41
587.22	31182.96
587.38	31089.34
587.54	31573.83
587.70	31482.55
587.86	31005.08
588.02	31227.43
588.18	31597.23
588.34	31360.84
588.49	31192.32
588.65	31271.90
588.81	31082.31
588.97	30881.03
589.13	30731.23
589.29	30850.60
589.45	31405.31
589.61	31704.90
589.77	31491.91
589.93	31847.67
590.08	31524.68
590.24	31505.95
590.40	31651.06
590.56	31475.52
590.72	31264.88
590.88	31204.02
591.04	31260.20
591.20	31587.87
591.35	31676.81
591.51	31417.01
591.67	31515.31
591.83	31768.09
