SpectraSuite Data File
++++++++++++++++++++++++++++++++++++
Date: Fri Oct 18 13:58:32 GMT-05:00 2013
User: bianchi
Dark Spectrum Present: No
Reference Spectrum Present: No
Number of Sampled Component Spectra: 1
Spectrometers: USB2+H05261
Integration Time (usec): 50000 (USB2+H05261)
Spectra Averaged: 1 (USB2+H05261)
Boxcar Smoothing: 0 (USB2+H05261)
Correct for Electrical Dark: No (USB2+H05261)
Strobe/Lamp Enabled: No (USB2+H05261)
Correct for Detector Non-linearity: No (USB2+H05261)
Correct for Stray Light: No (USB2+H05261)
Number of Pixels in Processed Spectrum: 2048
>>>>>Begin Processed Spectral Data<<<<<
365.73	0.00
365.92	0.00
366.12	0.00
366.32	0.00
366.52	0.00
366.72	0.00
366.91	0.00
367.11	0.00
367.31	0.00
367.51	0.00
367.70	0.00
367.90	0.00
368.10	0.00
368.30	0.00
368.49	0.00
368.69	0.00
368.89	0.00
369.09	0.00
369.28	0.00
369.48	0.00
369.68	0.00
369.87	0.00
370.07	0.00
370.27	0.00
370.47	0.00
370.66	30.43
370.86	114.69
371.06	128.73
371.25	142.77
371.45	91.28
371.65	175.54
371.84	88.94
372.04	142.77
372.24	149.79
372.44	145.11
372.63	177.88
372.83	220.01
373.03	297.25
373.22	173.20
373.42	147.45
373.62	161.50
373.81	280.86
374.01	262.14
374.21	208.31
374.40	149.79
374.60	358.10
374.79	297.25
374.99	175.54
375.19	299.59
375.38	234.05
375.58	236.39
375.78	245.76
375.97	269.16
376.17	278.52
376.37	231.71
376.56	255.12
376.76	215.33
376.95	231.71
377.15	248.10
377.35	245.76
377.54	203.63
377.74	259.80
377.93	308.95
378.13	271.50
378.33	355.76
378.52	308.95
378.72	276.18
378.91	311.29
379.11	236.39
379.31	252.78
379.50	271.50
379.70	306.61
379.89	388.53
380.09	273.84
380.28	278.52
380.48	299.59
380.68	369.80
380.87	255.12
381.07	224.69
381.26	238.73
381.46	344.06
381.65	234.05
381.85	318.31
382.04	372.15
382.24	379.17
382.43	367.46
382.63	315.97
382.83	304.27
383.02	379.17
383.22	367.46
383.41	266.82
383.61	374.49
383.80	411.93
384.00	346.40
384.19	325.33
384.39	304.27
384.58	374.49
384.78	402.57
384.97	423.64
385.17	308.95
385.36	327.68
385.56	372.15
385.75	259.80
385.95	393.21
386.14	360.44
386.34	348.74
386.53	393.21
386.72	379.17
386.92	456.40
387.11	440.02
387.31	428.32
387.50	444.70
387.70	404.91
387.89	369.80
388.09	454.06
388.28	437.68
388.48	482.15
388.67	416.62
388.86	463.43
389.06	456.40
389.25	482.15
389.45	505.56
389.64	484.49
389.84	517.26
390.03	390.87
390.22	428.32
390.42	491.51
390.61	498.53
390.81	475.13
391.00	442.36
391.19	435.34
391.39	496.19
391.58	493.85
391.78	528.96
391.97	521.94
392.16	486.83
392.36	564.07
392.55	482.15
392.75	503.22
392.94	531.30
393.13	561.73
393.33	580.45
393.52	589.82
393.71	538.32
393.91	484.49
394.10	617.90
394.29	585.13
394.49	528.96
394.68	575.77
394.88	540.66
395.07	540.66
395.26	550.03
395.46	578.11
395.65	580.45
395.84	617.90
396.04	589.82
396.23	603.86
396.42	631.94
396.62	617.90
396.81	648.33
397.00	585.13
397.19	704.50
397.39	617.90
397.58	667.05
397.77	638.97
397.97	592.16
398.16	606.20
398.35	690.46
398.55	702.16
398.74	711.52
398.93	741.95
399.12	807.48
399.32	713.86
399.51	706.84
399.70	692.80
399.90	819.19
400.09	748.97
400.28	751.31
400.47	786.42
400.67	781.74
400.86	709.18
401.05	772.38
401.24	746.63
401.44	741.95
401.63	748.97
401.82	814.51
402.01	781.74
402.21	772.38
402.40	873.02
402.59	784.08
402.78	814.51
402.97	868.34
403.17	905.79
403.36	854.30
403.55	814.51
403.74	898.77
403.93	880.04
404.13	910.47
404.32	884.72
404.51	880.04
404.70	851.96
404.89	931.53
405.09	915.15
405.28	847.27
405.47	905.79
405.66	943.24
405.85	968.98
406.05	943.24
406.24	1048.56
406.43	973.66
406.62	968.98
406.81	1057.92
407.00	947.92
407.20	1083.67
407.39	990.05
407.58	1069.62
407.77	1071.97
407.96	1074.31
408.15	1053.24
408.34	1107.07
408.54	983.02
408.73	1125.80
408.92	1018.13
409.11	1048.56
409.30	1203.04
409.49	1097.71
409.68	1041.54
409.87	1135.16
410.07	1163.25
410.26	1191.33
410.45	1191.33
410.64	1156.22
410.83	1177.29
411.02	1205.38
411.21	1191.33
411.40	1217.08
411.59	1146.86
411.78	1231.12
411.98	1263.89
412.17	1331.76
412.36	1266.23
412.55	1313.04
412.74	1317.72
412.93	1261.55
413.12	1343.47
413.31	1348.15
413.50	1327.08
413.69	1301.34
413.88	1411.34
414.07	1437.09
414.26	1397.30
414.45	1327.08
414.64	1418.36
414.83	1481.56
415.02	1507.30
415.22	1582.20
415.41	1479.22
415.60	1530.71
415.79	1556.46
415.98	1621.99
416.17	1565.82
416.36	1586.88
416.55	1563.48
416.74	1619.65
416.93	1593.90
417.12	1713.27
417.31	1572.84
417.50	1596.25
417.69	1640.72
417.88	1734.34
418.07	1710.93
418.26	1724.97
418.45	1748.38
418.64	1788.17
418.83	1762.42
419.02	1757.74
419.21	1802.21
419.39	1827.96
419.58	1762.42
419.77	1650.08
419.96	1769.44
420.15	1830.30
420.34	1809.23
420.53	1888.81
420.72	1806.89
420.91	1884.13
421.10	1797.53
421.29	1912.22
421.48	1930.94
421.67	1940.30
421.86	1930.94
422.05	1870.09
422.24	1891.15
422.43	1872.43
422.61	1998.82
422.80	2003.50
422.99	1994.14
423.18	2099.46
423.37	1989.46
423.56	1977.75
423.75	1994.14
423.94	2026.90
424.13	1813.92
424.32	1902.86
424.50	2092.44
424.69	2050.31
424.88	1996.48
425.07	1912.22
425.26	1919.24
425.45	2003.50
425.64	2017.54
425.83	2073.71
426.01	2172.02
426.20	1973.07
426.39	2022.22
426.58	2017.54
426.77	1982.43
426.96	2064.35
427.15	2003.50
427.33	2113.50
427.52	2139.25
427.71	2223.51
427.90	2054.99
428.09	2195.42
428.28	2216.49
428.46	2186.06
428.65	2146.27
428.84	2246.91
429.03	2282.02
429.22	2118.18
429.40	2260.96
429.59	2228.19
429.78	2258.62
429.97	2087.76
430.16	2190.74
430.34	2214.15
430.53	2321.81
430.72	2270.32
430.91	2275.00
431.10	2380.32
431.28	2282.02
431.47	2321.81
431.66	2363.94
431.85	2335.85
432.03	2284.36
432.22	2457.56
432.41	2553.52
432.60	2434.16
432.79	2370.96
432.97	2438.84
433.16	2558.21
433.35	2469.27
433.54	2345.22
433.72	2609.70
433.91	2523.10
434.10	2555.86
434.28	2588.63
434.47	2434.16
434.66	2422.45
434.85	2541.82
435.03	2595.65
435.22	2602.68
435.41	2654.17
435.59	2628.42
435.78	2555.86
435.97	2516.08
436.16	2672.89
436.34	2534.80
436.53	2722.04
436.72	2759.49
436.90	2658.85
437.09	2626.08
437.28	2621.40
437.46	2712.68
437.65	2656.51
437.84	2712.68
438.02	2766.51
438.21	2743.11
438.40	2750.13
438.58	2860.13
438.77	2867.16
438.96	2839.07
439.14	2995.89
439.33	2892.90
439.52	2923.33
439.70	2963.12
439.89	2883.54
440.08	2935.03
440.26	3033.33
440.45	2876.52
440.63	2953.76
440.82	3000.57
441.01	3009.93
441.19	3131.64
441.38	3110.57
441.57	3098.87
441.75	3241.64
441.94	3272.07
442.12	3255.69
442.31	3178.45
442.50	3279.09
442.68	3239.30
442.87	3286.11
443.05	3262.71
443.24	3304.84
443.43	3337.60
443.61	3335.26
443.80	3323.56
443.98	3283.77
444.17	3253.34
444.35	3400.80
444.54	3459.31
444.73	3414.84
444.91	3433.57
445.10	3361.01
445.28	3386.76
445.47	3269.73
445.65	3386.76
445.84	3377.39
446.02	3548.25
446.21	3393.78
446.39	3253.34
446.58	3384.41
446.77	3520.17
446.95	3337.60
447.14	3473.36
447.32	3440.59
447.51	3332.92
447.69	3494.42
447.88	3386.76
448.06	3492.08
448.25	3412.50
448.43	3393.78
448.62	3449.95
448.80	3494.42
448.99	3639.53
449.17	3604.42
449.36	3613.79
449.54	3604.42
449.73	3623.15
449.91	3705.07
450.10	3695.71
450.28	3756.56
450.46	3676.98
450.65	3726.13
450.83	3520.17
451.02	3779.97
451.20	3686.34
451.39	3669.96
451.57	3609.11
451.76	3700.39
451.94	3784.65
452.13	3824.44
452.31	3896.99
452.49	3728.47
452.68	3812.73
452.86	3857.20
453.05	3896.99
453.23	3967.21
453.42	3770.60
453.60	3775.28
453.78	3995.29
453.97	3978.91
454.15	3712.09
454.34	3913.38
454.52	3889.97
454.70	3866.56
454.89	4077.21
455.07	3988.27
455.26	3906.35
455.44	4067.85
455.62	4105.30
455.81	3953.16
455.99	3999.98
456.17	4056.15
456.36	4128.70
456.54	4084.23
456.73	4294.88
456.91	4245.73
457.09	4252.75
457.28	4273.82
457.46	4248.07
457.64	4308.93
457.83	4182.54
458.01	4156.79
458.19	4248.07
458.38	4329.99
458.56	4454.04
458.74	4273.82
458.93	4404.89
459.11	4397.87
459.29	4348.72
459.48	4367.44
459.66	4294.88
459.84	4449.36
460.03	4631.92
460.21	4463.40
460.39	4517.23
460.57	4472.76
460.76	4676.39
460.94	4550.00
461.12	4458.72
461.31	4573.41
461.49	4559.36
461.67	4648.30
461.85	4692.77
462.04	4718.52
462.22	4767.67
462.40	4594.47
462.59	4650.64
462.77	4617.88
462.95	4774.69
463.13	4603.83
463.32	4744.27
463.50	4758.31
463.68	4704.48
463.86	4711.50
464.05	4716.18
464.23	4830.87
464.41	4844.91
464.59	4842.57
464.78	4821.50
464.96	4809.80
465.14	4664.69
465.32	4849.59
465.50	5083.64
465.69	4936.19
465.87	4938.53
466.05	5018.11
466.23	4931.51
466.41	4968.96
466.60	5174.92
466.78	4968.96
466.96	5041.51
467.14	5146.84
467.32	5074.28
467.51	5207.69
467.69	4975.98
467.87	5008.75
468.05	5247.48
468.23	4901.08
468.41	5090.67
468.60	5001.72
468.78	5069.60
468.96	5198.33
469.14	5160.88
469.32	5289.61
469.50	5195.99
469.69	5221.74
469.87	5406.64
470.05	5259.18
470.23	5432.38
470.41	5392.59
470.59	5359.83
470.77	5275.57
470.95	5287.27
471.14	5266.21
471.32	5345.78
471.50	5500.26
471.68	5444.09
471.86	5441.75
472.04	5507.28
472.22	5652.39
472.40	5423.02
472.58	5530.69
472.77	5767.08
472.95	5734.31
473.13	5947.30
473.31	5706.23
473.49	5696.86
473.67	5877.09
473.85	5685.16
474.03	5935.60
474.21	5827.93
474.39	5851.34
474.57	6010.50
474.75	5989.43
474.93	6209.44
475.12	6024.54
475.30	6115.82
475.48	5966.03
475.66	6171.99
475.84	6300.72
476.02	6237.53
476.20	6232.85
476.38	6403.71
476.56	6401.37
476.74	6502.01
476.92	6525.41
477.10	6593.29
477.28	6553.50
477.46	6541.80
477.64	6715.00
477.82	6710.32
478.00	6909.26
478.18	6775.85
478.36	6773.51
478.54	6918.62
478.72	7009.90
478.90	7082.46
479.08	7169.06
479.26	7143.32
479.44	7368.01
479.62	7211.19
479.80	7288.43
479.98	7258.00
480.16	7281.41
480.34	7431.20
480.52	7623.12
480.70	7573.97
480.88	7482.69
481.06	7468.65
481.24	7597.38
481.41	7836.11
481.59	7847.82
481.77	7882.92
481.95	7868.88
482.13	7939.10
482.31	7950.80
482.49	8044.42
482.67	7915.69
482.85	8063.15
483.03	8177.83
483.21	8465.72
483.39	8468.06
483.57	8400.18
483.74	8802.75
483.92	8709.13
484.10	8594.45
484.28	8772.33
484.46	8858.93
484.64	8917.44
484.82	8865.95
485.00	9095.32
485.18	9153.84
485.35	9312.99
485.53	9137.45
485.71	9268.52
485.89	9425.34
486.07	9460.45
486.25	9511.94
486.43	9497.89
486.61	9699.18
486.78	9804.50
486.96	9853.66
487.14	9921.53
487.32	9900.47
487.50	10068.98
487.68	10225.80
487.85	10270.27
488.03	10174.31
488.21	10464.54
488.39	10569.86
488.57	10677.52
488.75	10525.39
488.92	10576.88
489.10	10757.10
489.28	10736.04
489.46	10885.83
489.64	10698.59
489.81	10974.77
489.99	11236.91
490.17	11300.11
490.35	11433.52
490.53	11410.11
490.70	11307.13
490.88	11372.66
491.06	11562.25
491.24	11655.87
491.41	11698.00
491.59	11569.27
491.77	11740.13
491.95	12039.72
492.13	11882.90
492.30	12028.01
492.48	12133.34
492.66	12264.41
492.84	12208.23
493.01	12381.43
493.19	12552.29
493.37	12573.36
493.54	12709.11
493.72	12638.89
493.90	12718.47
494.08	12919.76
494.25	13001.68
494.43	12926.78
494.61	13254.45
494.79	13364.46
494.96	13053.17
495.14	13217.01
495.32	13132.75
495.49	13324.67
495.67	13394.89
495.85	13654.69
496.02	13591.49
496.20	13542.34
496.38	13727.24
496.55	13371.48
496.73	14258.54
496.91	14169.60
497.09	14050.24
497.26	14066.62
497.44	13991.72
497.62	14193.01
497.79	14384.93
497.97	14391.95
498.14	14492.60
498.32	14508.98
498.50	14501.96
498.67	14644.73
498.85	14731.33
499.03	14831.97
499.20	14808.57
499.38	14691.54
499.56	14909.21
499.73	14967.73
499.91	14972.41
500.08	15241.57
500.26	14946.66
500.44	14960.70
500.61	15077.73
500.79	15461.58
500.97	15445.20
501.14	15403.07
501.32	15463.92
501.49	15543.50
501.67	15749.46
501.84	15527.11
502.02	15613.71
502.20	15836.06
502.37	15932.03
502.55	15833.72
502.72	16049.05
502.90	15990.54
503.07	15672.23
503.25	15913.30
503.43	16112.25
503.60	16306.51
503.78	16542.91
503.95	16168.42
504.13	16369.71
504.30	16561.63
504.48	16334.60
504.65	16638.87
504.83	16294.81
505.01	16657.59
505.18	16854.20
505.36	16959.52
505.53	16676.32
505.71	16695.04
505.88	16908.03
506.06	16769.94
506.23	17015.69
506.41	17114.00
506.58	17186.55
506.76	16823.77
506.93	17502.53
507.11	16964.20
507.28	17446.35
507.46	17181.87
507.63	17486.14
507.81	17481.46
507.98	17530.61
508.16	17617.21
508.33	17263.79
508.50	17511.89
508.68	17722.54
508.85	17963.61
509.03	17851.27
509.20	18054.89
509.38	18101.70
509.55	18022.12
509.73	17776.37
509.90	18181.28
510.08	18176.60
510.25	18080.64
510.42	18291.29
510.60	18396.61
510.77	18408.31
510.95	18618.96
511.12	18511.30
511.30	18525.34
511.47	18450.44
511.64	18436.40
511.82	18911.53
511.99	18633.00
512.17	18838.97
512.34	18504.28
512.51	19096.43
512.69	18874.08
512.86	18813.23
513.04	19276.65
513.21	19428.79
513.38	18930.25
513.56	19274.31
513.73	19180.69
513.90	18850.67
514.08	19475.60
514.25	19475.60
514.43	19365.59
514.60	19658.16
514.77	19562.20
514.95	19288.35
515.12	19417.08
515.29	19524.75
515.47	19557.52
515.64	19810.29
515.81	19829.02
515.99	20051.37
516.16	20114.56
516.33	19777.53
516.51	20128.61
516.68	20032.65
516.85	20044.35
517.03	20084.14
517.20	20070.09
517.37	20400.11
517.54	20397.77
517.72	20215.21
517.89	20154.35
518.06	20301.81
518.24	20388.41
518.41	20329.89
518.58	20421.17
518.75	20802.68
518.93	20947.79
519.10	20538.20
519.27	20711.40
519.45	20884.60
519.62	20966.52
519.79	20695.02
519.96	20680.97
520.14	20737.15
520.31	20837.79
520.48	20762.89
520.65	20826.09
520.83	21280.15
521.00	21333.98
521.17	21081.21
521.34	20912.69
521.52	21074.18
521.69	20971.20
521.86	21317.60
522.03	21553.99
522.20	21486.12
522.38	21907.41
522.55	21518.89
522.72	21624.21
522.89	21652.30
523.07	21827.84
523.24	21862.94
523.41	21472.07
523.58	21528.25
523.75	21921.46
523.92	21837.20
524.10	21530.59
524.27	22082.95
524.44	22185.94
524.61	22225.73
524.78	21970.61
524.96	22232.75
525.13	22071.25
525.30	22132.11
525.47	22111.04
525.64	22368.50
525.81	22450.42
525.98	22567.45
526.16	22391.91
526.33	22607.23
526.50	22614.26
526.67	22309.99
526.84	22391.91
527.01	22459.78
527.18	22817.88
527.36	22960.66
527.53	22670.43
527.70	22855.33
527.87	23096.41
528.04	22745.33
528.21	22925.55
528.38	22965.34
528.55	23103.43
528.72	22642.34
528.89	23236.84
529.07	22939.59
529.24	22810.86
529.41	22941.93
529.58	23044.91
529.75	22979.38
529.92	22920.87
530.09	22984.06
530.26	23517.70
530.43	23417.06
530.60	23311.74
530.77	23442.81
530.94	23522.38
531.11	23407.70
531.28	23154.92
531.46	23496.64
531.63	23489.62
531.80	23931.98
531.97	23506.00
532.14	23967.09
532.31	23641.75
532.48	24016.24
532.65	23648.77
532.82	23510.68
532.99	23426.42
533.16	23728.35
533.33	23901.55
533.50	24549.88
533.67	24339.23
533.84	23946.02
534.01	23922.62
534.18	24098.16
534.35	23946.02
534.52	24285.40
534.69	24173.05
534.86	24474.98
535.03	23999.85
535.20	24301.78
535.37	24449.24
535.54	24788.61
535.71	24226.89
535.88	24299.44
536.05	24261.99
536.22	24259.65
536.38	24559.24
536.55	24596.69
536.72	24379.02
536.89	24383.70
537.06	24755.85
537.23	24472.64
537.40	24650.52
537.57	24549.88
537.74	24727.76
537.91	24781.59
538.08	24851.81
538.25	24521.79
538.42	25135.01
538.59	24716.06
538.75	24912.66
538.92	24947.77
539.09	25132.67
539.26	25034.37
539.43	25195.87
539.60	25209.91
539.77	25036.71
539.94	25034.37
540.11	25202.89
540.28	25525.88
540.44	25198.21
540.61	25085.86
540.78	25458.01
540.95	25048.41
541.12	25095.22
541.29	25296.51
541.46	25481.41
541.62	25502.48
541.79	25245.02
541.96	25324.60
542.13	25376.09
542.30	25458.01
542.47	26029.10
542.63	25560.99
542.80	25465.03
542.97	25738.87
543.14	26199.96
543.31	26031.44
543.48	26026.76
543.64	26202.30
543.81	25989.31
543.98	26176.55
544.15	26361.45
544.32	26237.41
544.48	26391.88
544.65	26281.88
544.82	26258.47
544.99	26050.16
545.16	26305.28
545.32	26057.18
545.49	26553.38
545.66	26508.91
545.83	26281.88
546.00	26457.42
546.16	26295.92
546.33	26497.20
546.50	26431.67
546.67	26321.66
546.83	25851.22
547.00	26363.79
547.17	26738.28
547.34	26340.39
547.50	26651.68
547.67	26527.63
547.84	26766.37
548.00	26810.84
548.17	26710.19
548.34	26822.54
548.51	27047.23
548.67	26944.25
548.84	26923.18
549.01	26913.82
549.18	26752.32
549.34	27082.34
549.51	27014.46
549.68	26895.10
549.84	26831.90
550.01	27042.55
550.18	26953.61
550.34	26934.88
550.51	26984.04
550.68	26965.31
550.84	26735.94
551.01	27037.87
551.18	27023.83
551.34	27040.21
551.51	27225.11
551.68	27428.74
551.84	27215.75
552.01	27070.64
552.18	27201.71
552.34	27447.46
552.51	27527.04
552.68	27552.79
552.84	27501.29
553.01	27246.18
553.18	27311.71
553.34	27508.32
553.51	27276.60
553.67	27307.03
553.84	27681.52
554.01	27658.11
554.17	27627.68
554.34	27796.20
554.51	27255.54
554.67	27974.08
554.84	27487.25
555.00	27613.64
555.17	27667.47
555.33	27285.97
555.50	27637.05
555.67	27683.86
555.83	27857.06
556.00	27880.46
556.16	28072.39
556.33	27878.12
556.50	27517.68
556.66	28048.98
556.83	27990.47
556.99	27697.90
557.16	28290.06
557.32	28189.41
557.49	28257.29
557.65	27997.49
557.82	27700.24
557.98	28060.68
558.15	27889.82
558.32	28077.07
558.48	28158.99
558.65	28023.23
558.81	28051.32
558.98	27859.40
559.14	27679.18
559.31	28060.68
559.47	28510.07
559.64	28273.67
559.80	28599.01
559.97	28271.33
560.13	28252.61
560.30	28261.97
560.46	28924.34
560.63	28444.53
560.79	28306.44
560.96	28673.90
561.12	28608.37
561.29	28418.78
561.45	28236.22
561.61	28402.40
561.78	28414.10
561.94	28313.46
562.11	28596.67
562.27	28929.02
562.44	28315.80
562.60	28088.77
562.77	28414.10
562.93	28060.68
563.10	28746.46
563.26	28194.09
563.42	28512.41
563.59	28524.11
563.75	28643.48
563.92	28734.76
564.08	28418.78
564.24	28360.27
564.41	28664.54
564.57	28629.43
564.74	28903.28
564.90	29006.26
565.07	28816.68
565.23	28767.52
565.39	28680.92
565.56	28821.36
565.72	28453.89
565.88	28570.92
566.05	28374.31
566.21	28486.66
566.38	28631.77
566.54	28580.28
566.70	28788.59
566.87	28760.50
567.03	28795.61
567.19	29240.31
567.36	28886.89
567.52	28877.53
567.68	28617.73
567.85	28631.77
568.01	28922.00
568.17	28753.48
568.34	29017.96
568.50	28905.62
568.66	28704.33
568.83	29160.73
568.99	28821.36
569.15	29036.69
569.32	28858.81
569.48	28828.38
569.64	29003.92
569.81	28833.06
569.97	29071.79
570.13	29050.73
570.30	29163.08
570.46	29123.29
570.62	29163.08
570.78	28760.50
570.95	28755.82
571.11	28938.38
571.27	28615.39
571.43	28964.13
571.60	28877.53
571.76	28966.47
571.92	29109.24
572.09	29160.73
572.25	29160.73
572.41	28950.09
572.57	28980.51
572.74	29465.00
572.90	28811.99
573.06	29235.63
573.22	28783.91
573.38	29099.88
573.55	28821.36
573.71	29256.70
573.87	29116.26
574.03	29071.79
574.20	29017.96
574.36	29221.59
574.52	29170.10
574.68	29095.20
574.84	28950.09
575.01	29055.41
575.17	29434.58
575.33	29144.35
575.49	29188.82
575.65	29298.83
575.82	29287.12
575.98	29024.98
576.14	29668.63
576.30	29156.05
576.46	29303.51
576.62	28992.22
576.79	29418.19
576.95	29188.82
577.11	29137.33
577.27	29511.81
577.43	29457.98
577.59	29652.25
577.75	29223.93
577.92	29270.74
578.08	29418.19
578.24	29078.82
578.40	29104.56
578.56	29310.53
578.72	28723.05
578.88	29476.71
579.04	29600.76
579.21	29160.73
579.37	29542.24
579.53	29277.76
579.69	29252.02
579.85	29036.69
580.01	28919.66
580.17	29324.57
580.33	29064.77
580.49	29127.97
580.65	29462.66
580.82	29275.42
580.98	29759.91
581.14	29261.38
581.30	29371.38
581.46	29303.51
581.62	29446.28
581.78	29153.71
581.94	29535.22
582.10	29097.54
582.26	29514.16
582.42	29425.22
582.58	29284.78
582.74	29195.84
582.90	29446.28
583.06	29214.57
583.22	29207.55
583.38	29291.80
583.54	29406.49
583.70	29139.67
583.86	29383.09
584.02	29205.20
584.18	29909.71
584.34	29537.56
584.50	29722.46
584.66	29465.00
584.82	29280.10
584.98	29347.98
585.14	29425.22
585.30	29350.32
585.46	29266.06
585.62	29324.57
585.78	29766.93
585.94	29394.79
586.10	29614.80
586.26	29493.09
586.42	29972.90
586.58	29975.24
586.74	29773.95
586.90	29731.83
587.06	29479.05
587.22	29390.11
587.38	29146.69
587.54	29881.62
587.70	30068.86
587.86	29642.88
588.02	29874.60
588.18	29769.27
588.34	29872.26
588.49	29717.78
588.65	29518.84
588.81	29432.24
588.97	29593.73
589.13	29476.71
589.29	29488.41
589.45	29420.53
589.61	29607.78
589.77	29694.38
589.93	29888.64
590.08	30089.93
590.24	29940.13
590.40	29872.26
590.56	30061.84
590.72	29661.61
590.88	29535.22
591.04	29614.80
591.20	29699.06
591.35	30054.82
591.51	29876.94
591.67	30057.16
591.83	30143.76
591.99	29624.16
