SpectraSuite Data File
++++++++++++++++++++++++++++++++++++
Date: Fri Oct 18 13:58:28 GMT-05:00 2013
User: bianchi
Dark Spectrum Present: No
Reference Spectrum Present: No
Number of Sampled Component Spectra: 1
Spectrometers: USB2+H05261
Integration Time (usec): 50000 (USB2+H05261)
Spectra Averaged: 1 (USB2+H05261)
Boxcar Smoothing: 0 (USB2+H05261)
Correct for Electrical Dark: No (USB2+H05261)
Strobe/Lamp Enabled: No (USB2+H05261)
Correct for Detector Non-linearity: No (USB2+H05261)
Correct for Stray Light: No (USB2+H05261)
Number of Pixels in Processed Spectrum: 2048
>>>>>Begin Processed Spectral Data<<<<<
365.73	0.00
365.92	0.00
366.12	0.00
366.32	0.00
366.52	0.00
366.72	0.00
366.91	0.00
367.11	0.00
367.31	0.00
367.51	0.00
367.70	0.00
367.90	0.00
368.10	0.00
368.30	0.00
368.49	0.00
368.69	0.00
368.89	0.00
369.09	0.00
369.28	0.00
369.48	0.00
369.68	0.00
369.87	0.00
370.07	0.00
370.27	0.00
370.47	0.00
370.66	98.30
370.86	91.28
371.06	149.79
371.25	133.41
371.45	168.52
371.65	154.48
371.84	100.64
372.04	168.52
372.24	133.41
372.44	198.95
372.63	126.39
372.83	208.31
373.03	201.29
373.22	152.13
373.42	271.50
373.62	184.90
373.81	229.37
374.01	220.01
374.21	285.55
374.40	210.65
374.60	262.14
374.79	220.01
374.99	236.39
375.19	255.12
375.38	231.71
375.58	170.86
375.78	271.50
375.97	238.73
376.17	322.99
376.37	194.26
376.56	280.86
376.76	229.37
376.95	175.54
377.15	238.73
377.35	217.67
377.54	212.99
377.74	266.82
377.93	297.25
378.13	318.31
378.33	269.16
378.52	248.10
378.72	330.02
378.91	285.55
379.11	332.36
379.31	273.84
379.50	290.23
379.70	283.20
379.89	341.72
380.09	283.20
380.28	313.63
380.48	283.20
380.68	245.76
380.87	285.55
381.07	379.17
381.26	330.02
381.46	339.38
381.65	285.55
381.85	301.93
382.04	327.68
382.24	383.85
382.43	339.38
382.63	374.49
382.83	339.38
383.02	320.65
383.22	409.59
383.41	287.89
383.61	365.12
383.80	397.89
384.00	423.64
384.19	402.57
384.39	395.55
384.58	372.15
384.78	330.02
384.97	421.30
385.17	346.40
385.36	414.27
385.56	435.34
385.75	442.36
385.95	337.04
386.14	395.55
386.34	404.91
386.53	393.21
386.72	393.21
386.92	393.21
387.11	372.15
387.31	451.72
387.50	421.30
387.70	407.25
387.89	404.91
388.09	379.17
388.28	428.32
388.48	484.49
388.67	442.36
388.86	454.06
389.06	442.36
389.25	535.98
389.45	472.79
389.64	418.96
389.84	482.15
390.03	421.30
390.22	433.00
390.42	475.13
390.61	472.79
390.81	552.37
391.00	489.17
391.19	451.72
391.39	554.71
391.58	512.58
391.78	486.83
391.97	503.22
392.16	486.83
392.36	601.52
392.55	538.32
392.75	514.92
392.94	615.56
393.13	554.71
393.33	571.09
393.52	524.28
393.71	587.47
393.91	547.69
394.10	512.58
394.29	557.05
394.49	547.69
394.68	634.29
394.88	535.98
395.07	615.56
395.26	580.45
395.46	662.37
395.65	617.90
395.84	622.58
396.04	603.86
396.23	669.39
396.42	645.99
396.62	667.05
396.81	669.39
397.00	702.16
397.19	643.65
397.39	711.52
397.58	723.23
397.77	620.24
397.97	603.86
398.16	732.59
398.35	596.84
398.55	674.07
398.74	777.06
398.93	760.67
399.12	671.73
399.32	777.06
399.51	751.31
399.70	702.16
399.90	791.10
400.09	751.31
400.28	812.17
400.47	741.95
400.67	800.46
400.86	795.78
401.05	718.54
401.24	732.59
401.44	802.80
401.63	746.63
401.82	854.30
402.01	777.06
402.21	741.95
402.40	842.59
402.59	716.20
402.78	793.44
402.97	884.72
403.17	875.36
403.36	814.51
403.55	805.14
403.74	908.13
403.93	924.51
404.13	917.49
404.32	929.19
404.51	894.08
404.70	1006.43
404.89	903.45
405.09	992.39
405.28	978.34
405.47	896.43
405.66	894.08
405.85	959.62
406.05	987.71
406.24	931.53
406.43	917.49
406.62	959.62
406.81	1046.22
407.00	959.62
407.20	1076.65
407.39	1011.11
407.58	1020.47
407.77	992.39
407.96	1135.16
408.15	1188.99
408.34	1057.92
408.54	1050.90
408.73	1053.24
408.92	1032.18
409.11	1071.97
409.30	1043.88
409.49	1200.69
409.68	1153.88
409.87	1128.14
410.07	1123.46
410.26	1088.35
410.45	1184.31
410.64	1167.93
410.83	1212.40
411.02	1254.53
411.21	1156.22
411.40	1256.87
411.59	1252.19
411.78	1254.53
411.98	1210.06
412.17	1350.49
412.36	1284.95
412.55	1217.08
412.74	1315.38
412.93	1418.36
413.12	1392.62
413.31	1369.21
413.50	1317.72
413.69	1413.68
413.88	1497.94
414.07	1380.92
414.26	1430.07
414.45	1437.09
414.64	1444.11
414.83	1507.30
415.02	1497.94
415.22	1551.78
415.41	1507.30
415.60	1556.46
415.79	1645.40
415.98	1621.99
416.17	1526.03
416.36	1652.42
416.55	1614.97
416.74	1540.07
416.93	1629.01
417.12	1568.16
417.31	1645.40
417.50	1706.25
417.69	1860.73
417.88	1746.04
418.07	1621.99
418.26	1617.31
418.45	1741.36
418.64	1865.41
418.83	1799.87
419.02	1654.76
419.21	1767.10
419.39	1727.32
419.58	1851.36
419.77	1746.04
419.96	1774.13
420.15	1886.47
420.34	1820.94
420.53	1919.24
420.72	1933.28
420.91	1863.07
421.10	1893.49
421.29	2010.52
421.48	1818.60
421.67	1919.24
421.86	1954.35
422.05	1942.64
422.24	1902.86
422.43	1987.11
422.61	1830.30
422.80	1959.03
422.99	1968.39
423.18	2080.74
423.37	1940.30
423.56	1959.03
423.75	1968.39
423.94	1827.96
424.13	1842.00
424.32	1837.32
424.50	1984.77
424.69	2059.67
424.88	2097.12
425.07	1926.26
425.26	1961.37
425.45	1966.05
425.64	2005.84
425.83	2069.03
426.01	2083.08
426.20	2122.87
426.39	2106.48
426.58	2029.24
426.77	2024.56
426.96	2005.84
427.15	2064.35
427.33	2120.53
427.52	2136.91
427.71	2062.01
427.90	2174.36
428.09	2143.93
428.28	2223.51
428.46	2139.25
428.65	2071.37
428.84	2249.25
429.03	2244.57
429.22	2150.95
429.40	2291.38
429.59	2314.79
429.78	2092.44
429.97	2076.06
430.16	2118.18
430.34	2380.32
430.53	2244.57
430.72	2277.34
430.91	2228.19
431.10	2209.47
431.28	2284.36
431.47	2361.60
431.66	2375.64
431.85	2319.47
432.03	2359.26
432.22	2487.99
432.41	2375.64
432.60	2441.18
432.79	2352.24
432.97	2509.05
433.16	2497.35
433.35	2462.24
433.54	2448.20
433.72	2525.44
433.91	2513.74
434.10	2483.31
434.28	2504.37
434.47	2450.54
434.66	2569.91
434.85	2630.76
435.03	2473.95
435.22	2630.76
435.41	2633.10
435.59	2663.53
435.78	2682.25
435.97	2708.00
436.16	2703.32
436.34	2586.29
436.53	2836.73
436.72	2684.59
436.90	2637.78
437.09	2827.37
437.28	2722.04
437.46	2689.28
437.65	2757.15
437.84	2752.47
438.02	2757.15
438.21	2738.43
438.40	2796.94
438.58	2869.50
438.77	2848.43
438.96	2665.87
439.14	2832.05
439.33	2806.30
439.52	2881.20
439.70	3000.57
439.89	2949.08
440.08	2956.10
440.26	3105.89
440.45	3094.19
440.63	3133.98
440.82	3143.34
441.01	3087.17
441.19	3087.17
441.38	3049.72
441.57	3190.15
441.75	3220.58
441.94	3248.66
442.12	3344.63
442.31	3279.09
442.50	3220.58
442.68	3248.66
442.87	3375.05
443.05	3295.47
443.24	3344.63
443.43	3417.18
443.61	3492.08
443.80	3529.53
443.98	3405.48
444.17	3293.13
444.35	3353.99
444.54	3391.44
444.73	3358.67
444.91	3274.41
445.10	3283.77
445.28	3384.41
445.47	3361.01
445.65	3487.40
445.84	3414.84
446.02	3471.01
446.21	3456.97
446.39	3421.86
446.58	3424.20
446.77	3438.25
446.95	3452.29
447.14	3468.67
447.32	3611.45
447.51	3391.44
447.69	3452.29
447.88	3459.31
448.06	3440.59
448.25	3372.71
448.43	3653.58
448.62	3468.67
448.80	3590.38
448.99	3417.18
449.17	3674.64
449.36	3499.10
449.54	3564.64
449.73	3646.55
449.91	3681.66
450.10	3679.32
450.28	3637.19
450.46	3637.19
450.65	3662.94
450.83	3611.45
451.02	3684.00
451.20	3744.86
451.39	3896.99
451.57	3819.75
451.76	3555.27
451.94	3796.35
452.13	3859.54
452.31	3892.31
452.49	3634.85
452.68	3824.44
452.86	3878.27
453.05	3976.57
453.23	3901.67
453.42	3864.22
453.60	3808.05
453.78	3833.80
453.97	3810.39
454.15	3854.86
454.34	3805.71
454.52	4046.79
454.70	3847.84
454.89	3936.78
455.07	3943.80
455.26	4067.85
455.44	4119.34
455.62	3936.78
455.81	4009.34
455.99	4100.62
456.17	4224.67
456.36	4184.88
456.54	4114.66
456.73	4194.24
456.91	4313.61
457.09	4292.54
457.28	4278.50
457.46	4266.80
457.64	4545.32
457.83	4297.22
458.01	4355.74
458.19	4269.14
458.38	4362.76
458.56	4325.31
458.74	4362.76
458.93	4456.38
459.11	4461.06
459.29	4519.57
459.48	4432.97
459.66	4510.21
459.84	4432.97
460.03	4704.48
460.21	4477.44
460.39	4601.49
460.57	4566.39
460.76	4440.00
460.94	4552.34
461.12	4624.90
461.31	4566.39
461.49	4652.98
461.67	4655.33
461.85	4833.21
462.04	4648.30
462.22	4709.16
462.40	4723.20
462.59	4561.70
462.77	4744.27
462.95	4648.30
463.13	4704.48
463.32	4676.39
463.50	4840.23
463.68	4933.85
463.86	4835.55
464.05	4779.37
464.23	4737.24
464.41	4772.35
464.59	4720.86
464.78	4908.10
464.96	4868.31
465.14	4917.47
465.32	4983.00
465.50	5074.28
465.69	5022.79
465.87	4922.15
466.05	4858.95
466.23	5011.09
466.41	5135.14
466.60	5032.15
466.78	5221.74
466.96	4994.70
467.14	4968.96
467.32	5121.09
467.51	5043.85
467.69	4985.34
467.87	5203.01
468.05	5217.05
468.23	4966.62
468.41	5184.29
468.60	5163.22
468.78	5095.35
468.96	5200.67
469.14	5221.74
469.32	5352.81
469.50	5071.94
469.69	5362.17
469.87	5320.04
470.05	5315.36
470.23	5336.42
470.41	5348.12
470.59	5455.79
470.77	5434.72
470.95	5411.32
471.14	5701.54
471.32	5444.09
471.50	5624.31
471.68	5570.48
471.86	5589.20
472.04	5570.48
472.22	5877.09
472.40	5610.26
472.58	5715.59
472.77	5713.25
472.95	5703.89
473.13	5895.81
473.31	5825.59
473.49	5795.17
473.67	5907.51
473.85	5907.51
474.03	5818.57
474.21	5973.05
474.39	6085.39
474.57	6209.44
474.75	6181.35
474.93	6179.01
475.12	6019.86
475.30	6174.33
475.48	6202.42
475.66	6176.67
475.84	6331.15
476.02	6406.05
476.20	6377.96
476.38	6413.07
476.56	6494.99
476.74	6516.05
476.92	6724.36
477.10	6544.14
477.28	6604.99
477.46	6483.28
477.64	6628.40
477.82	6670.53
478.00	6848.41
478.18	7023.95
478.36	6916.28
478.54	6839.05
478.72	6899.90
478.90	7047.35
479.08	7103.53
479.26	7227.57
479.44	7295.45
479.62	7328.22
479.80	7358.64
479.98	7449.93
480.16	7318.86
480.34	7365.67
480.52	7606.74
480.70	7660.57
480.88	7588.02
481.06	7648.87
481.24	7613.76
481.41	7611.42
481.59	7744.83
481.77	7995.27
481.95	8121.66
482.13	7875.90
482.31	7978.89
482.49	8067.83
482.67	8327.63
482.85	8285.50
483.03	8472.74
483.21	8498.49
483.39	8486.78
483.57	8477.42
483.74	8526.57
483.92	8561.68
484.10	8549.98
484.28	8727.86
484.46	8912.76
484.64	9135.11
484.82	8865.95
485.00	9102.34
485.18	9329.38
485.35	9128.09
485.53	9102.34
485.71	9390.23
485.89	9521.30
486.07	9490.87
486.25	9479.17
486.43	9757.69
486.61	9848.97
486.78	9757.69
486.96	9930.89
487.14	9902.81
487.32	9940.26
487.50	9991.75
487.68	10164.95
487.85	10366.23
488.03	10396.66
488.21	10691.57
488.39	10567.52
488.57	10707.95
488.75	10705.61
488.92	10937.32
489.10	10745.40
489.28	10869.45
489.46	10981.79
489.64	10970.09
489.81	11363.30
489.99	11389.05
490.17	11309.47
490.35	11190.10
490.53	11438.20
490.70	11405.43
490.88	11339.90
491.06	11550.54
491.24	11613.74
491.41	11836.09
491.59	11889.92
491.77	11655.87
491.95	11943.75
492.13	12224.62
492.30	12311.22
492.48	12060.78
492.66	12353.35
492.84	12322.92
493.01	12306.54
493.19	12421.22
493.37	12659.96
493.54	12882.31
493.72	12751.24
493.90	12549.95
494.08	13062.53
494.25	13027.42
494.43	13315.31
494.61	13092.96
494.79	13312.97
494.96	13364.46
495.14	13362.12
495.32	13462.76
495.49	13432.33
495.67	13626.60
495.85	13488.51
496.02	13909.80
496.20	13762.35
496.38	14092.37
496.55	14085.34
496.73	14164.92
496.91	14281.95
497.09	14387.27
497.26	14303.01
497.44	14160.24
497.62	14520.68
497.79	14469.19
497.97	14436.42
498.14	14789.85
498.32	14728.99
498.50	14740.69
498.67	14810.91
498.85	14712.61
499.03	14836.66
499.20	14668.14
499.38	14984.11
499.56	15192.42
499.73	15007.52
499.91	15007.52
500.08	15272.00
500.26	14986.45
500.44	15346.89
500.61	15693.29
500.79	15257.95
500.97	15438.17
501.14	15793.94
501.32	15686.27
501.49	15728.40
501.67	15477.96
501.84	15878.19
502.02	15723.72
502.20	15995.22
502.37	16236.30
502.55	16051.39
502.72	15957.77
502.90	16290.13
503.07	16027.99
503.25	16065.44
503.43	16194.17
503.60	16369.71
503.78	16379.07
503.95	16608.44
504.13	16315.87
504.30	16678.66
504.48	16430.56
504.65	16655.25
504.83	16809.73
505.01	16872.92
505.18	16868.24
505.36	16999.31
505.53	16795.68
505.71	17106.98
505.88	17081.23
506.06	16613.12
506.23	17280.18
506.41	16898.67
506.58	17268.47
506.76	17003.99
506.93	17451.03
507.11	17411.25
507.28	17631.26
507.46	17607.85
507.63	17509.55
507.81	17446.35
507.98	17432.31
508.16	17715.51
508.33	17692.11
508.50	17778.71
508.68	17741.26
508.85	17949.57
509.03	17994.04
509.20	18239.79
509.38	18244.48
509.55	18625.98
509.73	18148.51
509.90	18541.72
510.08	18190.64
510.25	18104.04
510.42	18389.59
510.60	18513.64
510.77	18537.04
510.95	18469.17
511.12	18520.66
511.30	18408.31
511.47	18735.99
511.64	18913.87
511.82	18890.46
511.99	19049.62
512.17	19101.11
512.34	18897.49
512.51	19096.43
512.69	18820.25
512.86	18995.79
513.04	19372.61
513.21	19082.39
513.38	19260.27
513.56	19220.48
513.73	19337.51
513.90	19583.26
514.08	19494.32
514.25	19264.95
514.43	19597.31
514.60	19833.70
514.77	19653.48
514.95	19814.98
515.12	19695.61
515.29	19606.67
515.47	19847.74
515.64	19941.36
515.81	19761.14
515.99	20152.01
516.16	20219.89
516.33	20032.65
516.51	20266.70
516.68	20079.46
516.85	20081.80
517.03	20500.75
517.20	20280.74
517.37	20369.68
517.54	20386.07
517.72	20046.69
517.89	20327.55
518.06	20524.16
518.24	20655.23
518.41	20411.81
518.58	20617.78
518.75	20819.07
518.93	20746.51
519.10	20980.56
519.27	20854.17
519.45	20959.50
519.62	20800.34
519.79	20982.90
519.96	20704.38
520.14	20929.07
520.31	20830.77
520.48	21350.37
520.65	21053.12
520.83	21458.03
521.00	20996.95
521.17	21291.85
521.34	21263.77
521.52	21247.38
521.69	21495.48
521.86	21621.87
522.03	21612.51
522.20	21441.65
522.38	21720.17
522.55	21462.71
522.72	21593.78
522.89	21841.88
523.07	21720.17
523.24	21759.96
523.41	21996.35
523.58	21757.62
523.75	21902.73
523.92	21771.66
524.10	22080.61
524.27	22104.02
524.44	22183.60
524.61	22185.94
524.78	21867.63
524.96	22368.50
525.13	22239.77
525.30	22527.66
525.47	22071.25
525.64	22197.64
525.81	22679.79
525.98	22841.29
526.16	22532.34
526.33	22569.79
526.50	22707.88
526.67	22309.99
526.84	22670.43
527.01	22541.70
527.18	22703.20
527.36	22558.08
527.53	22801.50
527.70	23339.82
527.87	23168.96
528.04	23110.45
528.21	23051.94
528.38	23042.57
528.55	23101.09
528.72	23363.23
528.89	23197.05
529.07	23161.94
529.24	23190.03
529.41	23440.47
529.58	23358.55
529.75	23421.74
529.92	23403.02
530.09	23463.87
530.26	22965.34
530.43	23836.02
530.60	23608.98
530.77	23562.17
530.94	23644.09
531.11	23688.56
531.28	23438.12
531.46	23854.74
531.63	23871.12
531.80	23555.15
531.97	23950.70
532.14	24135.60
532.31	24039.64
532.48	23983.47
532.65	23733.03
532.82	23606.64
532.99	23751.76
533.16	23803.25
533.33	24030.28
533.50	24400.08
533.67	24182.42
533.84	24257.31
534.01	24154.33
534.18	24208.16
534.35	24606.05
534.52	24304.12
534.69	24533.50
534.86	24360.30
535.03	24376.68
535.20	24559.24
535.37	24432.85
535.54	24140.29
535.71	24276.04
535.88	24601.37
536.05	24428.17
536.22	24720.74
536.38	24737.12
536.55	24828.40
536.72	24622.44
536.89	24760.53
537.06	24528.81
537.23	24975.86
537.40	24624.78
537.57	24884.58
537.74	24849.47
537.91	25207.57
538.08	24910.32
538.25	24767.55
538.42	24589.67
538.59	25521.20
538.75	25060.12
538.92	25329.28
539.09	25226.29
539.26	24889.26
539.43	25195.87
539.60	25200.55
539.77	25312.89
539.94	25303.53
540.11	25692.06
540.28	25579.71
540.44	25289.49
540.61	25184.16
540.78	25046.07
540.95	25247.36
541.12	25495.46
541.29	25984.63
541.46	25560.99
541.62	25610.14
541.79	25717.81
541.96	25633.55
542.13	25312.89
542.30	25708.44
542.47	26071.23
542.63	26169.53
542.80	25802.07
542.97	26029.10
543.14	26157.83
543.31	26204.64
543.48	26024.42
543.64	26691.47
543.81	26508.91
543.98	26284.22
544.15	26024.42
544.32	26267.83
544.48	26576.78
544.65	26471.46
544.82	26178.89
544.99	26108.68
545.16	26560.40
545.32	26600.19
545.49	26520.61
545.66	26759.34
545.83	26710.19
546.00	26836.58
546.16	26522.95
546.33	26218.68
546.50	26607.21
546.67	26850.63
546.83	26256.13
547.00	26778.07
547.17	26700.83
547.34	26719.56
547.50	26871.69
547.67	27147.87
547.84	26761.69
548.00	26984.04
548.17	26958.29
548.34	26794.45
548.51	27206.39
548.67	27133.83
548.84	27122.13
549.01	27232.13
549.18	27094.04
549.34	27051.91
549.51	26855.31
549.68	27089.36
549.84	27087.02
550.01	27012.12
550.18	26909.14
550.34	27342.14
550.51	27239.15
550.68	27122.13
550.84	27253.20
551.01	27082.34
551.18	27136.17
551.34	27225.11
551.51	27281.28
551.68	27311.71
551.84	27440.44
552.01	27321.07
552.18	27566.83
552.34	27091.70
552.51	27332.78
552.68	27491.93
552.84	27292.99
553.01	27601.94
553.18	27484.91
553.34	27728.33
553.51	27646.41
553.67	27571.51
553.84	28006.85
554.01	27861.74
554.17	27948.34
554.34	27772.80
554.51	27693.22
554.67	28109.83
554.84	28116.86
555.00	28051.32
555.17	27871.10
555.33	27981.10
555.50	27917.91
555.67	27971.74
555.83	27620.66
556.00	28060.68
556.16	28254.95
556.33	28196.43
556.50	28147.28
556.66	28077.07
556.83	27679.18
556.99	28149.62
557.16	28395.38
557.32	28261.97
557.49	28016.21
557.65	27817.27
557.82	28137.92
557.98	28191.75
558.15	28130.90
558.32	28273.67
558.48	28386.02
558.65	28329.84
558.81	28191.75
558.98	28400.06
559.14	28219.84
559.31	28233.88
559.47	28503.04
559.64	28147.28
559.80	28570.92
559.97	28709.01
560.13	28203.46
560.30	28243.24
560.46	28566.24
560.63	28706.67
560.79	28489.00
560.96	28706.67
561.12	28343.89
561.29	28549.85
561.45	28627.09
561.61	28320.48
561.78	28807.31
561.94	28648.16
562.11	28620.07
562.27	28662.20
562.44	28533.47
562.60	28596.67
562.77	28531.13
562.93	28648.16
563.10	28804.97
563.26	28868.17
563.42	28943.06
563.59	28807.31
563.75	28683.27
563.92	29036.69
564.08	28238.56
564.24	28898.59
564.41	28718.37
564.57	28704.33
564.74	28800.29
564.90	28699.65
565.07	28938.38
565.23	28889.23
565.39	29062.43
565.56	28879.87
565.72	28744.12
565.88	28938.38
566.05	28734.76
566.21	28980.51
566.38	28945.41
566.54	28786.25
566.70	28854.12
566.87	28994.56
567.03	29057.75
567.19	29226.27
567.36	28851.78
567.52	29041.37
567.68	29479.05
567.85	28774.55
568.01	29116.26
568.17	29006.26
568.34	29322.23
568.50	29074.13
568.66	29090.52
568.83	29212.23
568.99	28929.02
569.15	29209.89
569.32	28842.42
569.48	28811.99
569.64	29266.06
569.81	28996.90
569.97	29280.10
570.13	29165.42
570.30	29017.96
570.46	29415.85
570.62	29399.47
570.78	29193.50
570.95	29046.05
571.11	29343.30
571.27	29027.32
571.43	29104.56
571.60	29652.25
571.76	28968.81
571.92	29195.84
572.09	29244.99
572.25	29181.80
572.41	29605.44
572.57	29099.88
572.74	29214.57
572.90	29174.78
573.06	29291.80
573.22	29490.75
573.38	29670.97
573.55	29003.92
573.71	29418.19
573.87	29582.03
574.03	29504.79
574.20	29369.04
574.36	29376.06
574.52	29600.76
574.68	28907.96
574.84	29184.14
575.01	29467.34
575.17	29488.41
575.33	29385.43
575.49	29142.01
575.65	29687.36
575.82	29799.70
575.98	29514.16
576.14	29373.72
576.30	29495.43
576.46	29523.52
576.62	29015.62
576.79	29612.46
576.95	29472.03
577.11	29916.73
577.27	29539.90
577.43	29385.43
577.59	29282.44
577.75	29579.69
577.92	29434.58
578.08	29535.22
578.24	29221.59
578.40	29462.66
578.56	29668.63
578.72	29673.31
578.88	29476.71
579.04	29694.38
579.21	29668.63
579.37	29511.81
579.53	29729.48
579.69	29221.59
579.85	29745.87
580.01	29600.76
580.17	29303.51
580.33	29788.00
580.49	29514.16
580.65	29656.93
580.82	29715.44
580.98	29369.04
581.14	29778.64
581.30	29525.86
581.46	29465.00
581.62	29654.59
581.78	29329.25
581.94	29467.34
582.10	29490.75
582.26	29582.03
582.42	29589.05
582.58	29692.04
582.74	29493.09
582.90	29734.17
583.06	29961.20
583.22	29642.88
583.38	29497.77
583.54	29460.32
583.70	29474.37
583.86	29490.75
584.02	29490.75
584.18	29465.00
584.34	29699.06
584.50	29745.87
584.66	29376.06
584.82	29603.10
584.98	29696.72
585.14	29818.42
585.30	29252.02
585.46	29799.70
585.62	29621.82
585.78	29605.44
585.94	29476.71
586.10	29982.26
586.26	29558.63
586.42	29996.31
586.58	29528.20
586.74	29731.83
586.90	29710.76
587.06	29572.67
587.22	29661.61
587.38	29378.40
587.54	29752.89
587.70	29888.64
587.86	29741.19
588.02	30064.18
588.18	30026.73
588.34	29799.70
588.49	29876.94
588.65	29869.92
588.81	29748.21
588.97	30017.37
589.13	29795.02
589.29	29582.03
589.45	29881.62
589.61	29802.04
589.77	30057.16
589.93	29935.45
590.08	29869.92
590.24	29706.08
590.40	30033.75
590.56	29909.71
590.72	29738.85
590.88	29816.08
591.04	30057.16
591.20	30441.01
591.35	30134.40
591.51	30127.38
591.67	29890.98
591.83	30237.38
591.99	30143.76
