SpectraSuite Data File
++++++++++++++++++++++++++++++++++++
Date: Fri Oct 18 13:58:06 GMT-05:00 2013
User: bianchi
Dark Spectrum Present: No
Reference Spectrum Present: No
Number of Sampled Component Spectra: 1
Spectrometers: USB2+H05261
Integration Time (usec): 50000 (USB2+H05261)
Spectra Averaged: 1 (USB2+H05261)
Boxcar Smoothing: 0 (USB2+H05261)
Correct for Electrical Dark: No (USB2+H05261)
Strobe/Lamp Enabled: No (USB2+H05261)
Correct for Detector Non-linearity: No (USB2+H05261)
Correct for Stray Light: No (USB2+H05261)
Number of Pixels in Processed Spectrum: 2048
>>>>>Begin Processed Spectral Data<<<<<
365.73	0.00
365.92	0.00
366.12	0.00
366.32	0.00
366.52	0.00
366.72	0.00
366.91	0.00
367.11	0.00
367.31	0.00
367.51	0.00
367.70	0.00
367.90	0.00
368.10	0.00
368.30	0.00
368.49	0.00
368.69	0.00
368.89	0.00
369.09	0.00
369.28	0.00
369.48	0.00
369.68	0.00
369.87	0.00
370.07	0.00
370.27	0.00
370.47	0.00
370.66	110.01
370.86	74.90
371.06	154.48
371.25	140.43
371.45	114.69
371.65	222.35
371.84	81.92
372.04	124.05
372.24	166.18
372.44	212.99
372.63	166.18
372.83	257.46
373.03	177.88
373.22	170.86
373.42	142.77
373.62	166.18
373.81	189.58
374.01	334.70
374.21	173.20
374.40	210.65
374.60	257.46
374.79	161.50
374.99	311.29
375.19	257.46
375.38	276.18
375.58	170.86
375.78	220.01
375.97	217.67
376.17	367.46
376.37	243.42
376.56	278.52
376.76	208.31
376.95	227.03
377.15	252.78
377.35	306.61
377.54	306.61
377.74	250.44
377.93	285.55
378.13	315.97
378.33	269.16
378.52	334.70
378.72	311.29
378.91	294.91
379.11	255.12
379.31	271.50
379.50	252.78
379.70	259.80
379.89	306.61
380.09	257.46
380.28	266.82
380.48	301.93
380.68	292.57
380.87	332.36
381.07	287.89
381.26	327.68
381.46	243.42
381.65	262.14
381.85	390.87
382.04	388.53
382.24	330.02
382.43	388.53
382.63	313.63
382.83	332.36
383.02	348.74
383.22	402.57
383.41	341.72
383.61	318.31
383.80	400.23
384.00	344.06
384.19	390.87
384.39	414.27
384.58	365.12
384.78	423.64
384.97	381.51
385.17	330.02
385.36	390.87
385.56	355.76
385.75	322.99
385.95	393.21
386.14	433.00
386.34	322.99
386.53	442.36
386.72	470.45
386.92	444.70
387.11	470.45
387.31	482.15
387.50	423.64
387.70	444.70
387.89	372.15
388.09	360.44
388.28	418.96
388.48	414.27
388.67	519.60
388.86	400.23
389.06	463.43
389.25	468.11
389.45	540.66
389.64	407.25
389.84	479.81
390.03	482.15
390.22	491.51
390.42	454.06
390.61	430.66
390.81	407.25
391.00	491.51
391.19	433.00
391.39	543.00
391.58	500.87
391.78	479.81
391.97	484.49
392.16	543.00
392.36	521.94
392.55	472.79
392.75	582.79
392.94	557.05
393.13	538.32
393.33	535.98
393.52	526.62
393.71	643.65
393.91	594.50
394.10	596.84
394.29	606.20
394.49	538.32
394.68	629.60
394.88	641.31
395.07	573.43
395.26	615.56
395.46	702.16
395.65	641.31
395.84	720.88
396.04	671.73
396.23	662.37
396.42	636.63
396.62	641.31
396.81	610.88
397.00	535.98
397.19	678.76
397.39	592.16
397.58	702.16
397.77	732.59
397.97	741.95
398.16	695.14
398.35	678.76
398.55	636.63
398.74	655.35
398.93	739.61
399.12	606.20
399.32	617.90
399.51	816.85
399.70	812.17
399.90	716.20
400.09	830.89
400.28	835.57
400.47	711.52
400.67	732.59
400.86	732.59
401.05	732.59
401.24	800.46
401.44	805.14
401.63	744.29
401.82	851.96
402.01	767.70
402.21	840.25
402.40	788.76
402.59	802.80
402.78	851.96
402.97	922.17
403.17	945.58
403.36	880.04
403.55	936.21
403.74	807.48
403.93	889.40
404.13	943.24
404.32	905.79
404.51	901.11
404.70	912.81
404.89	964.30
405.09	1004.09
405.28	1018.13
405.47	938.55
405.66	990.05
405.85	976.00
406.05	1001.75
406.24	898.77
406.43	936.21
406.62	1043.88
406.81	1062.60
407.00	987.71
407.20	1039.20
407.39	1083.67
407.58	1071.97
407.77	1109.41
407.96	1057.92
408.15	1093.03
408.34	1139.84
408.54	1130.48
408.73	1102.39
408.92	1086.01
409.11	1177.29
409.30	1086.01
409.49	1142.18
409.68	1123.46
409.87	1184.31
410.07	1123.46
410.26	1146.86
410.45	1207.72
410.64	1184.31
410.83	1287.29
411.02	1163.25
411.21	1207.72
411.40	1331.76
411.59	1308.36
411.78	1231.12
411.98	1242.82
412.17	1231.12
412.36	1280.27
412.55	1387.94
412.74	1378.58
412.93	1416.02
413.12	1345.81
413.31	1448.79
413.50	1385.60
413.69	1411.34
413.88	1455.81
414.07	1303.68
414.26	1437.09
414.45	1474.54
414.64	1575.18
414.83	1409.00
415.02	1612.63
415.22	1610.29
415.41	1636.03
415.60	1523.69
415.79	1511.99
415.98	1519.01
416.17	1558.80
416.36	1603.27
416.55	1589.22
416.74	1572.84
416.93	1575.18
417.12	1577.52
417.31	1739.02
417.50	1722.63
417.69	1750.72
417.88	1795.19
418.07	1710.93
418.26	1666.46
418.45	1668.80
418.64	1825.62
418.83	1865.41
419.02	1818.60
419.21	1902.86
419.39	1893.49
419.58	1863.07
419.77	1746.04
419.96	1820.94
420.15	1928.60
420.34	1930.94
420.53	1858.39
420.72	2015.20
420.91	1975.41
421.10	1973.07
421.29	1961.37
421.48	1952.01
421.67	1996.48
421.86	1998.82
422.05	1996.48
422.24	2040.95
422.43	1984.77
422.61	2043.29
422.80	1994.14
422.99	2092.44
423.18	2066.69
423.37	2162.66
423.56	2024.56
423.75	2040.95
423.94	2045.63
424.13	1884.13
424.32	1987.11
424.50	2071.37
424.69	2129.89
424.88	2045.63
425.07	1959.03
425.26	2038.61
425.45	2078.40
425.64	2038.61
425.83	2127.55
426.01	2078.40
426.20	1973.07
426.39	2129.89
426.58	2062.01
426.77	2134.57
426.96	2127.55
427.15	2244.57
427.33	2143.93
427.52	2127.55
427.71	2139.25
427.90	2235.21
428.09	2200.10
428.28	2228.19
428.46	2305.43
428.65	2317.13
428.84	2277.34
429.03	2214.15
429.22	2160.31
429.40	2221.17
429.59	2267.98
429.78	2167.34
429.97	2143.93
430.16	2207.13
430.34	2321.81
430.53	2342.88
430.72	2347.56
430.91	2270.32
431.10	2338.20
431.28	2373.30
431.47	2349.90
431.66	2347.56
431.85	2427.14
432.03	2464.58
432.22	2511.39
432.41	2368.62
432.60	2572.25
432.79	2473.95
432.97	2471.61
433.16	2413.09
433.35	2457.56
433.54	2562.89
433.72	2555.86
433.91	2464.58
434.10	2640.12
434.28	2586.29
434.47	2539.48
434.66	2429.48
434.85	2600.34
435.03	2537.14
435.22	2747.79
435.41	2684.59
435.59	2569.91
435.78	2628.42
435.97	2757.15
436.16	2712.68
436.34	2614.38
436.53	2628.42
436.72	2771.19
436.90	2534.80
437.09	2700.98
437.28	2663.53
437.46	2658.85
437.65	2778.22
437.84	2806.30
438.02	2780.56
438.21	2785.24
438.40	2773.53
438.58	2778.22
438.77	3009.93
438.96	2829.71
439.14	2974.82
439.33	2909.29
439.52	2918.65
439.70	2949.08
439.89	3115.25
440.08	3016.95
440.26	3094.19
440.45	3131.64
440.63	3009.93
440.82	3141.00
441.01	3084.83
441.19	3108.23
441.38	3199.51
441.57	3236.96
441.75	3274.41
441.94	3375.05
442.12	3321.22
442.31	3267.39
442.50	3414.84
442.68	3269.73
442.87	3353.99
443.05	3353.99
443.24	3417.18
443.43	3328.24
443.61	3435.91
443.80	3566.98
443.98	3384.41
444.17	3276.75
444.35	3435.91
444.54	3616.13
444.73	3496.76
444.91	3480.38
445.10	3442.93
445.28	3475.70
445.47	3440.59
445.65	3536.55
445.84	3609.11
446.02	3538.89
446.21	3508.46
446.39	3431.23
446.58	3524.85
446.77	3318.88
446.95	3492.08
447.14	3520.17
447.32	3550.59
447.51	3688.68
447.69	3524.85
447.88	3618.47
448.06	3574.00
448.25	3581.02
448.43	3714.43
448.62	3609.11
448.80	3536.55
448.99	3679.32
449.17	3662.94
449.36	3604.42
449.54	3691.02
449.73	3616.13
449.91	3812.73
450.10	3693.37
450.28	3810.39
450.46	3712.09
450.65	3712.09
450.83	3941.46
451.02	3866.56
451.20	3896.99
451.39	3786.99
451.57	3868.91
451.76	3801.03
451.94	3829.12
452.13	3887.63
452.31	3927.42
452.49	3798.69
452.68	3901.67
452.86	3887.63
453.05	3857.20
453.23	4063.17
453.42	3829.12
453.60	3789.33
453.78	4018.70
453.97	3925.08
454.15	3803.37
454.34	3904.01
454.52	4201.26
454.70	4028.06
454.89	4166.15
455.07	4067.85
455.26	4014.02
455.44	4147.43
455.62	4051.47
455.81	4072.53
455.99	4269.14
456.17	4131.05
456.36	4243.39
456.54	4147.43
456.73	4327.65
456.91	4442.34
457.09	4344.03
457.28	4418.93
457.46	4351.06
457.64	4372.12
457.83	4379.14
458.01	4395.53
458.19	4407.23
458.38	4367.44
458.56	4484.47
458.74	4430.63
458.93	4437.66
459.11	4533.62
459.29	4360.42
459.48	4594.47
459.66	4519.57
459.84	4578.09
460.03	4550.00
460.21	4580.43
460.39	4601.49
460.57	4547.66
460.76	4734.90
460.94	4650.64
461.12	4791.08
461.31	4631.92
461.49	4585.11
461.67	4589.79
461.85	4774.69
462.04	4727.88
462.22	5055.56
462.40	4762.99
462.59	4950.23
462.77	4835.55
462.95	4751.29
463.13	4887.04
463.32	4861.29
463.50	4947.89
463.68	4933.85
463.86	4880.02
464.05	4833.21
464.23	4940.87
464.41	4793.42
464.59	4901.08
464.78	4870.65
464.96	4931.51
465.14	5102.37
465.32	4999.38
465.50	5137.48
465.69	5144.50
465.87	5100.03
466.05	4938.53
466.23	5114.07
466.41	5064.92
466.60	5282.59
466.78	5097.69
466.96	5050.88
467.14	5205.35
467.32	5146.84
467.51	5195.99
467.69	5048.54
467.87	5067.26
468.05	5097.69
468.23	5245.14
468.41	5085.98
468.60	5296.63
468.78	5254.50
468.96	5263.86
469.14	5334.08
469.32	5448.77
469.50	5242.80
469.69	5331.74
469.87	5345.78
470.05	5336.42
470.23	5598.56
470.41	5324.72
470.59	5561.11
470.77	5521.32
470.95	5659.42
471.14	5626.65
471.32	5565.79
471.50	5816.23
471.68	5699.20
471.86	5785.80
472.04	5668.78
472.22	5865.38
472.40	5572.82
472.58	5832.62
472.77	5746.02
472.95	5717.93
473.13	5991.77
473.31	5898.15
473.49	6080.71
473.67	5764.74
473.85	5923.90
474.03	6157.95
474.21	6115.82
474.39	6214.12
474.57	6069.01
474.75	6232.85
474.93	6260.93
475.12	6274.98
475.30	6218.80
475.48	6370.94
475.66	6190.72
475.84	6326.47
476.02	6413.07
476.20	6392.00
476.38	6459.88
476.56	6513.71
476.74	6604.99
476.92	6525.41
477.10	6672.87
477.28	6771.17
477.46	6747.76
477.64	6698.61
477.82	6935.01
478.00	6927.99
478.18	6967.77
478.36	7084.80
478.54	7206.51
478.72	7105.87
478.90	7250.98
479.08	7386.73
479.26	7180.76
479.44	7431.20
479.62	7346.94
479.80	7513.12
479.98	7452.27
480.16	7651.21
480.34	7552.91
480.52	7606.74
480.70	7801.01
480.88	7812.71
481.06	7761.22
481.24	7805.69
481.41	7826.75
481.59	8006.97
481.77	8121.66
481.95	8194.22
482.13	8042.08
482.31	8203.58
482.49	8407.20
482.67	8336.99
482.85	8517.21
483.03	8475.08
483.21	8601.47
483.39	8603.81
483.57	8535.93
483.74	8667.00
483.92	8809.78
484.10	8816.80
484.28	9130.43
484.46	9057.87
484.64	9298.95
484.82	9195.96
485.00	9380.87
485.18	9542.36
485.35	9727.27
485.53	9460.45
485.71	9617.26
485.89	9919.19
486.07	9771.74
486.25	9558.75
486.43	9832.59
486.61	9682.80
486.78	10101.75
486.96	10256.23
487.14	10167.29
487.32	9980.04
487.50	10136.86
487.68	10246.87
487.85	10406.02
488.03	10572.20
488.21	10824.98
488.39	10602.63
488.57	10820.30
488.75	10864.77
488.92	11033.29
489.10	11016.90
489.28	11068.39
489.46	11204.14
489.64	11307.13
489.81	11440.54
489.99	11339.90
490.17	11442.88
490.35	11782.26
490.53	11688.64
490.70	11932.05
490.88	11775.24
491.06	11943.75
491.24	11653.53
491.41	11936.73
491.59	12044.40
491.77	12133.34
491.95	12208.23
492.13	12482.08
492.30	12360.37
492.48	12304.20
492.66	12446.97
492.84	12512.50
493.01	12662.30
493.19	12828.48
493.37	12772.30
493.54	13013.38
493.72	13128.06
493.90	12891.67
494.08	13050.83
494.25	13432.33
494.43	13270.84
494.61	13568.09
494.79	13322.33
494.96	13331.69
495.14	13432.33
495.32	13731.92
495.49	13968.32
495.67	13942.57
495.85	13926.19
496.02	14120.45
496.20	14043.21
496.38	14017.47
496.55	14253.86
496.73	14281.95
496.91	14436.42
497.09	14211.73
497.26	14604.94
497.44	14574.52
497.62	14668.14
497.79	14815.59
497.97	14881.13
498.14	14888.15
498.32	15105.82
498.50	15054.33
498.67	15194.76
498.85	15059.01
499.03	15213.48
499.20	15183.06
499.38	15304.76
499.56	15407.75
499.73	15274.34
499.91	15517.75
500.08	15417.11
500.26	15690.95
500.44	15524.77
500.61	15817.34
500.79	15613.71
500.97	15824.36
501.14	15786.91
501.32	16004.58
501.49	15815.00
501.67	15967.13
501.84	16135.65
502.02	16224.59
502.20	16201.19
502.37	16128.63
502.55	16456.31
502.72	16428.22
502.90	16278.43
503.07	16582.70
503.25	16444.60
503.43	16498.44
503.60	16671.64
503.78	16819.09
503.95	16982.93
504.13	16940.80
504.30	16910.37
504.48	17060.16
504.65	17193.58
504.83	17401.88
505.01	17275.49
505.18	17109.32
505.36	17263.79
505.53	17240.39
505.71	17385.50
505.88	17329.33
506.06	17174.85
506.23	17462.74
506.41	17788.07
506.58	17699.13
506.76	17511.89
506.93	17673.39
507.11	17600.83
507.28	17624.23
507.46	17837.22
507.63	17846.58
507.81	18190.64
507.98	17614.87
508.16	18075.96
508.33	17769.35
508.50	18132.13
508.68	18141.49
508.85	18494.91
509.03	18349.80
509.20	18513.64
509.38	18239.79
509.55	18588.53
509.73	18398.95
509.90	18696.20
510.08	18553.43
510.25	18436.40
510.42	18761.73
510.60	18953.66
510.77	18888.12
510.95	18941.96
511.12	18946.64
511.30	19129.20
511.47	18981.74
511.64	19145.58
511.82	19286.01
511.99	19066.00
512.17	19180.69
512.34	19419.42
512.51	19536.45
512.69	19405.38
512.86	19274.31
513.04	19887.53
513.21	19653.48
513.38	19730.72
513.56	19660.50
513.73	19819.66
513.90	19971.79
514.08	19798.59
514.25	20159.03
514.43	20453.94
514.60	20304.15
514.77	20049.03
514.95	20126.27
515.12	20458.62
515.29	19999.88
515.47	20325.21
515.64	20280.74
515.81	20042.01
515.99	20690.34
516.16	20479.69
516.33	20479.69
516.51	20376.70
516.68	20350.96
516.85	20294.79
517.03	20650.55
517.20	20795.66
517.37	21247.38
517.54	20945.45
517.72	20634.16
517.89	20826.09
518.06	21167.80
518.24	20919.71
518.41	20800.34
518.58	20961.84
518.75	21102.27
518.93	21280.15
519.10	21296.53
519.27	21132.70
519.45	21151.42
519.62	21415.90
519.79	21177.17
519.96	21436.97
520.14	21530.59
520.31	21268.45
520.48	21811.45
520.65	21790.39
520.83	22052.53
521.00	21675.70
521.17	21635.91
521.34	21884.01
521.52	21813.79
521.69	22223.39
521.86	22094.66
522.03	22286.58
522.20	22256.15
522.38	21986.99
522.55	22033.80
522.72	22075.93
522.89	22225.73
523.07	22197.64
523.24	22618.94
523.41	22522.98
523.58	22047.85
523.75	22707.88
523.92	22335.73
524.10	22501.91
524.27	22654.05
524.44	22768.73
524.61	23112.79
524.78	22719.58
524.96	22553.40
525.13	22724.26
525.30	22852.99
525.47	22707.88
525.64	22651.70
525.81	22993.42
525.98	23482.59
526.16	22986.40
526.33	23089.38
526.50	23281.31
526.67	23253.22
526.84	23225.14
527.01	23143.22
527.18	23435.78
527.36	23056.62
527.53	23297.69
527.70	23772.82
527.87	23749.42
528.04	23557.49
528.21	23770.48
528.38	23438.12
528.55	23585.58
528.72	23550.47
528.89	23562.17
529.07	23723.67
529.24	23639.41
529.41	23957.72
529.58	23599.62
529.75	23756.44
529.92	23950.70
530.09	23964.75
530.26	24173.05
530.43	24332.21
530.60	23552.81
530.77	23922.62
530.94	24264.33
531.11	24159.01
531.28	24357.96
531.46	23943.68
531.63	24552.22
531.80	24418.81
531.97	24250.29
532.14	24620.10
532.31	24229.23
532.48	24446.90
532.65	24601.37
532.82	24329.87
532.99	24755.85
533.16	24711.38
533.33	24608.39
533.50	25113.95
533.67	24854.15
533.84	24463.28
534.01	24828.40
534.18	24711.38
534.35	24830.74
534.52	25057.78
534.69	25151.40
534.86	25041.39
535.03	24781.59
535.20	25130.33
535.37	25074.16
535.54	25097.56
535.71	24989.90
535.88	25010.96
536.05	24847.13
536.22	25628.87
536.38	25575.03
536.55	25446.30
536.72	25273.10
536.89	24943.09
537.06	25238.00
537.23	25551.63
537.40	25404.17
537.57	25422.90
537.74	25661.63
537.91	25582.06
538.08	25825.47
538.25	25858.24
538.42	25785.68
538.59	25659.29
538.75	25226.29
538.92	25811.43
539.09	25717.81
539.26	26003.35
539.43	25827.81
539.60	25919.09
539.77	26066.55
539.94	25975.27
540.11	25675.68
540.28	25675.68
540.44	25876.96
540.61	25895.69
540.78	26087.61
540.95	26239.75
541.12	26015.05
541.29	26295.92
541.46	26242.09
541.62	26160.17
541.79	26043.14
541.96	25900.37
542.13	26125.06
542.30	26122.72
542.47	26490.18
542.63	26508.91
542.80	26621.25
542.97	26628.27
543.14	26916.16
543.31	26583.80
543.48	26316.98
543.64	26981.70
543.81	26604.87
543.98	26906.80
544.15	27009.78
544.32	27194.68
544.48	26883.39
544.65	26864.67
544.82	26508.91
544.99	26611.89
545.16	26859.99
545.32	26707.85
545.49	27105.74
545.66	27398.31
545.83	27182.98
546.00	27527.04
546.16	26845.94
546.33	27012.12
546.50	26757.00
546.67	27087.02
546.83	26864.67
547.00	27077.66
547.17	27234.47
547.34	27246.18
547.50	27456.82
547.67	27227.45
547.84	27592.58
548.00	27655.77
548.17	27417.04
548.34	27281.28
548.51	27482.57
548.67	27676.83
548.84	27826.63
549.01	27953.02
549.18	27435.76
549.34	27407.67
549.51	27426.40
549.68	27529.38
549.84	27615.98
550.01	27695.56
550.18	27152.55
550.34	27728.33
550.51	27929.61
550.68	28002.17
550.84	27714.28
551.01	27894.50
551.18	27857.06
551.34	27545.76
551.51	27765.78
551.68	27765.78
551.84	28025.57
552.01	28023.23
552.18	27955.36
552.34	27763.43
552.51	28559.22
552.68	27906.21
552.84	28102.81
553.01	28238.56
553.18	27985.79
553.34	28247.93
553.51	28327.50
553.67	28428.15
553.84	28692.63
554.01	28360.27
554.17	28367.29
554.34	28484.32
554.51	28268.99
554.67	28276.01
554.84	28706.67
555.00	28458.57
555.17	28386.02
555.33	28610.71
555.50	28437.51
555.67	28676.24
555.83	28531.13
556.00	29048.39
556.16	28751.14
556.33	28641.14
556.50	28922.00
556.66	28914.98
556.83	28496.02
556.99	29179.46
557.16	28819.02
557.32	29032.00
557.49	28875.19
557.65	28566.24
557.82	28533.47
557.98	28828.38
558.15	28709.01
558.32	29186.48
558.48	29043.71
558.65	29359.68
558.81	28905.62
558.98	29404.15
559.14	28835.40
559.31	29254.36
559.47	29123.29
559.64	29088.18
559.80	29228.61
559.97	29497.77
560.13	29191.16
560.30	29177.12
560.46	29474.37
560.63	29174.78
560.79	29369.04
560.96	29312.87
561.12	29170.10
561.29	29123.29
561.45	29095.20
561.61	29584.37
561.78	29446.28
561.94	29476.71
562.11	29394.79
562.27	29350.32
562.44	29434.58
562.60	29153.71
562.77	29291.80
562.93	29123.29
563.10	29832.47
563.26	29123.29
563.42	29661.61
563.59	29694.38
563.75	29256.70
563.92	29614.80
564.08	29745.87
564.24	29523.52
564.41	29558.63
564.57	29268.40
564.74	29287.12
564.90	29244.99
565.07	29493.09
565.23	29977.58
565.39	29523.52
565.56	30185.89
565.72	29778.64
565.88	29745.87
566.05	29652.25
566.21	29736.51
566.38	29446.28
566.54	29764.59
566.70	29677.99
566.87	29975.24
567.03	30036.09
567.19	30141.42
567.36	29572.67
567.52	29685.01
567.68	29563.31
567.85	29420.53
568.01	29993.97
568.17	29722.46
568.34	29577.35
568.50	29607.78
568.66	30157.80
568.83	29771.61
568.99	29818.42
569.15	29591.39
569.32	29876.94
569.48	29610.12
569.64	29846.51
569.81	30022.05
569.97	30045.46
570.13	30256.11
570.30	30003.33
570.46	29979.92
570.62	30127.38
570.78	29961.20
570.95	29776.30
571.11	29890.98
571.27	29764.59
571.43	29748.21
571.60	29984.60
571.76	30185.89
571.92	30228.02
572.09	30167.16
572.25	29795.02
572.41	29909.71
572.57	29795.02
572.74	30134.40
572.90	29958.86
573.06	30178.87
573.22	29762.25
573.38	30349.73
573.55	30192.91
573.71	30263.13
573.87	30375.47
574.03	30246.74
574.20	30148.44
574.36	30101.63
574.52	30260.79
574.68	30232.70
574.84	30153.12
575.01	30349.73
575.17	30253.76
575.33	29832.47
575.49	30232.70
575.65	30153.12
575.82	30040.78
575.98	30038.44
576.14	30309.94
576.30	29883.96
576.46	29963.54
576.62	30054.82
576.79	30345.05
576.95	29970.56
577.11	30389.52
577.27	30410.58
577.43	30450.37
577.59	30221.00
577.75	30349.73
577.92	29785.66
578.08	30176.53
578.24	30309.94
578.40	30616.55
578.56	30129.72
578.72	30288.87
578.88	30459.73
579.04	30665.70
579.21	30047.80
579.37	30242.06
579.53	30230.36
579.69	30281.85
579.85	30352.07
580.01	30539.31
580.17	30052.48
580.33	30497.18
580.49	30270.15
580.65	30331.00
580.82	30476.12
580.98	30590.80
581.14	30113.33
581.30	30209.29
581.46	30256.11
581.62	30169.51
581.78	30155.46
581.94	30433.99
582.10	30251.42
582.26	30333.34
582.42	30167.16
582.58	30211.64
582.74	30726.55
582.90	30270.15
583.06	30597.82
583.22	30387.18
583.38	30319.30
583.54	30506.54
583.70	30260.79
583.86	30038.44
584.02	30464.41
584.18	30359.09
584.34	30780.39
584.50	30651.66
584.66	30448.03
584.82	30452.71
584.98	30518.25
585.14	30567.40
585.30	30291.21
585.46	30487.82
585.62	29879.28
585.78	30541.65
585.94	30298.23
586.10	30689.10
586.26	30707.83
586.42	31007.42
586.58	31054.23
586.74	30604.84
586.90	30089.93
587.06	29872.26
587.22	30501.86
587.38	30246.74
587.54	30403.56
587.70	30661.02
587.86	30558.03
588.02	30684.42
588.18	31075.29
588.34	30988.69
588.49	30831.88
588.65	30494.84
588.81	30448.03
588.97	30511.22
589.13	30731.23
589.29	30534.63
589.45	30771.02
589.61	30792.09
589.77	30967.63
589.93	30602.50
590.08	30506.54
590.24	31159.55
590.40	30871.67
590.56	31222.75
590.72	30813.15
590.88	30761.66
591.04	30869.33
591.20	30885.71
591.35	31051.89
591.51	30960.61
591.67	30721.87
591.83	31002.74
591.99	31079.97
