SpectraSuite Data File
++++++++++++++++++++++++++++++++++++
Date: Fri Oct 18 13:58:40 GMT-05:00 2013
User: bianchi
Dark Spectrum Present: No
Reference Spectrum Present: No
Number of Sampled Component Spectra: 1
Spectrometers: USB2+H05261
Integration Time (usec): 50000 (USB2+H05261)
Spectra Averaged: 1 (USB2+H05261)
Boxcar Smoothing: 0 (USB2+H05261)
Correct for Electrical Dark: No (USB2+H05261)
Strobe/Lamp Enabled: No (USB2+H05261)
Correct for Detector Non-linearity: No (USB2+H05261)
Correct for Stray Light: No (USB2+H05261)
Number of Pixels in Processed Spectrum: 2048
>>>>>Begin Processed Spectral Data<<<<<
365.73	0.00
365.92	0.00
366.12	0.00
366.32	0.00
366.52	0.00
366.72	0.00
366.91	0.00
367.11	0.00
367.31	0.00
367.51	0.00
367.70	0.00
367.90	0.00
368.10	0.00
368.30	0.00
368.49	0.00
368.69	0.00
368.89	0.00
369.09	0.00
369.28	0.00
369.48	0.00
369.68	0.00
369.87	0.00
370.07	0.00
370.27	0.00
370.47	0.00
370.66	112.35
370.86	107.66
371.06	142.77
371.25	170.86
371.45	79.58
371.65	205.97
371.84	177.88
372.04	168.52
372.24	140.43
372.44	147.45
372.63	194.26
372.83	212.99
373.03	170.86
373.22	147.45
373.42	203.63
373.62	259.80
373.81	189.58
374.01	234.05
374.21	290.23
374.40	241.08
374.60	241.08
374.79	227.03
374.99	182.56
375.19	227.03
375.38	189.58
375.58	308.95
375.78	259.80
375.97	299.59
376.17	224.69
376.37	241.08
376.56	241.08
376.76	198.95
376.95	299.59
377.15	318.31
377.35	304.27
377.54	229.37
377.74	276.18
377.93	241.08
378.13	224.69
378.33	271.50
378.52	360.44
378.72	318.31
378.91	283.20
379.11	266.82
379.31	278.52
379.50	306.61
379.70	299.59
379.89	299.59
380.09	248.10
380.28	194.26
380.48	163.84
380.68	285.55
380.87	320.65
381.07	278.52
381.26	344.06
381.46	327.68
381.65	252.78
381.85	290.23
382.04	308.95
382.24	315.97
382.43	393.21
382.63	409.59
382.83	430.66
383.02	411.93
383.22	325.33
383.41	245.76
383.61	365.12
383.80	374.49
384.00	311.29
384.19	362.78
384.39	355.76
384.58	271.50
384.78	386.19
384.97	313.63
385.17	313.63
385.36	358.10
385.56	440.02
385.75	393.21
385.95	374.49
386.14	400.23
386.34	475.13
386.53	351.08
386.72	383.85
386.92	393.21
387.11	376.83
387.31	514.92
387.50	468.11
387.70	416.62
387.89	449.38
388.09	416.62
388.28	393.21
388.48	390.87
388.67	447.04
388.86	418.96
389.06	554.71
389.25	461.09
389.45	402.57
389.64	447.04
389.84	442.36
390.03	456.40
390.22	505.56
390.42	449.38
390.61	505.56
390.81	500.87
391.00	533.64
391.19	564.07
391.39	456.40
391.58	454.06
391.78	526.62
391.97	524.28
392.16	491.51
392.36	440.02
392.55	578.11
392.75	533.64
392.94	477.47
393.13	528.96
393.33	470.45
393.52	519.60
393.71	528.96
393.91	564.07
394.10	528.96
394.29	566.41
394.49	582.79
394.68	606.20
394.88	613.22
395.07	664.71
395.26	596.84
395.46	596.84
395.65	564.07
395.84	507.90
396.04	653.01
396.23	704.50
396.42	624.92
396.62	589.82
396.81	587.47
397.00	674.07
397.19	638.97
397.39	690.46
397.58	690.46
397.77	638.97
397.97	650.67
398.16	723.23
398.35	690.46
398.55	692.80
398.74	746.63
398.93	723.23
399.12	704.50
399.32	739.61
399.51	702.16
399.70	758.33
399.90	702.16
400.09	706.84
400.28	791.10
400.47	725.57
400.67	739.61
400.86	856.64
401.05	746.63
401.24	863.66
401.44	727.91
401.63	781.74
401.82	781.74
402.01	767.70
402.21	858.98
402.40	795.78
402.59	793.44
402.78	866.00
402.97	908.13
403.17	940.90
403.36	861.32
403.55	868.34
403.74	866.00
403.93	896.43
404.13	882.38
404.32	938.55
404.51	866.00
404.70	945.58
404.89	896.43
405.09	929.19
405.28	936.21
405.47	877.70
405.66	992.39
405.85	1004.09
406.05	983.02
406.24	997.07
406.43	994.73
406.62	1022.81
406.81	1121.12
407.00	980.68
407.20	903.45
407.39	926.85
407.58	938.55
407.77	1008.77
407.96	1053.24
408.15	950.26
408.34	968.98
408.54	1104.73
408.73	1128.14
408.92	1064.94
409.11	1116.44
409.30	1025.15
409.49	1078.99
409.68	1027.50
409.87	1093.03
410.07	1121.12
410.26	1191.33
410.45	1130.48
410.64	1231.12
410.83	1144.52
411.02	1156.22
411.21	1320.06
411.40	1275.59
411.59	1212.40
411.78	1235.80
411.98	1188.99
412.17	1287.29
412.36	1240.48
412.55	1383.26
412.74	1352.83
412.93	1310.70
413.12	1357.51
413.31	1479.22
413.50	1401.98
413.69	1324.74
413.88	1460.49
414.07	1495.60
414.26	1490.92
414.45	1451.13
414.64	1488.58
414.83	1575.18
415.02	1521.35
415.22	1467.52
415.41	1490.92
415.60	1561.14
415.79	1507.30
415.98	1533.05
416.17	1591.56
416.36	1507.30
416.55	1483.90
416.74	1568.16
416.93	1661.78
417.12	1678.16
417.31	1654.76
417.50	1708.59
417.69	1729.66
417.88	1724.97
418.07	1568.16
418.26	1710.93
418.45	1659.44
418.64	1743.70
418.83	1816.26
419.02	1774.13
419.21	1881.79
419.39	1689.87
419.58	1722.63
419.77	1842.00
419.96	1809.23
420.15	1825.62
420.34	1860.73
420.53	1928.60
420.72	1870.09
420.91	1872.43
421.10	1923.92
421.29	2012.86
421.48	1937.96
421.67	2003.50
421.86	1970.73
422.05	1963.71
422.24	2010.52
422.43	2024.56
422.61	1940.30
422.80	2054.99
422.99	2005.84
423.18	1937.96
423.37	2057.33
423.56	1830.30
423.75	1963.71
423.94	1820.94
424.13	1902.86
424.32	1947.33
424.50	2033.93
424.69	2139.25
424.88	2045.63
425.07	1935.62
425.26	1912.22
425.45	1975.41
425.64	2136.91
425.83	1942.64
426.01	2085.42
426.20	2211.81
426.39	2090.10
426.58	1933.28
426.77	2050.31
426.96	2047.97
427.15	2057.33
427.33	2043.29
427.52	2129.89
427.71	2069.03
427.90	2141.59
428.09	2099.46
428.28	2118.18
428.46	2183.72
428.65	2106.48
428.84	2010.52
429.03	2298.41
429.22	2106.48
429.40	2125.21
429.59	2232.87
429.78	2165.00
429.97	2146.27
430.16	2115.84
430.34	2244.57
430.53	2293.72
430.72	2237.55
430.91	2284.36
431.10	2228.19
431.28	2321.81
431.47	2286.70
431.66	2354.58
431.85	2284.36
432.03	2328.83
432.22	2438.84
432.41	2410.75
432.60	2441.18
432.79	2303.09
432.97	2553.52
433.16	2490.33
433.35	2413.09
433.54	2457.56
433.72	2516.08
433.91	2487.99
434.10	2574.59
434.28	2366.28
434.47	2553.52
434.66	2567.57
434.85	2513.74
435.03	2551.18
435.22	2621.40
435.41	2619.06
435.59	2502.03
435.78	2719.70
435.97	2609.70
436.16	2614.38
436.34	2602.68
436.53	2612.04
436.72	2764.17
436.90	2602.68
437.09	2693.96
437.28	2623.74
437.46	2722.04
437.65	2668.21
437.84	2818.00
438.02	2883.54
438.21	2775.88
438.40	2778.22
438.58	2906.95
438.77	2810.98
438.96	2895.24
439.14	2902.26
439.33	2920.99
439.52	3012.27
439.70	2935.03
439.89	2913.97
440.08	2958.44
440.26	3028.65
440.45	3124.62
440.63	3030.99
440.82	3138.66
441.01	3183.13
441.19	3215.90
441.38	3129.30
441.57	3115.25
441.75	3297.81
441.94	3269.73
442.12	3218.24
442.31	3356.33
442.50	3349.31
442.68	3300.16
442.87	3262.71
443.05	3225.26
443.24	3372.71
443.43	3335.26
443.61	3358.67
443.80	3513.14
443.98	3318.88
444.17	3197.17
444.35	3325.90
444.54	3480.38
444.73	3428.88
444.91	3356.33
445.10	3368.03
445.28	3375.05
445.47	3368.03
445.65	3461.65
445.84	3351.65
446.02	3482.72
446.21	3440.59
446.39	3433.57
446.58	3461.65
446.77	3595.06
446.95	3508.46
447.14	3492.08
447.32	3499.10
447.51	3452.29
447.69	3557.61
447.88	3534.21
448.06	3581.02
448.25	3421.86
448.43	3426.54
448.62	3440.59
448.80	3440.59
448.99	3625.49
449.17	3616.13
449.36	3623.15
449.54	3588.04
449.73	3684.00
449.91	3501.44
450.10	3782.31
450.28	3684.00
450.46	3564.64
450.65	3637.19
450.83	3749.54
451.02	3714.43
451.20	3794.01
451.39	3712.09
451.57	3707.41
451.76	3719.11
451.94	3819.75
452.13	3819.75
452.31	3791.67
452.49	3775.28
452.68	3684.00
452.86	3889.97
453.05	3960.19
453.23	3960.19
453.42	3801.03
453.60	3765.92
453.78	3833.80
453.97	3786.99
454.15	3892.31
454.34	3681.66
454.52	4067.85
454.70	4053.81
454.89	4105.30
455.07	3964.87
455.26	4091.26
455.44	3976.57
455.62	3948.48
455.81	4002.32
455.99	4051.47
456.17	4109.98
456.36	4053.81
456.54	4210.62
456.73	4117.00
456.91	4262.12
457.09	4351.06
457.28	4301.90
457.46	4227.01
457.64	4360.42
457.83	4348.72
458.01	4177.86
458.19	4369.78
458.38	4177.86
458.56	4355.74
458.74	4297.22
458.93	4250.41
459.11	4386.16
459.29	4428.29
459.48	4519.57
459.66	4440.00
459.84	4477.44
460.03	4451.70
460.21	4437.66
460.39	4510.21
460.57	4386.16
460.76	4596.81
460.94	4512.55
461.12	4561.70
461.31	4578.09
461.49	4489.15
461.67	4514.89
461.85	4641.28
462.04	4608.51
462.22	4760.65
462.40	4795.76
462.59	4739.58
462.77	4631.92
462.95	4683.41
463.13	4753.63
463.32	4739.58
463.50	4854.27
463.68	4865.97
463.86	4765.33
464.05	4641.28
464.23	4823.84
464.41	4835.55
464.59	4826.18
464.78	4784.06
464.96	4870.65
465.14	4765.33
465.32	4844.91
465.50	4926.83
465.69	4830.87
465.87	4905.76
466.05	5006.41
466.23	4997.04
466.41	4798.10
466.60	5135.14
466.78	5008.75
466.96	5043.85
467.14	5006.41
467.32	5107.05
467.51	5078.96
467.69	5060.24
467.87	5137.48
468.05	5167.90
468.23	5081.30
468.41	5078.96
468.60	5193.65
468.78	5181.95
468.96	5090.67
469.14	5275.57
469.32	5245.14
469.50	5191.31
469.69	5252.16
469.87	5235.78
470.05	5448.77
470.23	5217.05
470.41	5378.55
470.59	5493.24
470.77	5308.34
470.95	5289.61
471.14	5526.00
471.32	5350.46
471.50	5575.16
471.68	5671.12
471.86	5701.54
472.04	5650.05
472.22	5743.67
472.40	5643.03
472.58	5720.27
472.77	5652.39
472.95	5603.24
473.13	5799.85
473.31	5771.76
473.49	5706.23
473.67	5877.09
473.85	5940.28
474.03	6031.56
474.21	5830.27
474.39	6094.76
474.57	5956.66
474.75	6038.58
474.93	6122.84
475.12	6214.12
475.30	6047.94
475.48	6148.59
475.66	6073.69
475.84	6324.13
476.02	6384.98
476.20	6195.40
476.38	6382.64
476.56	6443.49
476.74	6574.56
476.92	6368.60
477.10	6497.33
477.28	6640.10
477.46	6525.41
477.64	6635.42
477.82	6619.04
478.00	6752.45
478.18	6766.49
478.36	6792.23
478.54	6932.67
478.72	7094.16
478.90	7124.59
479.08	7225.23
479.26	7143.32
479.44	7208.85
479.62	7199.49
479.80	7377.37
479.98	7337.58
480.16	7470.99
480.34	7473.33
480.52	7648.87
480.70	7623.12
480.88	7454.61
481.06	7513.12
481.24	7676.96
481.41	7674.62
481.59	7786.96
481.77	7988.25
481.95	7995.27
482.13	8074.85
482.31	7997.61
482.49	8109.96
482.67	8283.16
482.85	8493.80
483.03	8292.52
483.21	8432.95
483.39	8531.25
483.57	8500.83
483.74	8512.53
483.92	8662.32
484.10	8608.49
484.28	8807.44
484.46	8851.91
484.64	9025.11
484.82	9013.40
485.00	8933.82
485.18	9277.88
485.35	9334.06
485.53	9397.25
485.71	9200.65
485.89	9867.70
486.07	9547.05
486.25	9369.16
486.43	9706.20
486.61	9626.62
486.78	9757.69
486.96	9643.01
487.14	10080.69
487.32	9940.26
487.50	9895.78
487.68	9935.57
487.85	10178.99
488.03	10651.78
488.21	10340.49
488.39	10668.16
488.57	10518.37
488.75	10654.12
488.92	10927.96
489.10	10925.62
489.28	10651.78
489.46	10869.45
489.64	10857.75
489.81	11267.34
489.99	11204.14
490.17	11016.90
490.35	11482.67
490.53	11309.47
490.70	11461.60
490.88	11405.43
491.06	11754.17
491.24	11524.80
491.41	11789.28
491.59	11751.83
491.77	12013.97
491.95	12046.74
492.13	12278.45
492.30	12065.46
492.48	12046.74
492.66	11976.52
492.84	12002.27
493.01	12477.40
493.19	12461.01
493.37	12589.74
493.54	12615.49
493.72	12872.95
493.90	12571.02
494.08	12861.24
494.25	12903.37
494.43	12795.71
494.61	13083.59
494.79	13121.04
494.96	13249.77
495.14	13125.72
495.32	13355.10
495.49	13289.56
495.67	13500.21
495.85	13795.12
496.02	13776.39
496.20	13701.50
496.38	13987.04
496.55	13905.12
496.73	14164.92
496.91	14167.26
497.09	14125.13
497.26	14506.64
497.44	14176.62
497.62	14263.22
497.79	14232.80
497.97	14377.91
498.14	14778.14
498.32	14670.48
498.50	14581.54
498.67	14796.87
498.85	14782.82
499.03	14576.86
499.20	14820.27
499.38	14815.59
499.56	14993.47
499.73	15218.16
499.91	15253.27
500.08	15311.78
500.26	15077.73
500.44	15300.08
500.61	15419.45
500.79	15173.69
500.97	15470.94
501.14	15782.23
501.32	15925.00
501.49	15660.52
501.67	15599.67
501.84	15913.30
502.02	15747.12
502.20	15695.63
502.37	16137.99
502.55	16079.48
502.72	16329.92
502.90	16163.74
503.07	16154.38
503.25	16201.19
503.43	15880.53
503.60	16287.79
503.78	16578.01
503.95	16278.43
504.13	16271.40
504.30	16599.08
504.48	16566.31
504.65	16699.72
504.83	16924.41
505.01	16964.20
505.18	16734.83
505.36	17261.45
505.53	17020.38
505.71	16762.92
505.88	16861.22
506.06	16711.42
506.23	17191.23
506.41	17371.46
506.58	17109.32
506.76	17123.36
506.93	17106.98
507.11	17118.68
507.28	17619.55
507.46	17525.93
507.63	17621.89
507.81	17799.77
507.98	17345.71
508.16	17394.86
508.33	17736.58
508.50	17673.39
508.68	17666.36
508.85	17944.89
509.03	18115.75
509.20	17996.38
509.38	18047.87
509.55	18059.57
509.73	18375.55
509.90	18162.56
510.08	18001.06
510.25	18171.92
510.42	18310.01
510.60	18572.15
510.77	18466.83
510.95	18836.63
511.12	18464.49
511.30	18525.34
511.47	18717.26
511.64	18642.37
511.82	18759.39
511.99	18555.77
512.17	18991.11
512.34	18707.90
512.51	18948.98
512.69	19302.40
512.86	18934.93
513.04	19215.80
513.21	19377.30
513.38	19618.37
513.56	19278.99
513.73	19286.01
513.90	19515.39
514.08	19192.39
514.25	19452.19
514.43	19679.22
514.60	19721.35
514.77	19377.30
514.95	19473.26
515.12	19627.73
515.29	19552.84
515.47	19475.60
515.64	19672.20
515.81	19964.77
515.99	20067.75
516.16	20205.84
516.33	20182.44
516.51	20451.60
516.68	19974.13
516.85	20027.96
517.03	20414.15
517.20	20217.55
517.37	20397.77
517.54	20760.55
517.72	20283.08
517.89	20308.83
518.06	20734.81
518.24	20435.22
518.41	20790.98
518.58	20577.99
518.75	20526.50
518.93	20790.98
519.10	20809.70
519.27	20884.60
519.45	20723.10
519.62	20369.68
519.79	20594.37
519.96	21205.25
520.14	21013.33
520.31	21163.12
520.48	21188.87
520.65	21268.45
520.83	21099.93
521.00	21191.21
521.17	21137.38
521.34	21174.83
521.52	21280.15
521.69	21259.09
521.86	21558.67
522.03	21774.00
522.20	21724.85
522.38	21912.10
522.55	21699.11
522.72	21537.61
522.89	21954.22
523.07	22452.76
523.24	21813.79
523.41	21717.83
523.58	21563.36
523.75	22225.73
523.92	21879.33
524.10	21703.79
524.27	22003.38
524.44	22244.45
524.61	22192.96
524.78	22232.75
524.96	22136.79
525.13	22258.49
525.30	22532.34
525.47	22202.32
525.64	22277.22
525.81	22387.22
525.98	22396.59
526.16	22246.79
526.33	22555.74
526.50	22965.34
526.67	22679.79
526.84	22338.07
527.01	22651.70
527.18	22836.61
527.36	22941.93
527.53	22948.95
527.70	23087.04
527.87	23000.44
528.04	23049.60
528.21	23033.21
528.38	22993.42
528.55	22963.00
528.72	23084.70
528.89	23414.72
529.07	23316.42
529.24	22822.56
529.41	22988.74
529.58	23508.34
529.75	23152.58
529.92	23307.05
530.09	23419.40
530.26	23314.08
530.43	23466.21
530.60	23410.04
530.77	23351.52
530.94	23831.33
531.11	23639.41
531.28	23513.02
531.46	23477.91
531.63	23527.06
531.80	23892.19
531.97	23941.34
532.14	24020.92
532.31	23917.93
532.48	23859.42
532.65	23763.46
532.82	23761.12
532.99	23321.10
533.16	24070.07
533.33	24116.88
533.50	24041.98
533.67	24299.44
533.84	24023.26
534.01	23999.85
534.18	23805.59
534.35	24320.51
534.52	24416.47
534.69	24512.43
534.86	24802.66
535.03	24151.99
535.20	24514.77
535.37	24627.12
535.54	24294.76
535.71	24397.74
535.88	24379.02
536.05	24283.06
536.22	24769.89
536.38	24620.10
536.55	24318.17
536.72	25118.63
536.89	24648.18
537.06	24704.35
537.23	24886.92
537.40	25092.88
537.57	24863.51
537.74	24847.13
537.91	24917.34
538.08	24870.53
538.25	24540.52
538.42	25252.04
538.59	24999.26
538.75	24987.56
538.92	24800.32
539.09	24863.51
539.26	25188.85
539.43	25184.16
539.60	25427.58
539.77	25357.36
539.94	25336.30
540.11	25277.79
540.28	25507.16
540.44	25301.19
540.61	25120.97
540.78	25181.82
540.95	25371.41
541.12	25525.88
541.29	25219.27
541.46	25081.18
541.62	25401.83
541.79	25617.16
541.96	25399.49
542.13	25528.22
542.30	25813.77
542.47	26136.76
542.63	25919.09
542.80	26099.31
542.97	26628.27
543.14	25902.71
543.31	26384.86
543.48	26139.10
543.64	25937.82
543.81	26450.39
543.98	26239.75
544.15	26064.21
544.32	26471.46
544.48	26728.92
544.65	26050.16
544.82	26068.89
544.99	25961.22
545.16	26008.03
545.32	26469.12
545.49	26410.60
545.66	26925.52
545.83	26576.78
546.00	26462.10
546.16	26759.34
546.33	26239.75
546.50	26120.38
546.67	27124.47
546.83	26239.75
547.00	26661.04
547.17	26555.72
547.34	26878.71
547.50	27021.48
547.67	26831.90
547.84	26934.88
548.00	26815.52
548.17	26719.56
548.34	27051.91
548.51	26801.47
548.67	27168.94
548.84	27016.80
549.01	27042.55
549.18	26518.27
549.34	26707.85
549.51	27140.85
549.68	27145.53
549.84	27016.80
550.01	27295.33
550.18	26939.57
550.34	26941.91
550.51	27751.73
550.68	27264.90
550.84	26897.44
551.01	27585.55
551.18	27281.28
551.34	27047.23
551.51	27428.74
551.68	27395.97
551.84	27435.76
552.01	27075.32
552.18	27693.22
552.34	27133.83
552.51	27510.66
552.68	27285.97
552.84	27433.42
553.01	27908.55
553.18	27271.92
553.34	27625.34
553.51	27501.29
553.67	27859.40
553.84	27688.54
554.01	27358.52
554.17	27276.60
554.34	27857.06
554.51	27630.02
554.67	28128.56
554.84	27768.12
555.00	28158.99
555.17	27723.65
555.33	28142.60
555.50	27782.16
555.67	27969.40
555.83	27899.19
556.00	28175.37
556.16	28060.68
556.33	27960.04
556.50	27990.47
556.66	28224.52
556.83	27948.34
556.99	28496.02
557.16	28416.44
557.32	28297.08
557.49	28451.55
557.65	28205.80
557.82	27995.15
557.98	28112.17
558.15	27880.46
558.32	28329.84
558.48	28149.62
558.65	28196.43
558.81	28807.31
558.98	28072.39
559.14	28343.89
559.31	28446.87
559.47	28507.72
559.64	28727.74
559.80	28210.48
559.97	28601.35
560.13	28266.65
560.30	28879.87
560.46	28819.02
560.63	28718.37
560.79	28252.61
560.96	28559.22
561.12	28486.66
561.29	28416.44
561.45	28428.15
561.61	28423.47
561.78	28692.63
561.94	28320.48
562.11	28460.91
562.27	28753.48
562.44	28720.71
562.60	28540.49
562.77	28861.15
562.93	28404.74
563.10	28837.74
563.26	28964.13
563.42	28952.43
563.59	28884.55
563.75	28624.75
563.92	28474.96
564.08	28893.91
564.24	28811.99
564.41	28460.91
564.57	29092.86
564.74	28629.43
564.90	28912.64
565.07	28641.14
565.23	29013.28
565.39	28870.51
565.56	28926.68
565.72	28517.09
565.88	28994.56
566.05	28687.95
566.21	28804.97
566.38	29240.31
566.54	28950.09
566.70	29336.27
566.87	29020.30
567.03	29081.16
567.19	29312.87
567.36	29469.69
567.52	29071.79
567.68	29457.98
567.85	29022.64
568.01	29134.99
568.17	28968.81
568.34	29008.60
568.50	29081.16
568.66	29340.96
568.83	29479.05
568.99	29076.48
569.15	29263.72
569.32	29202.86
569.48	28601.35
569.64	29542.24
569.81	29252.02
569.97	29071.79
570.13	28877.53
570.30	28884.55
570.46	29277.76
570.62	29125.63
570.78	29095.20
570.95	28840.08
571.11	29584.37
571.27	28987.53
571.43	29226.27
571.60	29170.10
571.76	28741.78
571.92	29362.02
572.09	29144.35
572.25	29308.19
572.41	29247.33
572.57	29057.75
572.74	29369.04
572.90	29263.72
573.06	29247.33
573.22	29205.20
573.38	29357.34
573.55	29193.50
573.71	29652.25
573.87	29453.30
574.03	29422.87
574.20	29195.84
574.36	29296.49
574.52	29514.16
574.68	29567.99
574.84	29174.78
575.01	29446.28
575.17	29537.56
575.33	29364.36
575.49	29432.24
575.65	29518.84
575.82	29516.50
575.98	29476.71
576.14	29493.09
576.30	29160.73
576.46	29366.70
576.62	29404.15
576.79	29614.80
576.95	29151.37
577.11	29153.71
577.27	29298.83
577.43	29572.67
577.59	29493.09
577.75	29776.30
577.92	29186.48
578.08	28975.83
578.24	29237.97
578.40	29450.96
578.56	29717.78
578.72	29528.20
578.88	29680.33
579.04	29797.36
579.21	29336.27
579.37	29666.29
579.53	29989.28
579.69	29394.79
579.85	29429.90
580.01	29427.56
580.17	29500.11
580.33	29446.28
580.49	29958.86
580.65	29369.04
580.82	29411.17
580.98	29699.06
581.14	29259.04
581.30	29582.03
581.46	29457.98
581.62	29469.69
581.78	29479.05
581.94	29479.05
582.10	29495.43
582.26	29619.48
582.42	29577.35
582.58	29837.15
582.74	29748.21
582.90	29500.11
583.06	29607.78
583.22	29780.98
583.38	28943.06
583.54	29734.17
583.70	29200.52
583.86	29495.43
584.02	29310.53
584.18	29656.93
584.34	29717.78
584.50	29890.98
584.66	29589.05
584.82	29834.81
584.98	29401.81
585.14	29532.88
585.30	29626.50
585.46	29310.53
585.62	29736.51
585.78	29635.86
585.94	29518.84
586.10	29741.19
586.26	29881.62
586.42	29975.24
586.58	29961.20
586.74	29696.72
586.90	29626.50
587.06	29497.77
587.22	29589.05
587.38	29762.25
587.54	29336.27
587.70	29841.83
587.86	29619.48
588.02	30253.76
588.18	29909.71
588.34	29944.81
588.49	29933.11
588.65	29612.46
588.81	29755.23
588.97	30195.25
589.13	29900.34
589.29	29696.72
589.45	29841.83
589.61	30026.73
589.77	29991.62
589.93	30057.16
590.08	30345.05
590.24	30260.79
590.40	29844.17
590.56	29575.01
590.72	29991.62
590.88	29923.75
591.04	30096.95
591.20	29717.78
591.35	30068.86
591.51	30312.28
591.67	30195.25
591.83	30380.15
591.99	30092.27
