SpectraSuite Data File
++++++++++++++++++++++++++++++++++++
Date: Fri Oct 18 13:58:33 GMT-05:00 2013
User: bianchi
Dark Spectrum Present: No
Reference Spectrum Present: No
Number of Sampled Component Spectra: 1
Spectrometers: USB2+H05261
Integration Time (usec): 50000 (USB2+H05261)
Spectra Averaged: 1 (USB2+H05261)
Boxcar Smoothing: 0 (USB2+H05261)
Correct for Electrical Dark: No (USB2+H05261)
Strobe/Lamp Enabled: No (USB2+H05261)
Correct for Detector Non-linearity: No (USB2+H05261)
Correct for Stray Light: No (USB2+H05261)
Number of Pixels in Processed Spectrum: 2048
>>>>>Begin Processed Spectral Data<<<<<
365.73	0.00
365.92	0.00
366.12	0.00
366.32	0.00
366.52	0.00
366.72	0.00
366.91	0.00
367.11	0.00
367.31	0.00
367.51	0.00
367.70	0.00
367.90	0.00
368.10	0.00
368.30	0.00
368.49	0.00
368.69	0.00
368.89	0.00
369.09	0.00
369.28	0.00
369.48	0.00
369.68	0.00
369.87	0.00
370.07	0.00
370.27	0.00
370.47	0.00
370.66	35.11
370.86	77.24
371.06	152.13
371.25	161.50
371.45	198.95
371.65	170.86
371.84	201.29
372.04	177.88
372.24	124.05
372.44	191.92
372.63	196.60
372.83	196.60
373.03	180.22
373.22	124.05
373.42	269.16
373.62	234.05
373.81	191.92
374.01	163.84
374.21	250.44
374.40	208.31
374.60	269.16
374.79	313.63
374.99	224.69
375.19	191.92
375.38	217.67
375.58	191.92
375.78	301.93
375.97	322.99
376.17	266.82
376.37	294.91
376.56	280.86
376.76	266.82
376.95	299.59
377.15	297.25
377.35	229.37
377.54	297.25
377.74	145.11
377.93	224.69
378.13	299.59
378.33	264.48
378.52	257.46
378.72	341.72
378.91	294.91
379.11	369.80
379.31	227.03
379.50	262.14
379.70	297.25
379.89	339.38
380.09	332.36
380.28	201.29
380.48	280.86
380.68	287.89
380.87	273.84
381.07	353.42
381.26	327.68
381.46	369.80
381.65	306.61
381.85	283.20
382.04	341.72
382.24	262.14
382.43	311.29
382.63	304.27
382.83	332.36
383.02	290.23
383.22	313.63
383.41	337.04
383.61	344.06
383.80	461.09
384.00	355.76
384.19	374.49
384.39	372.15
384.58	315.97
384.78	353.42
384.97	355.76
385.17	304.27
385.36	369.80
385.56	320.65
385.75	479.81
385.95	393.21
386.14	339.38
386.34	379.17
386.53	376.83
386.72	386.19
386.92	430.66
387.11	442.36
387.31	402.57
387.50	367.46
387.70	404.91
387.89	470.45
388.09	414.27
388.28	435.34
388.48	470.45
388.67	514.92
388.86	493.85
389.06	449.38
389.25	470.45
389.45	472.79
389.64	390.87
389.84	449.38
390.03	547.69
390.22	454.06
390.42	383.85
390.61	479.81
390.81	505.56
391.00	521.94
391.19	528.96
391.39	500.87
391.58	468.11
391.78	524.28
391.97	507.90
392.16	517.26
392.36	507.90
392.55	475.13
392.75	521.94
392.94	571.09
393.13	582.79
393.33	578.11
393.52	557.05
393.71	606.20
393.91	615.56
394.10	503.22
394.29	650.67
394.49	547.69
394.68	585.13
394.88	512.58
395.07	645.99
395.26	697.48
395.46	564.07
395.65	561.73
395.84	596.84
396.04	641.31
396.23	613.22
396.42	643.65
396.62	655.35
396.81	655.35
397.00	645.99
397.19	582.79
397.39	592.16
397.58	641.31
397.77	634.29
397.97	751.31
398.16	662.37
398.35	732.59
398.55	744.29
398.74	688.12
398.93	667.05
399.12	601.52
399.32	716.20
399.51	723.23
399.70	786.42
399.90	697.48
400.09	718.54
400.28	716.20
400.47	725.57
400.67	816.85
400.86	774.72
401.05	739.61
401.24	788.76
401.44	753.65
401.63	807.48
401.82	772.38
402.01	814.51
402.21	887.06
402.40	781.74
402.59	856.64
402.78	842.59
402.97	877.70
403.17	837.91
403.36	877.70
403.55	854.30
403.74	933.87
403.93	894.08
404.13	910.47
404.32	924.51
404.51	880.04
404.70	849.61
404.89	910.47
405.09	999.41
405.28	882.38
405.47	922.17
405.66	971.32
405.85	931.53
406.05	854.30
406.24	966.64
406.43	929.19
406.62	980.68
406.81	1050.90
407.00	940.90
407.20	992.39
407.39	1013.45
407.58	992.39
407.77	933.87
407.96	1078.99
408.15	1067.28
408.34	1086.01
408.54	1226.44
408.73	1032.18
408.92	1053.24
409.11	1111.75
409.30	1090.69
409.49	1107.07
409.68	1149.20
409.87	1135.16
410.07	1228.78
410.26	1231.12
410.45	1167.93
410.64	1149.20
410.83	1151.54
411.02	1242.82
411.21	1287.29
411.40	1233.46
411.59	1252.19
411.78	1235.80
411.98	1238.14
412.17	1249.85
412.36	1301.34
412.55	1427.73
412.74	1322.40
412.93	1291.98
413.12	1296.66
413.31	1474.54
413.50	1380.92
413.69	1425.39
413.88	1495.60
414.07	1430.07
414.26	1387.94
414.45	1446.45
414.64	1425.39
414.83	1561.14
415.02	1446.45
415.22	1462.83
415.41	1568.16
415.60	1570.50
415.79	1568.16
415.98	1591.56
416.17	1645.40
416.36	1657.10
416.55	1638.38
416.74	1572.84
416.93	1678.16
417.12	1703.91
417.31	1633.69
417.50	1736.68
417.69	1741.36
417.88	1732.00
418.07	1724.97
418.26	1722.63
418.45	1720.29
418.64	1788.17
418.83	1727.32
419.02	1722.63
419.21	1827.96
419.39	1806.89
419.58	1732.00
419.77	1736.68
419.96	1846.68
420.15	1844.34
420.34	1806.89
420.53	1926.26
420.72	1933.28
420.91	1963.71
421.10	1963.71
421.29	1879.45
421.48	1823.28
421.67	1966.05
421.86	1947.33
422.05	1881.79
422.24	1839.66
422.43	1963.71
422.61	1975.41
422.80	2076.06
422.99	1994.14
423.18	1984.77
423.37	1996.48
423.56	2024.56
423.75	1919.24
423.94	1982.43
424.13	1865.41
424.32	1844.34
424.50	2033.93
424.69	2033.93
424.88	2106.48
425.07	1994.14
425.26	2104.14
425.45	1961.37
425.64	2024.56
425.83	1933.28
426.01	2040.95
426.20	2125.21
426.39	2033.93
426.58	1980.09
426.77	2064.35
426.96	2085.42
427.15	2134.57
427.33	2120.53
427.52	2155.63
427.71	2122.87
427.90	2092.44
428.09	2115.84
428.28	2204.78
428.46	2204.78
428.65	2167.34
428.84	2277.34
429.03	2282.02
429.22	2165.00
429.40	2363.94
429.59	2324.15
429.78	2078.40
429.97	2139.25
430.16	2195.42
430.34	2356.92
430.53	2296.07
430.72	2352.24
430.91	2190.74
431.10	2305.43
431.28	2385.01
431.47	2359.26
431.66	2363.94
431.85	2284.36
432.03	2382.67
432.22	2490.33
432.41	2380.32
432.60	2431.82
432.79	2480.97
432.97	2495.01
433.16	2363.94
433.35	2422.45
433.54	2457.56
433.72	2499.69
433.91	2459.90
434.10	2616.72
434.28	2410.75
434.47	2504.37
434.66	2607.36
434.85	2612.04
435.03	2541.82
435.22	2576.93
435.41	2569.91
435.59	2635.44
435.78	2647.15
435.97	2689.28
436.16	2712.68
436.34	2635.44
436.53	2633.10
436.72	2792.26
436.90	2654.17
437.09	2623.74
437.28	2747.79
437.46	2787.58
437.65	2813.32
437.84	2785.24
438.02	2703.32
438.21	2862.48
438.40	2799.28
438.58	2808.64
438.77	2871.84
438.96	2766.51
439.14	2967.80
439.33	2913.97
439.52	2841.41
439.70	2888.22
439.89	2871.84
440.08	3042.70
440.26	2965.46
440.45	2939.71
440.63	2944.39
440.82	3012.27
441.01	3145.68
441.19	3190.15
441.38	3283.77
441.57	3185.47
441.75	3246.32
441.94	3253.34
442.12	3101.21
442.31	3386.76
442.50	3365.69
442.68	3386.76
442.87	3414.84
443.05	3293.13
443.24	3410.16
443.43	3332.92
443.61	3375.05
443.80	3318.88
443.98	3208.87
444.17	3258.03
444.35	3382.07
444.54	3527.19
444.73	3534.21
444.91	3358.67
445.10	3323.56
445.28	3311.86
445.47	3435.91
445.65	3414.84
445.84	3379.73
446.02	3506.12
446.21	3463.99
446.39	3384.41
446.58	3475.70
446.77	3520.17
446.95	3370.37
447.14	3442.93
447.32	3485.06
447.51	3461.65
447.69	3414.84
447.88	3445.27
448.06	3480.38
448.25	3501.44
448.43	3592.72
448.62	3538.89
448.80	3705.07
448.99	3566.98
449.17	3595.06
449.36	3606.77
449.54	3559.95
449.73	3679.32
449.91	3606.77
450.10	3665.28
450.28	3625.49
450.46	3665.28
450.65	3655.92
450.83	3737.84
451.02	3758.90
451.20	3716.77
451.39	3733.15
451.57	3735.50
451.76	3740.18
451.94	3735.50
452.13	3826.78
452.31	3953.16
452.49	3803.37
452.68	3943.80
452.86	3824.44
453.05	3857.20
453.23	4021.04
453.42	3922.74
453.60	3861.88
453.78	3880.61
453.97	3878.27
454.15	3808.05
454.34	3913.38
454.52	3932.10
454.70	4030.40
454.89	4100.62
455.07	4039.76
455.26	4049.13
455.44	4112.32
455.62	4098.28
455.81	4105.30
455.99	4205.94
456.17	4102.96
456.36	4046.79
456.54	3990.61
456.73	4138.07
456.91	4322.97
457.09	4332.33
457.28	4355.74
457.46	4135.73
457.64	4407.23
457.83	4449.36
458.01	4306.59
458.19	4421.27
458.38	4318.29
458.56	4353.40
458.74	4337.01
458.93	4278.50
459.11	4468.08
459.29	4507.87
459.48	4514.89
459.66	4423.61
459.84	4440.00
460.03	4554.68
460.21	4573.41
460.39	4442.34
460.57	4491.49
460.76	4348.72
460.94	4667.03
461.12	4636.60
461.31	4606.17
461.49	4594.47
461.67	4498.51
461.85	4732.56
462.04	4758.31
462.22	4840.23
462.40	4650.64
462.59	4643.62
462.77	4592.13
462.95	4760.65
463.13	4655.33
463.32	4816.82
463.50	4709.16
463.68	4765.33
463.86	4826.18
464.05	4798.10
464.23	4856.61
464.41	5107.05
464.59	4706.82
464.78	5032.15
464.96	4847.25
465.14	4865.97
465.32	4917.47
465.50	4915.12
465.69	5018.11
465.87	5034.49
466.05	4968.96
466.23	4947.89
466.41	5064.92
466.60	4975.98
466.78	5057.90
466.96	5050.88
467.14	4861.29
467.32	5071.94
467.51	5153.86
467.69	4884.70
467.87	5123.43
468.05	5078.96
468.23	5116.41
468.41	5095.35
468.60	5090.67
468.78	5186.63
468.96	5121.09
469.14	5184.29
469.32	5413.66
469.50	5266.21
469.69	5362.17
469.87	5476.85
470.05	5549.41
470.23	5221.74
470.41	5282.59
470.59	5408.98
470.77	5530.69
470.95	5502.60
471.14	5558.77
471.32	5355.15
471.50	5542.39
471.68	5547.07
471.86	5366.85
472.04	5603.24
472.22	5781.12
472.40	5741.33
472.58	5657.07
472.77	5682.82
472.95	5823.25
473.13	5774.10
473.31	5804.53
473.49	5687.50
473.67	5738.99
473.85	5673.46
474.03	5872.40
474.21	5930.92
474.39	5863.04
474.57	6066.67
474.75	6073.69
474.93	6120.50
475.12	6024.54
475.30	6197.74
475.48	6244.55
475.66	6176.67
475.84	6202.42
476.02	6282.00
476.20	6207.10
476.38	6279.66
476.56	6574.56
476.74	6597.97
476.92	6516.05
477.10	6462.22
477.28	6609.67
477.46	6654.14
477.64	6712.66
477.82	6829.68
478.00	6841.39
478.18	6864.79
478.36	6869.47
478.54	6977.14
478.72	7073.10
478.90	7157.36
479.08	7049.69
479.26	7213.53
479.44	7213.53
479.62	7250.98
479.80	7314.17
479.98	7452.27
480.16	7485.03
480.34	7470.99
480.52	7588.02
480.70	7761.22
480.88	7676.96
481.06	7550.57
481.24	7672.28
481.41	7669.94
481.59	7796.32
481.77	7943.78
481.95	7990.59
482.13	7925.05
482.31	8018.68
482.49	8189.53
482.67	8252.73
482.85	8313.58
483.03	8519.55
483.21	8374.44
483.39	8664.66
483.57	8510.19
483.74	8531.25
483.92	8690.41
484.10	8568.70
484.28	8858.93
484.46	8947.87
484.64	9163.20
484.82	8936.17
485.00	9029.79
485.18	9228.73
485.35	9444.06
485.53	9331.72
485.71	9415.98
485.89	9568.11
486.07	9675.77
486.25	9568.11
486.43	9872.38
486.61	9832.59
486.78	10029.20
486.96	9872.38
487.14	10171.97
487.32	9928.55
487.50	10104.09
487.68	10115.80
487.85	10101.75
488.03	10239.84
488.21	10415.38
488.39	10516.03
488.57	10441.13
488.75	10621.35
488.92	10724.33
489.10	10911.58
489.28	10679.86
489.46	11236.91
489.64	11105.84
489.81	11075.42
489.99	11171.38
490.17	11382.03
490.35	11389.05
490.53	11683.95
490.70	11555.22
490.88	11541.18
491.06	11674.59
491.24	11536.50
491.41	11616.08
491.59	11775.24
491.77	11896.94
491.95	11999.93
492.13	11899.28
492.30	12245.68
492.48	12091.21
492.66	12161.42
492.84	12482.08
493.01	12409.52
493.19	12400.16
493.37	12535.91
493.54	12695.07
493.72	12699.75
493.90	12982.95
494.08	13123.38
494.25	13247.43
494.43	12999.34
494.61	13245.09
494.79	13006.36
494.96	13413.61
495.14	13029.76
495.32	13420.63
495.49	13666.39
495.67	13717.88
495.85	13652.34
496.02	13631.28
496.20	13888.74
496.38	13769.37
496.55	13881.72
496.73	14122.79
496.91	14115.77
497.09	14256.20
497.26	14097.05
497.44	13998.74
497.62	13982.36
497.79	14757.08
497.97	14370.89
498.14	14773.46
498.32	14654.09
498.50	14780.48
498.67	14771.12
498.85	14878.79
499.03	14801.55
499.20	14890.49
499.38	14782.82
499.56	15211.14
499.73	15108.16
499.91	15145.61
500.08	15356.25
500.26	15089.43
500.44	15300.08
500.61	15337.53
500.79	15449.88
500.97	15517.75
501.14	16112.25
501.32	15709.68
501.49	15676.91
501.67	15632.44
501.84	15960.11
502.02	15702.65
502.20	15990.54
502.37	16182.46
502.55	16123.95
502.72	16095.86
502.90	16042.03
503.07	16013.95
503.25	16395.45
503.43	16159.06
503.60	16395.45
503.78	16435.24
503.95	16465.67
504.13	16390.77
504.30	16414.18
504.48	16458.65
504.65	16624.83
504.83	16753.55
505.01	16870.58
505.18	16980.59
505.36	17060.16
505.53	16994.63
505.71	16769.94
505.88	17106.98
506.06	16905.69
506.23	17219.32
506.41	17231.02
506.58	17490.82
506.76	17284.86
506.93	17570.40
507.11	16961.86
507.28	17444.01
507.46	17661.68
507.63	17682.75
507.81	17699.13
507.98	17600.83
508.16	17935.53
508.33	17825.52
508.50	17724.88
508.68	17813.82
508.85	17963.61
509.03	18314.69
509.20	18207.03
509.38	18478.53
509.55	18221.07
509.73	18127.45
509.90	18260.86
510.08	18480.87
510.25	18258.52
510.42	18387.25
510.60	18551.09
510.77	18604.92
510.95	18623.64
511.12	18642.37
511.30	18427.04
511.47	18625.98
511.64	18668.11
511.82	19112.81
511.99	18714.92
512.17	18956.00
512.34	19122.18
512.51	18890.46
512.69	19030.90
512.86	18965.36
513.04	19117.50
513.21	19021.53
513.38	19552.84
513.56	19183.03
513.73	19131.54
513.90	19300.06
514.08	19372.61
514.25	19543.47
514.43	19590.28
514.60	19459.21
514.77	19744.76
514.95	19630.07
515.12	19690.93
515.29	19922.64
515.47	19920.30
515.64	19836.04
515.81	19929.66
515.99	20240.95
516.16	20252.66
516.33	20280.74
516.51	20285.42
516.68	19990.52
516.85	20107.54
517.03	20112.22
517.20	20442.24
517.37	20746.51
517.54	20512.46
517.72	20489.05
517.89	20353.30
518.06	20252.66
518.24	20379.04
518.41	20819.07
518.58	20498.41
518.75	20666.93
518.93	20802.68
519.10	20699.70
519.27	20498.41
519.45	20772.25
519.62	21036.74
519.79	20467.98
519.96	20814.38
520.14	21291.85
520.31	21048.44
520.48	21291.85
520.65	21029.71
520.83	21495.48
521.00	21238.02
521.17	21280.15
521.34	21329.30
521.52	21525.91
521.69	21202.91
521.86	21298.88
522.03	21577.40
522.20	21638.25
522.38	21745.92
522.55	21404.20
522.72	21750.60
522.89	21832.52
523.07	21944.86
523.24	21809.11
523.41	21891.03
523.58	21837.20
523.75	22169.55
523.92	21795.07
524.10	21816.13
524.27	21916.78
524.44	22221.05
524.61	22298.28
524.78	22520.63
524.96	22111.04
525.13	22265.52
525.30	22405.95
525.47	22354.46
525.64	22366.16
525.81	22803.84
525.98	22892.78
526.16	23030.87
526.33	22810.86
526.50	22752.35
526.67	22338.07
526.84	22888.10
527.01	22616.60
527.18	22747.67
527.36	22628.30
527.53	22925.55
527.70	22972.36
527.87	23206.41
528.04	23122.15
528.21	22876.40
528.38	22918.53
528.55	22909.16
528.72	23159.60
528.89	23449.83
529.07	23201.73
529.24	23330.46
529.41	23637.07
529.58	23386.63
529.75	23278.97
529.92	23206.41
530.09	23599.62
530.26	23737.71
530.43	23733.03
530.60	23391.31
530.77	23702.61
530.94	23950.70
531.11	23800.91
531.28	23667.50
531.46	23576.22
531.63	23800.91
531.80	23796.23
531.97	23983.47
532.14	23931.98
532.31	23791.55
532.48	24020.92
532.65	24271.36
532.82	23594.94
532.99	24098.16
533.16	24025.60
533.33	24311.14
533.50	24507.75
533.67	24259.65
533.84	24411.79
534.01	24070.07
534.18	24173.05
534.35	24526.47
534.52	24182.42
534.69	24538.18
534.86	24769.89
535.03	24350.93
535.20	24737.12
535.37	24538.18
535.54	24428.17
535.71	23983.47
535.88	24276.04
536.05	24872.87
536.22	24683.29
536.38	24547.54
536.55	24842.45
536.72	24694.99
536.89	25010.96
537.06	24718.40
537.23	25048.41
537.40	24741.80
537.57	25060.12
537.74	24650.52
537.91	25163.10
538.08	24978.20
538.25	24861.17
538.42	25095.22
538.59	25298.85
538.75	24931.39
538.92	25144.38
539.09	25135.01
539.26	25376.09
539.43	25315.23
539.60	25120.97
539.77	25146.72
539.94	25450.99
540.11	25413.54
540.28	25600.78
540.44	25568.01
540.61	25186.50
540.78	25497.80
540.95	25458.01
541.12	25462.69
541.29	25490.77
541.46	25539.93
541.62	25671.00
541.79	25628.87
541.96	25415.88
542.13	25511.84
542.30	25851.22
542.47	25832.49
542.63	25741.21
542.80	25736.53
542.97	25776.32
543.14	26139.10
543.31	25996.33
543.48	25898.03
543.64	26136.76
543.81	26424.65
543.98	26539.33
544.15	26242.09
544.32	26579.12
544.48	26246.77
544.65	26569.76
544.82	26125.06
544.99	25993.99
545.16	26298.26
545.32	26541.68
545.49	26401.24
545.66	26506.57
545.83	26668.06
546.00	26761.69
546.16	26419.97
546.33	26457.42
546.50	26506.57
546.67	26426.99
546.83	26412.95
547.00	26742.96
547.17	26654.02
547.34	26941.91
547.50	27042.55
547.67	27016.80
547.84	27068.30
548.00	27035.53
548.17	27002.76
548.34	27016.80
548.51	26944.25
548.67	26948.93
548.84	26874.03
549.01	26852.97
549.18	27302.35
549.34	26831.90
549.51	27232.13
549.68	27190.00
549.84	27253.20
550.01	26944.25
550.18	27302.35
550.34	26911.48
550.51	27367.88
550.68	27358.52
550.84	27328.10
551.01	27522.36
551.18	27040.21
551.34	26871.69
551.51	27316.39
551.68	27353.84
551.84	27161.92
552.01	27314.05
552.18	27349.16
552.34	27718.96
552.51	27669.81
552.68	27400.65
552.84	27644.07
553.01	27522.36
553.18	27318.73
553.34	27913.23
553.51	27459.16
553.67	27875.78
553.84	28261.97
554.01	27974.08
554.17	28093.45
554.34	28100.47
554.51	27676.83
554.67	28163.67
554.84	27791.52
555.00	28116.86
555.17	27887.48
555.33	28098.13
555.50	27353.84
555.67	27985.79
555.83	27967.06
556.00	28371.97
556.16	28168.35
556.33	27798.54
556.50	27805.56
556.66	28329.84
556.83	28048.98
556.99	28425.81
557.16	28280.69
557.32	28116.86
557.49	28177.71
557.65	28219.84
557.82	28362.61
557.98	27924.93
558.15	28079.41
558.32	28421.13
558.48	28236.22
558.65	28245.58
558.81	28079.41
558.98	28542.83
559.14	27901.53
559.31	28294.74
559.47	28416.44
559.64	28393.04
559.80	28629.43
559.97	28444.53
560.13	28477.30
560.30	28849.44
560.46	28336.87
560.63	28900.94
560.79	28795.61
560.96	28861.15
561.12	28170.69
561.29	28458.57
561.45	28680.92
561.61	28472.62
561.78	28514.75
561.94	28542.83
562.11	28718.37
562.27	28922.00
562.44	28959.45
562.60	28414.10
562.77	28704.33
562.93	28844.76
563.10	28800.29
563.26	28641.14
563.42	28950.09
563.59	29008.60
563.75	28580.28
563.92	28966.47
564.08	28842.42
564.24	28985.19
564.41	28819.02
564.57	28910.30
564.74	28819.02
564.90	28910.30
565.07	28521.77
565.23	29029.66
565.39	29111.58
565.56	28936.04
565.72	28863.49
565.88	28446.87
566.05	29020.30
566.21	28795.61
566.38	28964.13
566.54	28912.64
566.70	28807.31
566.87	29413.51
567.03	29046.05
567.19	29252.02
567.36	29305.85
567.52	28943.06
567.68	28996.90
567.85	29083.50
568.01	29376.06
568.17	28910.30
568.34	29223.93
568.50	29359.68
568.66	29230.95
568.83	29237.97
568.99	29092.86
569.15	28907.96
569.32	28767.52
569.48	28875.19
569.64	29310.53
569.81	29364.36
569.97	29352.66
570.13	29528.20
570.30	29261.38
570.46	29340.96
570.62	29677.99
570.78	29252.02
570.95	29008.60
571.11	29827.79
571.27	29106.90
571.43	28753.48
571.60	29099.88
571.76	29247.33
571.92	29305.85
572.09	29233.29
572.25	29757.57
572.41	29415.85
572.57	29530.54
572.74	29338.62
572.90	28975.83
573.06	29357.34
573.22	29280.10
573.38	29589.05
573.55	29298.83
573.71	29656.93
573.87	29521.18
574.03	29572.67
574.20	29469.69
574.36	29333.93
574.52	29333.93
574.68	29282.44
574.84	29364.36
575.01	29570.33
575.17	29673.31
575.33	29390.11
575.49	28992.22
575.65	29097.54
575.82	29682.67
575.98	29500.11
576.14	29455.64
576.30	29376.06
576.46	29305.85
576.62	29607.78
576.79	29579.69
576.95	29469.69
577.11	29621.82
577.27	29577.35
577.43	29631.18
577.59	29528.20
577.75	29848.85
577.92	29446.28
578.08	29443.94
578.24	29378.40
578.40	29598.41
578.56	29799.70
578.72	29514.16
578.88	29825.45
579.04	29542.24
579.21	29670.97
579.37	29689.70
579.53	29656.93
579.69	29560.97
579.85	29450.96
580.01	29186.48
580.17	29277.76
580.33	29455.64
580.49	29888.64
580.65	29493.09
580.82	29687.36
580.98	29607.78
581.14	29916.73
581.30	29673.31
581.46	29488.41
581.62	29708.42
581.78	29364.36
581.94	29928.43
582.10	29013.28
582.26	29406.49
582.42	29364.36
582.58	29563.31
582.74	29570.33
582.90	30036.09
583.06	29710.76
583.22	29652.25
583.38	29717.78
583.54	29378.40
583.70	29883.96
583.86	29809.06
584.02	29673.31
584.18	29890.98
584.34	29837.15
584.50	29837.15
584.66	29982.26
584.82	29394.79
584.98	29535.22
585.14	29542.24
585.30	29507.13
585.46	29383.09
585.62	29605.44
585.78	29909.71
585.94	29345.64
586.10	29680.33
586.26	29954.18
586.42	30122.69
586.58	29675.65
586.74	29860.55
586.90	29743.53
587.06	29544.58
587.22	29523.52
587.38	29460.32
587.54	29942.47
587.70	30040.78
587.86	29914.39
588.02	29874.60
588.18	30363.77
588.34	29970.56
588.49	29570.33
588.65	29661.61
588.81	29675.65
588.97	30024.39
589.13	29804.38
589.29	29947.15
589.45	29780.98
589.61	30096.95
589.77	29741.19
589.93	29886.30
590.08	30010.35
590.24	30258.45
590.40	30146.10
590.56	29937.79
590.72	30132.06
590.88	29895.66
591.04	30115.67
591.20	30183.55
591.35	30211.64
591.51	30202.27
591.67	30506.54
591.83	30183.55
591.99	29926.09
