SpectraSuite Data File
++++++++++++++++++++++++++++++++++++
Date: Fri Oct 18 13:58:29 GMT-05:00 2013
User: bianchi
Dark Spectrum Present: No
Reference Spectrum Present: No
Number of Sampled Component Spectra: 1
Spectrometers: USB2+H05261
Integration Time (usec): 50000 (USB2+H05261)
Spectra Averaged: 1 (USB2+H05261)
Boxcar Smoothing: 0 (USB2+H05261)
Correct for Electrical Dark: No (USB2+H05261)
Strobe/Lamp Enabled: No (USB2+H05261)
Correct for Detector Non-linearity: No (USB2+H05261)
Correct for Stray Light: No (USB2+H05261)
Number of Pixels in Processed Spectrum: 2048
>>>>>Begin Processed Spectral Data<<<<<
365.73	0.00
365.92	0.00
366.12	0.00
366.32	0.00
366.52	0.00
366.72	0.00
366.91	0.00
367.11	0.00
367.31	0.00
367.51	0.00
367.70	0.00
367.90	0.00
368.10	0.00
368.30	0.00
368.49	0.00
368.69	0.00
368.89	0.00
369.09	0.00
369.28	0.00
369.48	0.00
369.68	0.00
369.87	0.00
370.07	0.00
370.27	0.00
370.47	0.00
370.66	77.24
370.86	110.01
371.06	147.45
371.25	145.11
371.45	124.05
371.65	170.86
371.84	110.01
372.04	131.07
372.24	107.66
372.44	210.65
372.63	170.86
372.83	196.60
373.03	175.54
373.22	133.41
373.42	227.03
373.62	187.24
373.81	189.58
374.01	177.88
374.21	217.67
374.40	142.77
374.60	262.14
374.79	332.36
374.99	227.03
375.19	189.58
375.38	191.92
375.58	212.99
375.78	250.44
375.97	243.42
376.17	273.84
376.37	250.44
376.56	238.73
376.76	250.44
376.95	243.42
377.15	245.76
377.35	227.03
377.54	269.16
377.74	287.89
377.93	287.89
378.13	276.18
378.33	318.31
378.52	313.63
378.72	306.61
378.91	292.57
379.11	271.50
379.31	313.63
379.50	287.89
379.70	294.91
379.89	318.31
380.09	283.20
380.28	271.50
380.48	271.50
380.68	294.91
380.87	292.57
381.07	264.48
381.26	348.74
381.46	367.46
381.65	341.72
381.85	276.18
382.04	353.42
382.24	332.36
382.43	255.12
382.63	348.74
382.83	341.72
383.02	320.65
383.22	369.80
383.41	330.02
383.61	404.91
383.80	327.68
384.00	372.15
384.19	337.04
384.39	404.91
384.58	351.08
384.78	320.65
384.97	379.17
385.17	351.08
385.36	397.89
385.56	374.49
385.75	365.12
385.95	395.55
386.14	376.83
386.34	395.55
386.53	369.80
386.72	435.34
386.92	383.85
387.11	411.93
387.31	390.87
387.50	456.40
387.70	395.55
387.89	367.46
388.09	367.46
388.28	428.32
388.48	416.62
388.67	390.87
388.86	404.91
389.06	444.70
389.25	449.38
389.45	423.64
389.64	526.62
389.84	531.30
390.03	475.13
390.22	475.13
390.42	479.81
390.61	554.71
390.81	578.11
391.00	533.64
391.19	519.60
391.39	521.94
391.58	519.60
391.78	479.81
391.97	465.77
392.16	528.96
392.36	603.86
392.55	531.30
392.75	482.15
392.94	482.15
393.13	519.60
393.33	629.60
393.52	531.30
393.71	613.22
393.91	566.41
394.10	503.22
394.29	594.50
394.49	617.90
394.68	624.92
394.88	545.34
395.07	653.01
395.26	543.00
395.46	685.78
395.65	568.75
395.84	580.45
396.04	603.86
396.23	587.47
396.42	624.92
396.62	622.58
396.81	550.03
397.00	648.33
397.19	662.37
397.39	636.63
397.58	681.10
397.77	704.50
397.97	681.10
398.16	685.78
398.35	704.50
398.55	662.37
398.74	695.14
398.93	704.50
399.12	622.58
399.32	631.94
399.51	645.99
399.70	713.86
399.90	660.03
400.09	751.31
400.28	854.30
400.47	739.61
400.67	720.88
400.86	781.74
401.05	709.18
401.24	746.63
401.44	812.17
401.63	751.31
401.82	777.06
402.01	840.25
402.21	861.32
402.40	819.19
402.59	873.02
402.78	819.19
402.97	819.19
403.17	793.44
403.36	760.67
403.55	830.89
403.74	943.24
403.93	786.42
404.13	826.21
404.32	821.53
404.51	924.51
404.70	931.53
404.89	992.39
405.09	924.51
405.28	898.77
405.47	973.66
405.66	966.64
405.85	964.30
406.05	980.68
406.24	940.90
406.43	1018.13
406.62	1086.01
406.81	1039.20
407.00	980.68
407.20	1020.47
407.39	1013.45
407.58	1107.07
407.77	987.71
407.96	1041.54
408.15	1151.54
408.34	994.73
408.54	1198.35
408.73	1097.71
408.92	1095.37
409.11	1196.01
409.30	1214.74
409.49	1158.57
409.68	1125.80
409.87	1086.01
410.07	1123.46
410.26	1203.04
410.45	1210.06
410.64	1177.29
410.83	1252.19
411.02	1170.27
411.21	1282.61
411.40	1242.82
411.59	1277.93
411.78	1200.69
411.98	1270.91
412.17	1317.72
412.36	1263.89
412.55	1352.83
412.74	1320.06
412.93	1268.57
413.12	1177.29
413.31	1451.13
413.50	1343.47
413.69	1387.94
413.88	1376.24
414.07	1317.72
414.26	1420.71
414.45	1348.15
414.64	1453.47
414.83	1490.92
415.02	1502.62
415.22	1479.22
415.41	1554.12
415.60	1600.93
415.79	1502.62
415.98	1528.37
416.17	1586.88
416.36	1502.62
416.55	1647.74
416.74	1591.56
416.93	1666.46
417.12	1621.99
417.31	1619.65
417.50	1689.87
417.69	1682.85
417.88	1727.32
418.07	1694.55
418.26	1837.32
418.45	1755.40
418.64	1776.47
418.83	1785.83
419.02	1724.97
419.21	1844.34
419.39	1788.17
419.58	1715.61
419.77	1741.36
419.96	1891.15
420.15	1865.41
420.34	1832.64
420.53	1905.20
420.72	1989.46
420.91	1851.36
421.10	1912.22
421.29	1891.15
421.48	1935.62
421.67	2008.18
421.86	1935.62
422.05	1879.45
422.24	1893.49
422.43	1881.79
422.61	1949.67
422.80	1966.05
422.99	1921.58
423.18	2010.52
423.37	1975.41
423.56	1970.73
423.75	2052.65
423.94	1893.49
424.13	1879.45
424.32	2001.16
424.50	2052.65
424.69	2078.40
424.88	2036.27
425.07	2015.20
425.26	1991.80
425.45	2115.84
425.64	2015.20
425.83	2141.59
426.01	2057.33
426.20	1996.48
426.39	1942.64
426.58	2005.84
426.77	2099.46
426.96	2026.90
427.15	2101.80
427.33	2047.97
427.52	2157.97
427.71	2012.86
427.90	2277.34
428.09	2036.27
428.28	2101.80
428.46	2127.55
428.65	2260.96
428.84	2172.02
429.03	2340.54
429.22	2176.70
429.40	2204.78
429.59	2326.49
429.78	2101.80
429.97	2193.08
430.16	2169.68
430.34	2253.94
430.53	2275.00
430.72	2202.44
430.91	2347.56
431.10	2286.70
431.28	2359.26
431.47	2305.43
431.66	2307.77
431.85	2305.43
432.03	2282.02
432.22	2469.27
432.41	2464.58
432.60	2562.89
432.79	2380.32
432.97	2324.15
433.16	2513.74
433.35	2518.42
433.54	2457.56
433.72	2480.97
433.91	2483.31
434.10	2415.43
434.28	2544.16
434.47	2548.84
434.66	2541.82
434.85	2562.89
435.03	2511.39
435.22	2523.10
435.41	2665.87
435.59	2597.99
435.78	2686.94
435.97	2640.12
436.16	2630.76
436.34	2532.46
436.53	2558.21
436.72	2752.47
436.90	2640.12
437.09	2745.45
437.28	2789.92
437.46	2691.62
437.65	2677.57
437.84	2771.19
438.02	2698.64
438.21	2679.91
438.40	2637.78
438.58	2785.24
438.77	3028.65
438.96	2832.05
439.14	2949.08
439.33	2888.22
439.52	2895.24
439.70	2958.44
439.89	3059.08
440.08	3030.99
440.26	3021.63
440.45	3014.61
440.63	3094.19
440.82	3047.38
441.01	3171.43
441.19	3091.85
441.38	3236.96
441.57	3260.37
441.75	3155.04
441.94	3288.45
442.12	3220.58
442.31	3283.77
442.50	3190.15
442.68	3206.53
442.87	3288.45
443.05	3353.99
443.24	3438.25
443.43	3356.33
443.61	3309.52
443.80	3515.48
443.98	3332.92
444.17	3302.50
444.35	3330.58
444.54	3428.88
444.73	3428.88
444.91	3506.12
445.10	3361.01
445.28	3447.61
445.47	3393.78
445.65	3353.99
445.84	3398.46
446.02	3552.93
446.21	3279.09
446.39	3398.46
446.58	3393.78
446.77	3501.44
446.95	3325.90
447.14	3524.85
447.32	3681.66
447.51	3552.93
447.69	3438.25
447.88	3494.42
448.06	3405.48
448.25	3461.65
448.43	3520.17
448.62	3517.83
448.80	3513.14
448.99	3527.19
449.17	3475.70
449.36	3566.98
449.54	3581.02
449.73	3613.79
449.91	3524.85
450.10	3583.36
450.28	3709.75
450.46	3805.71
450.65	3613.79
450.83	3667.62
451.02	3744.86
451.20	3758.90
451.39	3913.38
451.57	3712.09
451.76	3667.62
451.94	3740.18
452.13	3985.93
452.31	3843.16
452.49	3707.41
452.68	3784.65
452.86	3735.50
453.05	3840.82
453.23	3901.67
453.42	3747.20
453.60	3880.61
453.78	3920.40
453.97	3831.46
454.15	3953.16
454.34	3775.28
454.52	4201.26
454.70	3885.29
454.89	3983.59
455.07	3854.86
455.26	4002.32
455.44	4088.92
455.62	4072.53
455.81	4095.94
455.99	4039.76
456.17	4107.64
456.36	4131.05
456.54	3925.08
456.73	4203.60
456.91	4269.14
457.09	4243.39
457.28	4191.90
457.46	4205.94
457.64	4322.97
457.83	4236.37
458.01	4166.15
458.19	4255.09
458.38	4318.29
458.56	4477.44
458.74	4334.67
458.93	4386.16
459.11	4320.63
459.29	4477.44
459.48	4482.13
459.66	4287.86
459.84	4479.79
460.03	4603.83
460.21	4414.25
460.39	4461.06
460.57	4587.45
460.76	4526.60
460.94	4580.43
461.12	4638.94
461.31	4713.84
461.49	4550.00
461.67	4465.74
461.85	4753.63
462.04	4526.60
462.22	4784.06
462.40	4760.65
462.59	4854.27
462.77	4713.84
462.95	4664.69
463.13	4744.27
463.32	4856.61
463.50	4713.84
463.68	4699.80
463.86	4692.77
464.05	4887.04
464.23	4657.67
464.41	4758.31
464.59	4777.03
464.78	4880.02
464.96	4840.23
465.14	4903.42
465.32	4966.62
465.50	4882.36
465.69	4919.81
465.87	4947.89
466.05	4929.17
466.23	5111.73
466.41	4940.87
466.60	5081.30
466.78	5107.05
466.96	4997.04
467.14	4980.66
467.32	5050.88
467.51	5074.28
467.69	5205.35
467.87	4950.23
468.05	5226.42
468.23	5100.03
468.41	5057.90
468.60	5212.37
468.78	5144.50
468.96	5144.50
469.14	5174.92
469.32	5221.74
469.50	5064.92
469.69	5170.24
469.87	5406.64
470.05	5589.20
470.23	5418.34
470.41	5366.85
470.59	5572.82
470.77	5170.24
470.95	5378.55
471.14	5537.71
471.32	5488.56
471.50	5511.96
471.68	5488.56
471.86	5708.57
472.04	5526.00
472.22	5888.79
472.40	5331.74
472.58	5486.22
472.77	5692.18
472.95	5687.50
473.13	6040.92
473.31	5774.10
473.49	5741.33
473.67	5783.46
473.85	5816.23
474.03	5912.19
474.21	5919.21
474.39	6059.65
474.57	5954.32
474.75	6026.88
474.93	6214.12
475.12	5900.49
475.30	6193.06
475.48	6134.54
475.66	6139.23
475.84	6143.91
476.02	6249.23
476.20	6305.40
476.38	6406.05
476.56	6527.75
476.74	6586.27
476.92	6434.13
477.10	6616.69
477.28	6588.61
477.46	6387.32
477.64	6668.19
477.82	6614.35
478.00	6977.14
478.18	6923.30
478.36	6839.05
478.54	6927.99
478.72	6995.86
478.90	6860.11
479.08	7140.97
479.26	7300.13
479.44	7194.81
479.62	7375.03
479.80	7136.29
479.98	7171.40
480.16	7508.44
480.34	7559.93
480.52	7379.71
480.70	7552.91
480.88	7702.70
481.06	7382.05
481.24	7468.65
481.41	7609.08
481.59	7646.53
481.77	7812.71
481.95	7852.50
482.13	7815.05
482.31	7946.12
482.49	8194.22
482.67	8297.20
482.85	8147.40
483.03	8360.39
483.21	8489.12
483.39	8554.66
483.57	8489.12
483.74	8477.42
483.92	8638.92
484.10	8603.81
484.28	8891.70
484.46	8908.08
484.64	9015.74
484.82	8851.91
485.00	8837.86
485.18	9170.22
485.35	9383.21
485.53	9174.90
485.71	9217.03
485.89	9394.91
486.07	9486.19
486.25	9563.43
486.43	9462.79
486.61	9472.15
486.78	9734.29
486.96	9966.00
487.14	10094.73
487.32	9769.40
487.50	9956.64
487.68	10167.29
487.85	10146.22
488.03	10160.27
488.21	10633.05
488.39	10422.41
488.57	10785.19
488.75	10635.39
488.92	10995.84
489.10	10726.68
489.28	10689.23
489.46	11047.33
489.64	10768.80
489.81	11150.31
489.99	11040.31
490.17	11269.68
490.35	11487.35
490.53	11304.79
490.70	11571.61
490.88	11573.95
491.06	11592.67
491.24	11555.22
491.41	11667.57
491.59	11726.08
491.77	11693.32
491.95	11894.60
492.13	12020.99
492.30	12006.95
492.48	12163.76
492.66	12116.95
492.84	12084.19
493.01	12390.80
493.19	12388.46
493.37	12634.21
493.54	12578.04
493.72	12875.29
493.90	12723.15
494.08	12842.52
494.25	12877.63
494.43	13053.17
494.61	13034.44
494.79	13090.62
494.96	13069.55
495.14	13109.34
495.32	13422.97
495.49	13369.14
495.67	13575.11
495.85	13514.25
496.02	13673.41
496.20	13930.87
496.38	13994.06
496.55	13937.89
496.73	13752.99
496.91	13905.12
497.09	13848.95
497.26	14298.33
497.44	14054.92
497.62	14183.65
497.79	14310.04
497.97	14068.96
498.14	14457.49
498.32	14586.22
498.50	14593.24
498.67	14743.03
498.85	14504.30
499.03	14726.65
499.20	14895.17
499.38	14883.47
499.56	14895.17
499.73	15133.90
499.91	15325.83
500.08	15499.03
500.26	15227.53
500.44	15342.21
500.61	15534.14
500.79	15583.29
500.97	15559.88
501.14	15686.27
501.32	15630.10
501.49	15819.68
501.67	15653.50
501.84	16119.27
502.02	15875.85
502.20	15789.25
502.37	15913.30
502.55	16009.26
502.72	15882.88
502.90	16070.12
503.07	15936.71
503.25	16145.02
503.43	16128.63
503.60	16379.07
503.78	16582.70
503.95	16393.11
504.13	16215.23
504.30	16652.91
504.48	16400.13
504.65	16519.50
504.83	16505.46
505.01	16711.42
505.18	16622.48
505.36	16802.71
505.53	16767.60
505.71	16830.79
505.88	16891.65
506.06	16861.22
506.23	17130.38
506.41	17043.78
506.58	17027.40
506.76	17282.52
506.93	17156.13
507.11	17055.48
507.28	17247.41
507.46	17411.25
507.63	17341.03
507.81	17575.08
507.98	17343.37
508.16	17619.55
508.33	17818.50
508.50	17673.39
508.68	17813.82
508.85	17865.31
509.03	17905.10
509.20	18031.49
509.38	18312.35
509.55	18132.13
509.73	18235.11
509.90	17951.91
510.08	17785.73
510.25	18150.85
510.42	18565.13
510.60	18651.73
510.77	18420.02
510.95	18384.91
511.12	18576.83
511.30	18530.02
511.47	18551.09
511.64	18511.30
511.82	18939.62
511.99	18850.67
512.17	18988.77
512.34	18771.10
512.51	18864.72
512.69	18991.11
512.86	19007.49
513.04	19199.41
513.21	19147.92
513.38	19094.09
513.56	19023.87
513.73	19058.98
513.90	19335.17
514.08	19335.17
514.25	19356.23
514.43	19524.75
514.60	19707.31
514.77	19501.34
514.95	19606.67
515.12	19683.91
515.29	19419.42
515.47	19461.55
515.64	19744.76
515.81	19831.36
515.99	20215.21
516.16	20032.65
516.33	20004.56
516.51	20154.35
516.68	20231.59
516.85	20027.96
517.03	19868.81
517.20	20166.06
517.37	20285.42
517.54	20489.05
517.72	20320.53
517.89	20528.84
518.06	20449.26
518.24	20226.91
518.41	20460.96
518.58	20737.15
518.75	20383.73
518.93	20720.76
519.10	20931.41
519.27	20882.26
519.45	20872.90
519.62	20968.86
519.79	20718.42
519.96	20760.55
520.14	20758.21
520.31	21048.44
520.48	21043.76
520.65	20713.74
520.83	21228.66
521.00	21041.42
521.17	21195.89
521.34	21153.76
521.52	21521.23
521.69	21446.33
521.86	21563.36
522.03	21614.85
522.20	21558.67
522.38	21668.68
522.55	21727.19
522.72	21376.11
522.89	21451.01
523.07	21724.85
523.24	21930.82
523.41	22029.12
523.58	21853.58
523.75	22122.74
523.92	21577.40
524.10	21720.17
524.27	21949.54
524.44	21888.69
524.61	22267.86
524.78	22080.61
524.96	22146.15
525.13	22405.95
525.30	21900.39
525.47	22230.41
525.64	22345.09
525.81	22485.53
525.98	22431.69
526.16	22256.15
526.33	22324.03
526.50	22682.13
526.67	22487.87
526.84	22567.45
527.01	22405.95
527.18	22548.72
527.36	22658.73
527.53	22946.61
527.70	22691.49
527.87	23077.68
528.04	22998.10
528.21	23002.78
528.38	22955.97
528.55	22902.14
528.72	23077.68
528.89	23091.73
529.07	23257.90
529.24	23496.64
529.41	23007.47
529.58	22789.80
529.75	23049.60
529.92	23365.57
530.09	23260.24
530.26	23346.84
530.43	23250.88
530.60	23335.14
530.77	23246.20
530.94	23201.73
531.11	23152.58
531.28	23655.79
531.46	23372.59
531.63	23201.73
531.80	23508.34
531.97	23946.02
532.14	23896.87
532.31	23913.25
532.48	23630.05
532.65	23693.24
532.82	23421.74
532.99	23517.70
533.16	23931.98
533.33	24027.94
533.50	24044.32
533.67	24126.24
533.84	23957.72
534.01	24081.77
534.18	23894.53
534.35	24189.44
534.52	24065.39
534.69	24229.23
534.86	24191.78
535.03	23978.79
535.20	24013.90
535.37	24636.48
535.54	24390.72
535.71	24283.06
535.88	23967.09
536.05	24285.40
536.22	24489.03
536.38	24432.85
536.55	24718.40
536.72	24549.88
536.89	24629.46
537.06	24814.36
537.23	24737.12
537.40	24823.72
537.57	24812.02
537.74	24931.39
537.91	24950.11
538.08	25008.62
538.25	24685.63
538.42	24931.39
538.59	25135.01
538.75	24807.34
538.92	24912.66
539.09	25006.28
539.26	24896.28
539.43	25268.42
539.60	25418.22
539.77	25371.41
539.94	25748.23
540.11	25277.79
540.28	25532.90
540.44	25247.36
540.61	25001.60
540.78	25205.23
540.95	25099.90
541.12	25135.01
541.29	25249.70
541.46	25493.12
541.62	25088.20
541.79	25544.61
541.96	25364.39
542.13	25371.41
542.30	25741.21
542.47	25549.29
542.63	25710.78
542.80	25916.75
542.97	25706.10
543.14	25696.74
543.31	25869.94
543.48	25755.26
543.64	26230.38
543.81	26426.99
543.98	26333.37
544.15	25891.01
544.32	26401.24
544.48	26441.03
544.65	25713.13
544.82	25898.03
544.99	25949.52
545.16	26314.64
545.32	26160.17
545.49	26183.57
545.66	26829.56
545.83	26579.12
546.00	26333.37
546.16	26480.82
546.33	26551.04
546.50	25940.16
546.67	25993.99
546.83	26263.15
547.00	26478.48
547.17	26848.29
547.34	26803.82
547.50	26892.76
547.67	26342.73
547.84	26864.67
548.00	26546.36
548.17	26698.49
548.34	26834.24
548.51	26883.39
548.67	26878.71
548.84	26974.67
549.01	26899.78
549.18	27101.06
549.34	26616.57
549.51	26815.52
549.68	26689.13
549.84	26909.14
550.01	26869.35
550.18	27154.90
550.34	27051.91
550.51	26925.52
550.68	26958.29
550.84	26848.29
551.01	27201.71
551.18	27140.85
551.34	26836.58
551.51	27431.08
551.68	27101.06
551.84	27234.47
552.01	27374.91
552.18	27300.01
552.34	27290.65
552.51	27096.38
552.68	27248.52
552.84	27255.54
553.01	27522.36
553.18	27175.96
553.34	27688.54
553.51	27213.41
553.67	27620.66
553.84	28116.86
554.01	27405.33
554.17	27690.88
554.34	27206.39
554.51	27494.27
554.67	27522.36
554.84	27761.09
555.00	28018.55
555.17	28025.57
555.33	27866.42
555.50	27693.22
555.67	27594.92
555.83	27878.12
556.00	27866.42
556.16	28025.57
556.33	27864.08
556.50	27789.18
556.66	28046.64
556.83	27520.02
556.99	28161.33
557.16	28088.77
557.32	28320.48
557.49	28018.55
557.65	27725.99
557.82	27899.19
557.98	27791.52
558.15	28259.63
558.32	28278.35
558.48	27875.78
558.65	28182.39
558.81	28538.15
558.98	28283.03
559.14	28027.92
559.31	28769.86
559.47	28287.71
559.64	28048.98
559.80	28268.99
559.97	28308.78
560.13	28243.24
560.30	28493.68
560.46	28250.27
560.63	28407.08
560.79	28081.75
560.96	29085.84
561.12	28025.57
561.29	28166.01
561.45	27931.95
561.61	28629.43
561.78	28662.20
561.94	28753.48
562.11	28545.17
562.27	28510.07
562.44	28273.67
562.60	28383.68
562.77	28568.58
562.93	28498.36
563.10	28439.85
563.26	28247.93
563.42	29015.62
563.59	28439.85
563.75	28568.58
563.92	28692.63
564.08	28725.39
564.24	28648.16
564.41	28727.74
564.57	28872.85
564.74	28680.92
564.90	28795.61
565.07	28636.45
565.23	28577.94
565.39	29039.03
565.56	28554.54
565.72	28634.11
565.88	28905.62
566.05	28540.49
566.21	28823.70
566.38	28545.17
566.54	28606.03
566.70	28837.74
566.87	29273.08
567.03	28776.89
567.19	28954.77
567.36	29022.64
567.52	28603.69
567.68	29041.37
567.85	28606.03
568.01	28690.29
568.17	29193.50
568.34	29350.32
568.50	29001.58
568.66	29179.46
568.83	29106.90
568.99	28863.49
569.15	29212.23
569.32	28985.19
569.48	29076.48
569.64	29163.08
569.81	29191.16
569.97	28837.74
570.13	28821.36
570.30	29347.98
570.46	29127.97
570.62	28833.06
570.78	28870.51
570.95	29015.62
571.11	29170.10
571.27	29003.92
571.43	28765.18
571.60	29252.02
571.76	28919.66
571.92	29392.45
572.09	29289.46
572.25	29418.19
572.41	29022.64
572.57	29029.66
572.74	29319.89
572.90	29090.52
573.06	29266.06
573.22	29099.88
573.38	29315.21
573.55	29013.28
573.71	29109.24
573.87	29170.10
574.03	29425.22
574.20	29270.74
574.36	29001.58
574.52	29558.63
574.68	29340.96
574.84	29125.63
575.01	29495.43
575.17	29149.03
575.33	29266.06
575.49	29298.83
575.65	29205.20
575.82	29427.56
575.98	29270.74
576.14	29362.02
576.30	29228.61
576.46	29083.50
576.62	29347.98
576.79	29385.43
576.95	29436.92
577.11	29422.87
577.27	29163.08
577.43	29596.07
577.59	29230.95
577.75	29345.64
577.92	29198.18
578.08	29605.44
578.24	29528.20
578.40	29434.58
578.56	29572.67
578.72	29413.51
578.88	29809.06
579.04	29689.70
579.21	29127.97
579.37	29310.53
579.53	29518.84
579.69	29090.52
579.85	29230.95
580.01	29296.49
580.17	29130.31
580.33	29390.11
580.49	29259.04
580.65	29701.40
580.82	29399.47
580.98	29179.46
581.14	29619.48
581.30	29462.66
581.46	29453.30
581.62	29422.87
581.78	28978.17
581.94	29516.50
582.10	29509.47
582.26	29429.90
582.42	29462.66
582.58	29764.59
582.74	29542.24
582.90	29724.80
583.06	29467.34
583.22	29668.63
583.38	29586.71
583.54	29324.57
583.70	29621.82
583.86	29528.20
584.02	29144.35
584.18	29322.23
584.34	29743.53
584.50	29816.08
584.66	29181.80
584.82	29347.98
584.98	29383.09
585.14	29455.64
585.30	29413.51
585.46	29647.57
585.62	29282.44
585.78	29572.67
585.94	29149.03
586.10	29582.03
586.26	29633.52
586.42	29790.34
586.58	29612.46
586.74	29591.39
586.90	29593.73
587.06	29411.17
587.22	29303.51
587.38	29200.52
587.54	29610.12
587.70	29532.88
587.86	29476.71
588.02	29848.85
588.18	29970.56
588.34	29715.44
588.49	29546.92
588.65	29488.41
588.81	29411.17
588.97	29687.36
589.13	29490.75
589.29	29567.99
589.45	29652.25
589.61	29640.54
589.77	30316.96
589.93	30071.20
590.08	29867.58
590.24	29975.24
590.40	29567.99
590.56	29539.90
590.72	29661.61
590.88	29708.42
591.04	29729.48
591.20	30045.46
591.35	29954.18
591.51	30052.48
591.67	30026.73
591.83	30050.14
591.99	30096.95
