SpectraSuite Data File
++++++++++++++++++++++++++++++++++++
Date: Fri Oct 18 13:58:42 GMT-05:00 2013
User: bianchi
Dark Spectrum Present: No
Reference Spectrum Present: No
Number of Sampled Component Spectra: 1
Spectrometers: USB2+H05261
Integration Time (usec): 50000 (USB2+H05261)
Spectra Averaged: 1 (USB2+H05261)
Boxcar Smoothing: 0 (USB2+H05261)
Correct for Electrical Dark: No (USB2+H05261)
Strobe/Lamp Enabled: No (USB2+H05261)
Correct for Detector Non-linearity: No (USB2+H05261)
Correct for Stray Light: No (USB2+H05261)
Number of Pixels in Processed Spectrum: 2048
>>>>>Begin Processed Spectral Data<<<<<
365.73	0.00
365.92	0.00
366.12	0.00
366.32	0.00
366.52	0.00
366.72	0.00
366.91	0.00
367.11	0.00
367.31	0.00
367.51	0.00
367.70	0.00
367.90	0.00
368.10	0.00
368.30	0.00
368.49	0.00
368.69	0.00
368.89	0.00
369.09	0.00
369.28	0.00
369.48	0.00
369.68	0.00
369.87	0.00
370.07	0.00
370.27	0.00
370.47	0.00
370.66	72.56
370.86	79.58
371.06	126.39
371.25	131.07
371.45	152.13
371.65	175.54
371.84	74.90
372.04	208.31
372.24	189.58
372.44	166.18
372.63	191.92
372.83	255.12
373.03	205.97
373.22	198.95
373.42	231.71
373.62	205.97
373.81	269.16
374.01	234.05
374.21	285.55
374.40	262.14
374.60	304.27
374.79	285.55
374.99	196.60
375.19	234.05
375.38	222.35
375.58	236.39
375.78	318.31
375.97	266.82
376.17	325.33
376.37	222.35
376.56	227.03
376.76	290.23
376.95	252.78
377.15	285.55
377.35	229.37
377.54	285.55
377.74	217.67
377.93	348.74
378.13	208.31
378.33	278.52
378.52	304.27
378.72	299.59
378.91	285.55
379.11	313.63
379.31	276.18
379.50	285.55
379.70	400.23
379.89	358.10
380.09	360.44
380.28	257.46
380.48	285.55
380.68	257.46
380.87	304.27
381.07	306.61
381.26	372.15
381.46	322.99
381.65	236.39
381.85	276.18
382.04	294.91
382.24	388.53
382.43	360.44
382.63	315.97
382.83	381.51
383.02	337.04
383.22	383.85
383.41	353.42
383.61	330.02
383.80	423.64
384.00	313.63
384.19	447.04
384.39	381.51
384.58	390.87
384.78	348.74
384.97	447.04
385.17	393.21
385.36	402.57
385.56	409.59
385.75	374.49
385.95	386.19
386.14	423.64
386.34	430.66
386.53	409.59
386.72	383.85
386.92	411.93
387.11	470.45
387.31	477.47
387.50	489.17
387.70	404.91
387.89	447.04
388.09	414.27
388.28	500.87
388.48	402.57
388.67	437.68
388.86	468.11
389.06	430.66
389.25	475.13
389.45	463.43
389.64	409.59
389.84	589.82
390.03	468.11
390.22	543.00
390.42	456.40
390.61	512.58
390.81	535.98
391.00	496.19
391.19	482.15
391.39	533.64
391.58	470.45
391.78	613.22
391.97	449.38
392.16	461.09
392.36	496.19
392.55	519.60
392.75	617.90
392.94	622.58
393.13	521.94
393.33	559.39
393.52	566.41
393.71	566.41
393.91	566.41
394.10	566.41
394.29	580.45
394.49	587.47
394.68	622.58
394.88	634.29
395.07	589.82
395.26	692.80
395.46	601.52
395.65	631.94
395.84	706.84
396.04	751.31
396.23	624.92
396.42	674.07
396.62	662.37
396.81	725.57
397.00	636.63
397.19	674.07
397.39	688.12
397.58	709.18
397.77	643.65
397.97	634.29
398.16	608.54
398.35	713.86
398.55	699.82
398.74	737.27
398.93	667.05
399.12	702.16
399.32	669.39
399.51	753.65
399.70	716.20
399.90	688.12
400.09	786.42
400.28	784.08
400.47	739.61
400.67	739.61
400.86	861.32
401.05	828.55
401.24	784.08
401.44	870.68
401.63	753.65
401.82	786.42
402.01	704.50
402.21	844.93
402.40	798.12
402.59	837.91
402.78	837.91
402.97	786.42
403.17	784.08
403.36	795.78
403.55	732.59
403.74	823.87
403.93	929.19
404.13	905.79
404.32	938.55
404.51	908.13
404.70	884.72
404.89	887.06
405.09	938.55
405.28	938.55
405.47	950.26
405.66	994.73
405.85	940.90
406.05	945.58
406.24	983.02
406.43	933.87
406.62	987.71
406.81	959.62
407.00	1022.81
407.20	1055.58
407.39	1053.24
407.58	1013.45
407.77	1055.58
407.96	1071.97
408.15	1088.35
408.34	985.37
408.54	1081.33
408.73	1062.60
408.92	1046.22
409.11	1114.10
409.30	1130.48
409.49	1135.16
409.68	1165.59
409.87	1142.18
410.07	1083.67
410.26	1186.65
410.45	1086.01
410.64	1266.23
410.83	1247.51
411.02	1198.35
411.21	1299.00
411.40	1249.85
411.59	1263.89
411.78	1254.53
411.98	1266.23
412.17	1336.45
412.36	1256.87
412.55	1306.02
412.74	1308.36
412.93	1338.79
413.12	1416.02
413.31	1394.96
413.50	1310.70
413.69	1439.43
413.88	1437.09
414.07	1416.02
414.26	1404.32
414.45	1474.54
414.64	1451.13
414.83	1528.37
415.02	1448.79
415.22	1481.56
415.41	1523.69
415.60	1439.43
415.79	1533.05
415.98	1570.50
416.17	1558.80
416.36	1657.10
416.55	1624.33
416.74	1565.82
416.93	1671.14
417.12	1657.10
417.31	1682.85
417.50	1631.35
417.69	1671.14
417.88	1647.74
418.07	1636.03
418.26	1657.10
418.45	1586.88
418.64	1769.44
418.83	1811.57
419.02	1757.74
419.21	1806.89
419.39	1806.89
419.58	1760.08
419.77	1849.02
419.96	1823.28
420.15	1891.15
420.34	1867.75
420.53	1834.98
420.72	1912.22
420.91	1818.60
421.10	1954.35
421.29	1989.46
421.48	1870.09
421.67	1963.71
421.86	1942.64
422.05	1926.26
422.24	1893.49
422.43	1984.77
422.61	1994.14
422.80	2005.84
422.99	2001.16
423.18	1966.05
423.37	2001.16
423.56	2015.20
423.75	1947.33
423.94	1980.09
424.13	1905.20
424.32	1923.92
424.50	2080.74
424.69	2101.80
424.88	2139.25
425.07	2043.29
425.26	1912.22
425.45	2026.90
425.64	2050.31
425.83	2054.99
426.01	2087.76
426.20	1998.82
426.39	2059.67
426.58	2019.88
426.77	2019.88
426.96	2108.82
427.15	2036.27
427.33	2132.23
427.52	1940.30
427.71	2153.29
427.90	2204.78
428.09	2188.40
428.28	2139.25
428.46	2181.38
428.65	2195.42
428.84	2338.20
429.03	2172.02
429.22	2253.94
429.40	2183.72
429.59	2260.96
429.78	2169.68
429.97	2087.76
430.16	2216.49
430.34	2307.77
430.53	2263.30
430.72	2300.75
430.91	2345.22
431.10	2335.85
431.28	2267.98
431.47	2370.96
431.66	2427.14
431.85	2415.43
432.03	2443.52
432.22	2574.59
432.41	2431.82
432.60	2413.09
432.79	2326.49
432.97	2363.94
433.16	2387.35
433.35	2523.10
433.54	2499.69
433.72	2581.61
433.91	2534.80
434.10	2532.46
434.28	2438.84
434.47	2565.23
434.66	2427.14
434.85	2506.71
435.03	2708.00
435.22	2511.39
435.41	2733.75
435.59	2562.89
435.78	2740.77
435.97	2626.08
436.16	2590.97
436.34	2567.57
436.53	2626.08
436.72	2698.64
436.90	2656.51
437.09	2764.17
437.28	2555.86
437.46	2738.43
437.65	2689.28
437.84	2736.09
438.02	2771.19
438.21	2761.83
438.40	2771.19
438.58	2822.69
438.77	2815.66
438.96	2761.83
439.14	2787.58
439.33	2911.63
439.52	2979.50
439.70	2965.46
439.89	2918.65
440.08	3016.95
440.26	2963.12
440.45	2984.18
440.63	3059.08
440.82	2993.55
441.01	3131.64
441.19	3171.43
441.38	3201.85
441.57	3087.17
441.75	3204.19
441.94	3281.43
442.12	3215.90
442.31	3260.37
442.50	3243.98
442.68	3255.69
442.87	3290.79
443.05	3356.33
443.24	3314.20
443.43	3346.97
443.61	3328.24
443.80	3393.78
443.98	3328.24
444.17	3169.09
444.35	3541.23
444.54	3372.71
444.73	3438.25
444.91	3407.82
445.10	3419.52
445.28	3386.76
445.47	3382.07
445.65	3510.80
445.84	3370.37
446.02	3405.48
446.21	3412.50
446.39	3527.19
446.58	3527.19
446.77	3377.39
446.95	3492.08
447.14	3440.59
447.32	3606.77
447.51	3606.77
447.69	3527.19
447.88	3485.06
448.06	3482.72
448.25	3543.57
448.43	3583.36
448.62	3541.23
448.80	3473.36
448.99	3627.83
449.17	3541.23
449.36	3555.27
449.54	3803.37
449.73	3676.98
449.91	3719.11
450.10	3709.75
450.28	3904.01
450.46	3742.52
450.65	3735.50
450.83	3705.07
451.02	3700.39
451.20	3740.18
451.39	3777.62
451.57	3702.73
451.76	3758.90
451.94	3684.00
452.13	3845.50
452.31	3777.62
452.49	3782.31
452.68	3749.54
452.86	3728.47
453.05	3880.61
453.23	3943.80
453.42	3957.85
453.60	3908.69
453.78	3885.29
453.97	3744.86
454.15	3784.65
454.34	3953.16
454.52	4060.83
454.70	4072.53
454.89	4011.68
455.07	4084.23
455.26	4091.26
455.44	4121.68
455.62	4021.04
455.81	4065.51
455.99	4072.53
456.17	4046.79
456.36	4063.17
456.54	4145.09
456.73	4175.52
456.91	4294.88
457.09	4201.26
457.28	4294.88
457.46	4280.84
457.64	4327.65
457.83	4294.88
458.01	4273.82
458.19	4463.40
458.38	4280.84
458.56	4451.70
458.74	4528.94
458.93	4463.40
459.11	4416.59
459.29	4657.67
459.48	4519.57
459.66	4416.59
459.84	4409.57
460.03	4645.96
460.21	4517.23
460.39	4561.70
460.57	4528.94
460.76	4601.49
460.94	4524.26
461.12	4599.15
461.31	4702.14
461.49	4505.53
461.67	4505.53
461.85	4575.75
462.04	4648.30
462.22	4678.73
462.40	4816.82
462.59	4678.73
462.77	4762.99
462.95	4833.21
463.13	4760.65
463.32	4823.84
463.50	4854.27
463.68	4915.12
463.86	4889.38
464.05	4809.80
464.23	4781.71
464.41	4938.53
464.59	4830.87
464.78	5102.37
464.96	4887.04
465.14	4865.97
465.32	4964.28
465.50	5085.98
465.69	5013.43
465.87	4880.02
466.05	4936.19
466.23	4933.85
466.41	5013.43
466.60	5172.58
466.78	4983.00
466.96	4926.83
467.14	4851.93
467.32	5090.67
467.51	5034.49
467.69	4943.21
467.87	5093.01
468.05	5177.26
468.23	5036.83
468.41	5104.71
468.60	5174.92
468.78	5107.05
468.96	5163.22
469.14	5151.52
469.32	5200.67
469.50	5177.26
469.69	5320.04
469.87	5465.15
470.05	5205.35
470.23	5394.93
470.41	5228.76
470.59	5425.36
470.77	5427.70
470.95	5621.97
471.14	5284.93
471.32	5476.85
471.50	5659.42
471.68	5631.33
471.86	5603.24
472.04	5586.86
472.22	5755.38
472.40	5542.39
472.58	5748.36
472.77	5675.80
472.95	5687.50
473.13	5891.13
473.31	5930.92
473.49	5781.12
473.67	5715.59
473.85	5907.51
474.03	5954.32
474.21	6040.92
474.39	6164.97
474.57	6083.05
474.75	6153.27
474.93	6181.35
475.12	6099.44
475.30	6174.33
475.48	6153.27
475.66	6153.27
475.84	6277.32
476.02	6286.68
476.20	6155.61
476.38	6408.39
476.56	6392.00
476.74	6429.45
476.92	6356.90
477.10	6434.13
477.28	6527.75
477.46	6752.45
477.64	6703.29
477.82	6766.49
478.00	6902.24
478.18	7016.93
478.36	6820.32
478.54	6981.82
478.72	6942.03
478.90	7112.89
479.08	7155.02
479.26	7250.98
479.44	7342.26
479.62	7433.54
479.80	7412.48
479.98	7454.61
480.16	7414.82
480.34	7478.01
480.52	7620.78
480.70	7630.15
480.88	7634.83
481.06	7569.29
481.24	7667.60
481.41	7772.92
481.59	7847.82
481.77	7786.96
481.95	7929.74
482.13	7906.33
482.31	8072.51
482.49	8168.47
482.67	8154.43
482.85	8304.22
483.03	8454.02
483.21	8603.81
483.39	8421.25
483.57	8606.15
483.74	8777.01
483.92	8884.67
484.10	8547.64
484.28	8872.97
484.46	9018.08
484.64	9083.62
484.82	9071.92
485.00	8975.95
485.18	9298.95
485.35	9392.57
485.53	9186.60
485.71	9305.97
485.89	9394.91
486.07	9516.62
486.25	9472.15
486.43	9755.35
486.61	9734.29
486.78	9832.59
486.96	9909.83
487.14	10083.03
487.32	9902.81
487.50	10141.54
487.68	10015.15
487.85	10115.80
488.03	10485.60
488.21	10506.66
488.39	10274.95
488.57	10363.89
488.75	10569.86
488.92	10806.25
489.10	10773.49
489.28	11122.23
489.46	10932.64
489.64	10874.13
489.81	11255.64
489.99	11110.52
490.17	11358.62
490.35	11639.48
490.53	11323.51
490.70	11489.69
490.88	11688.64
491.06	11761.19
491.24	11363.30
491.41	11609.06
491.59	11602.04
491.77	11868.86
491.95	12114.61
492.13	11957.80
492.30	12329.94
492.48	12121.63
492.66	12325.26
492.84	12243.34
493.01	12306.54
493.19	12561.66
493.37	12533.57
493.54	12840.18
493.72	13067.21
493.90	12666.98
494.08	12952.52
494.25	13029.76
494.43	13081.25
494.61	13261.48
494.79	13205.30
494.96	13001.68
495.14	13315.31
495.32	13268.50
495.49	13441.70
495.67	13495.53
495.85	13631.28
496.02	13888.74
496.20	13645.32
496.38	13783.41
496.55	13912.14
496.73	14314.72
496.91	14033.85
497.09	14195.35
497.26	14307.69
497.44	14333.44
497.62	14162.58
497.79	14448.13
497.97	14317.06
498.14	14850.70
498.32	14747.72
498.50	14541.75
498.67	14991.13
498.85	14792.19
499.03	14853.04
499.20	14789.85
499.38	15192.42
499.56	15115.18
499.73	15300.08
499.91	15126.88
500.08	15594.99
500.26	15042.62
500.44	15435.83
500.61	15339.87
500.79	15351.57
500.97	15482.64
501.14	15943.73
501.32	15604.35
501.49	15800.96
501.67	15882.88
501.84	16004.58
502.02	15850.11
502.20	15992.88
502.37	16334.60
502.55	15985.86
502.72	16308.85
502.90	16126.29
503.07	16023.31
503.25	16002.24
503.43	16517.16
503.60	16407.16
503.78	16411.84
503.95	16599.08
504.13	16556.95
504.30	16596.74
504.48	16603.76
504.65	16648.23
504.83	16863.56
505.01	17006.33
505.18	17139.74
505.36	17074.21
505.53	16863.56
505.71	16697.38
505.88	17158.47
506.06	16858.88
506.23	17085.91
506.41	17219.32
506.58	17369.12
506.76	17090.59
506.93	17427.63
507.11	17146.76
507.28	17310.60
507.46	17561.04
507.63	17322.30
507.81	17832.54
507.98	17795.09
508.16	17535.29
508.33	17554.02
508.50	17916.80
508.68	17703.81
508.85	18078.30
509.03	17804.46
509.20	18113.41
509.38	18398.95
509.55	18420.02
509.73	18190.64
509.90	18352.14
510.08	18300.65
510.25	18267.88
510.42	18565.13
510.60	18520.66
510.77	18640.03
510.95	18670.45
511.12	18579.17
511.30	18562.79
511.47	18696.20
511.64	18630.66
511.82	18754.71
511.99	18740.67
512.17	19215.80
512.34	19103.45
512.51	19253.25
512.69	18946.64
512.86	19342.19
513.04	19339.85
513.21	19297.72
513.38	19232.18
513.56	19274.31
513.73	19440.49
513.90	19475.60
514.08	19503.68
514.25	19496.66
514.43	19927.32
514.60	19330.48
514.77	19740.08
514.95	19812.63
515.12	19639.44
515.29	19367.93
515.47	19908.60
515.64	20070.09
515.81	19915.62
515.99	19761.14
516.16	19953.07
516.33	20397.77
516.51	20418.83
516.68	20088.82
516.85	20194.14
517.03	20343.94
517.20	20552.24
517.37	20526.50
517.54	20475.01
517.72	20369.68
517.89	20308.83
518.06	20037.33
518.24	20615.44
518.41	20531.18
518.58	20315.85
518.75	20610.76
518.93	20648.21
519.10	20868.22
519.27	20945.45
519.45	20594.37
519.62	20840.13
519.79	20849.49
519.96	20702.04
520.14	21298.88
520.31	21003.97
520.48	21008.65
520.65	21076.52
520.83	21378.45
521.00	21221.64
521.17	21053.12
521.34	21198.23
521.52	21432.29
521.69	21539.95
521.86	21706.13
522.03	21596.12
522.20	21748.26
522.38	21755.28
522.55	21738.90
522.72	21713.15
522.89	21607.83
523.07	22036.14
523.24	21991.67
523.41	22497.23
523.58	21804.43
523.75	22031.46
523.92	21989.33
524.10	21935.50
524.27	22111.04
524.44	22462.12
524.61	22251.47
524.78	22476.16
524.96	22298.28
525.13	22141.47
525.30	22518.29
525.47	22288.92
525.64	22256.15
525.81	22766.39
525.98	22707.88
526.16	22558.08
526.33	22761.71
526.50	22895.12
526.67	22647.02
526.84	22595.53
527.01	22586.17
527.18	22834.27
527.36	22923.21
527.53	22986.40
527.70	23192.37
527.87	23108.11
528.04	23152.58
528.21	23044.91
528.38	22902.14
528.55	23264.92
528.72	23063.64
528.89	23302.37
529.07	23232.16
529.24	23344.50
529.41	23260.24
529.58	23363.23
529.75	23250.88
529.92	23370.25
530.09	23449.83
530.26	23520.04
530.43	23480.25
530.60	23484.94
530.77	23498.98
530.94	23487.28
531.11	23321.10
531.28	23868.78
531.46	23669.84
531.63	23950.70
531.80	24063.05
531.97	23740.05
532.14	24088.79
532.31	23990.49
532.48	23733.03
532.65	23873.46
532.82	23847.72
532.99	24135.60
533.16	24219.86
533.33	24467.96
533.50	24386.04
533.67	24538.18
533.84	24229.23
534.01	24245.61
534.18	24339.23
534.35	24348.59
534.52	24496.05
534.69	24727.76
534.86	24926.71
535.03	24329.87
535.20	24102.84
535.37	24254.97
535.54	24730.10
535.71	24425.83
535.88	24545.20
536.05	24790.95
536.22	24968.84
536.38	24968.84
536.55	25230.98
536.72	24786.27
536.89	24521.79
537.06	25104.59
537.23	24741.80
537.40	24716.06
537.57	24828.40
537.74	25212.25
537.91	25383.11
538.08	25076.50
538.25	24982.88
538.42	25170.12
538.59	25172.46
538.75	25069.48
538.92	25034.37
539.09	25050.75
539.26	25240.34
539.43	25123.31
539.60	25572.69
539.77	25436.94
539.94	25219.27
540.11	25593.76
540.28	25769.30
540.44	25568.01
540.61	25404.17
540.78	25474.39
540.95	25790.36
541.12	25472.05
541.29	25432.26
541.46	25631.21
541.62	25830.15
541.79	25790.36
541.96	25273.10
542.13	25656.95
542.30	25500.14
542.47	26061.87
542.63	25935.48
542.80	26174.21
542.97	26206.98
543.14	26338.05
543.31	26225.70
543.48	25951.86
543.64	26382.52
543.81	26118.04
543.98	26026.76
544.15	26548.70
544.32	26277.19
544.48	26480.82
544.65	26239.75
544.82	26438.69
544.99	26136.76
545.16	26312.30
545.32	26534.65
545.49	26771.05
545.66	26410.60
545.83	26693.81
546.00	27075.32
546.16	26857.65
546.33	26270.17
546.50	26263.15
546.67	26841.26
546.83	26867.01
547.00	26555.72
547.17	26948.93
547.34	26848.29
547.50	27358.52
547.67	26876.37
547.84	27098.72
548.00	27096.38
548.17	26974.67
548.34	26881.05
548.51	26967.65
548.67	27377.25
548.84	27150.21
549.01	27391.29
549.18	27026.17
549.34	26742.96
549.51	27407.67
549.68	27503.64
549.84	27026.17
550.01	27072.98
550.18	26717.22
550.34	27367.88
550.51	27487.25
550.68	27517.68
550.84	27054.25
551.01	27075.32
551.18	27309.37
551.34	26979.36
551.51	27080.00
551.68	27688.54
551.84	27344.48
552.01	27374.91
552.18	27613.64
552.34	27253.20
552.51	27646.41
552.68	27477.89
552.84	27599.60
553.01	27470.87
553.18	27637.05
553.34	27634.71
553.51	27793.86
553.67	27821.95
553.84	28320.48
554.01	27782.16
554.17	27733.01
554.34	27667.47
554.51	28170.69
554.67	28009.19
554.84	28009.19
555.00	28034.94
555.17	27489.59
555.33	28348.57
555.50	27915.57
555.67	28058.34
555.83	27941.32
556.00	28119.20
556.16	28098.13
556.33	28023.23
556.50	27978.76
556.66	28072.39
556.83	28535.81
556.99	28505.38
557.16	28261.97
557.32	28622.41
557.49	28474.96
557.65	28290.06
557.82	28191.75
557.98	28528.79
558.15	28070.04
558.32	28205.80
558.48	28079.41
558.65	28500.70
558.81	28510.07
558.98	28467.94
559.14	28409.42
559.31	28002.17
559.47	28395.38
559.64	28680.92
559.80	28636.45
559.97	28716.03
560.13	28683.27
560.30	28535.81
560.46	28744.12
560.63	28524.11
560.79	28528.79
560.96	28444.53
561.12	28528.79
561.29	28610.71
561.45	28734.76
561.61	28732.42
561.78	28898.59
561.94	28851.78
562.11	28758.16
562.27	28423.47
562.44	29022.64
562.60	28386.02
562.77	28730.08
562.93	28755.82
563.10	28481.98
563.26	28760.50
563.42	29081.16
563.59	28690.29
563.75	28456.23
563.92	28830.72
564.08	28678.58
564.24	28517.09
564.41	29078.82
564.57	28774.55
564.74	29034.35
564.90	29109.24
565.07	28746.46
565.23	28776.89
565.39	28961.79
565.56	29001.58
565.72	28877.53
565.88	29228.61
566.05	28933.70
566.21	28704.33
566.38	29130.31
566.54	29041.37
566.70	29254.36
566.87	28903.28
567.03	29214.57
567.19	29319.89
567.36	29453.30
567.52	29411.17
567.68	29043.71
567.85	29406.49
568.01	28940.72
568.17	29106.90
568.34	29479.05
568.50	29443.94
568.66	29113.92
568.83	29001.58
568.99	29165.42
569.15	29223.93
569.32	29097.54
569.48	29170.10
569.64	29720.12
569.81	29202.86
569.97	29111.58
570.13	29252.02
570.30	29369.04
570.46	29081.16
570.62	29329.25
570.78	28865.83
570.95	28973.49
571.11	29041.37
571.27	29132.65
571.43	29268.40
571.60	29624.16
571.76	29418.19
571.92	29415.85
572.09	29476.71
572.25	29575.01
572.41	29563.31
572.57	29324.57
572.74	29560.97
572.90	29174.78
573.06	29226.27
573.22	29249.67
573.38	29710.76
573.55	29212.23
573.71	29347.98
573.87	29390.11
574.03	29212.23
574.20	29312.87
574.36	29277.76
574.52	29034.35
574.68	29422.87
574.84	29560.97
575.01	29841.83
575.17	28973.49
575.33	29266.06
575.49	29275.42
575.65	29663.95
575.82	29862.90
575.98	29647.57
576.14	29378.40
576.30	29443.94
576.46	29762.25
576.62	29219.25
576.79	29474.37
576.95	29338.62
577.11	29397.13
577.27	29326.91
577.43	29509.47
577.59	29741.19
577.75	29404.15
577.92	29465.00
578.08	28936.04
578.24	29390.11
578.40	29373.72
578.56	29263.72
578.72	29607.78
578.88	29841.83
579.04	29928.43
579.21	29530.54
579.37	29755.23
579.53	29642.88
579.69	29223.93
579.85	29488.41
580.01	29399.47
580.17	29603.10
580.33	29734.17
580.49	29455.64
580.65	29682.67
580.82	29757.57
580.98	29890.98
581.14	29773.95
581.30	30031.41
581.46	29317.55
581.62	29769.27
581.78	29488.41
581.94	29642.88
582.10	29809.06
582.26	29626.50
582.42	29710.76
582.58	29659.27
582.74	29830.13
582.90	29355.00
583.06	30099.29
583.22	29687.36
583.38	29722.46
583.54	29497.77
583.70	29575.01
583.86	29876.94
584.02	29509.47
584.18	30040.78
584.34	29977.58
584.50	29933.11
584.66	29607.78
584.82	29514.16
584.98	29813.74
585.14	29820.77
585.30	29362.02
585.46	29537.56
585.62	29752.89
585.78	29820.77
585.94	29518.84
586.10	30059.50
586.26	29282.44
586.42	30204.61
586.58	29846.51
586.74	29474.37
586.90	29631.18
587.06	29851.19
587.22	29652.25
587.38	29722.46
587.54	30005.67
587.70	30073.54
587.86	30038.44
588.02	29830.13
588.18	30551.01
588.34	29923.75
588.49	29982.26
588.65	29727.14
588.81	29926.09
588.97	30089.93
589.13	29731.83
589.29	29764.59
589.45	29713.10
589.61	30085.25
589.77	30169.51
589.93	30167.16
590.08	30382.49
590.24	30239.72
590.40	29979.92
590.56	30288.87
590.72	29818.42
590.88	30171.85
591.04	30120.35
591.20	30494.84
591.35	30539.31
591.51	30331.00
591.67	30487.82
591.83	30008.01
591.99	30464.41
