SpectraSuite Data File
++++++++++++++++++++++++++++++++++++
Date: Fri Oct 18 13:58:28 GMT-05:00 2013
User: bianchi
Dark Spectrum Present: No
Reference Spectrum Present: No
Number of Sampled Component Spectra: 1
Spectrometers: USB2+H05261
Integration Time (usec): 50000 (USB2+H05261)
Spectra Averaged: 1 (USB2+H05261)
Boxcar Smoothing: 0 (USB2+H05261)
Correct for Electrical Dark: No (USB2+H05261)
Strobe/Lamp Enabled: No (USB2+H05261)
Correct for Detector Non-linearity: No (USB2+H05261)
Correct for Stray Light: No (USB2+H05261)
Number of Pixels in Processed Spectrum: 2048
>>>>>Begin Processed Spectral Data<<<<<
365.73	4.68
365.92	4.68
366.12	4.68
366.32	0.00
366.52	0.00
366.72	0.00
366.91	0.00
367.11	0.00
367.31	0.00
367.51	0.00
367.70	0.00
367.90	0.00
368.10	0.00
368.30	0.00
368.49	0.00
368.69	0.00
368.89	0.00
369.09	0.00
369.28	0.00
369.48	0.00
369.68	0.00
369.87	0.00
370.07	0.00
370.27	0.00
370.47	0.00
370.66	65.54
370.86	102.98
371.06	114.69
371.25	124.05
371.45	114.69
371.65	128.73
371.84	159.16
372.04	194.26
372.24	84.26
372.44	128.73
372.63	175.54
372.83	229.37
373.03	259.80
373.22	156.82
373.42	273.84
373.62	245.76
373.81	175.54
374.01	203.63
374.21	210.65
374.40	255.12
374.60	285.55
374.79	245.76
374.99	273.84
375.19	236.39
375.38	264.48
375.58	269.16
375.78	346.40
375.97	332.36
376.17	294.91
376.37	276.18
376.56	243.42
376.76	266.82
376.95	231.71
377.15	315.97
377.35	271.50
377.54	287.89
377.74	238.73
377.93	217.67
378.13	205.97
378.33	248.10
378.52	290.23
378.72	311.29
378.91	294.91
379.11	332.36
379.31	308.95
379.50	280.86
379.70	297.25
379.89	313.63
380.09	299.59
380.28	322.99
380.48	386.19
380.68	276.18
380.87	245.76
381.07	327.68
381.26	367.46
381.46	266.82
381.65	327.68
381.85	383.85
382.04	308.95
382.24	322.99
382.43	266.82
382.63	381.51
382.83	344.06
383.02	362.78
383.22	367.46
383.41	369.80
383.61	348.74
383.80	362.78
384.00	416.62
384.19	337.04
384.39	360.44
384.58	400.23
384.78	379.17
384.97	360.44
385.17	334.70
385.36	411.93
385.56	372.15
385.75	407.25
385.95	447.04
386.14	374.49
386.34	372.15
386.53	433.00
386.72	348.74
386.92	475.13
387.11	437.68
387.31	372.15
387.50	430.66
387.70	433.00
387.89	535.98
388.09	496.19
388.28	409.59
388.48	510.24
388.67	477.47
388.86	451.72
389.06	496.19
389.25	545.34
389.45	479.81
389.64	468.11
389.84	519.60
390.03	533.64
390.22	505.56
390.42	498.53
390.61	458.74
390.81	447.04
391.00	416.62
391.19	449.38
391.39	500.87
391.58	475.13
391.78	482.15
391.97	463.43
392.16	514.92
392.36	489.17
392.55	540.66
392.75	500.87
392.94	489.17
393.13	580.45
393.33	486.83
393.52	461.09
393.71	517.26
393.91	585.13
394.10	580.45
394.29	491.51
394.49	550.03
394.68	704.50
394.88	596.84
395.07	573.43
395.26	606.20
395.46	629.60
395.65	620.24
395.84	657.69
396.04	662.37
396.23	650.67
396.42	571.09
396.62	674.07
396.81	627.26
397.00	615.56
397.19	674.07
397.39	655.35
397.58	603.86
397.77	671.73
397.97	664.71
398.16	695.14
398.35	683.44
398.55	667.05
398.74	777.06
398.93	730.25
399.12	730.25
399.32	800.46
399.51	774.72
399.70	765.36
399.90	760.67
400.09	784.08
400.28	763.01
400.47	706.84
400.67	800.46
400.86	788.76
401.05	751.31
401.24	753.65
401.44	802.80
401.63	835.57
401.82	777.06
402.01	807.48
402.21	866.00
402.40	793.44
402.59	802.80
402.78	802.80
402.97	809.83
403.17	854.30
403.36	924.51
403.55	917.49
403.74	894.08
403.93	947.92
404.13	964.30
404.32	863.66
404.51	826.21
404.70	861.32
404.89	849.61
405.09	1027.50
405.28	940.90
405.47	992.39
405.66	961.96
405.85	1048.56
406.05	1006.43
406.24	1011.11
406.43	1011.11
406.62	1006.43
406.81	1111.75
407.00	947.92
407.20	912.81
407.39	945.58
407.58	1116.44
407.77	1118.78
407.96	1081.33
408.15	1102.39
408.34	1008.77
408.54	1032.18
408.73	1046.22
408.92	1039.20
409.11	1064.94
409.30	1151.54
409.49	1116.44
409.68	1097.71
409.87	1123.46
410.07	1224.10
410.26	1181.97
410.45	1212.40
410.64	1160.91
410.83	1247.51
411.02	1160.91
411.21	1268.57
411.40	1242.82
411.59	1317.72
411.78	1214.74
411.98	1179.63
412.17	1401.98
412.36	1352.83
412.55	1334.11
412.74	1390.28
412.93	1280.27
413.12	1289.64
413.31	1315.38
413.50	1411.34
413.69	1409.00
413.88	1425.39
414.07	1390.28
414.26	1430.07
414.45	1451.13
414.64	1430.07
414.83	1467.52
415.02	1451.13
415.22	1519.01
415.41	1507.30
415.60	1540.07
415.79	1509.65
415.98	1514.33
416.17	1544.75
416.36	1612.63
416.55	1605.61
416.74	1589.22
416.93	1664.12
417.12	1645.40
417.31	1783.49
417.50	1713.27
417.69	1748.38
417.88	1732.00
418.07	1605.61
418.26	1682.85
418.45	1832.64
418.64	1785.83
418.83	1834.98
419.02	1849.02
419.21	1790.51
419.39	1804.55
419.58	1778.81
419.77	1823.28
419.96	1898.17
420.15	1760.08
420.34	1813.92
420.53	1806.89
420.72	1853.70
420.91	1912.22
421.10	1867.75
421.29	1905.20
421.48	1987.11
421.67	1980.09
421.86	1994.14
422.05	1956.69
422.24	1935.62
422.43	1930.94
422.61	1928.60
422.80	2005.84
422.99	2029.24
423.18	2001.16
423.37	2012.86
423.56	2059.67
423.75	2045.63
423.94	1963.71
424.13	1874.77
424.32	1902.86
424.50	2050.31
424.69	1963.71
424.88	1996.48
425.07	2050.31
425.26	2008.18
425.45	2043.29
425.64	1956.69
425.83	2083.08
426.01	1959.03
426.20	2005.84
426.39	2015.20
426.58	2031.58
426.77	2101.80
426.96	2132.23
427.15	2200.10
427.33	2050.31
427.52	2097.12
427.71	2097.12
427.90	2200.10
428.09	2045.63
428.28	2211.81
428.46	2073.71
428.65	2172.02
428.84	2190.74
429.03	2258.62
429.22	2097.12
429.40	2157.97
429.59	2270.32
429.78	2120.53
429.97	2031.58
430.16	2122.87
430.34	2249.25
430.53	2284.36
430.72	2253.94
430.91	2289.04
431.10	2275.00
431.28	2377.98
431.47	2326.49
431.66	2401.39
431.85	2312.45
432.03	2399.05
432.22	2438.84
432.41	2480.97
432.60	2443.52
432.79	2382.67
432.97	2417.77
433.16	2415.43
433.35	2312.45
433.54	2429.48
433.72	2473.95
433.91	2544.16
434.10	2548.84
434.28	2480.97
434.47	2431.82
434.66	2445.86
434.85	2605.02
435.03	2635.44
435.22	2544.16
435.41	2637.78
435.59	2602.68
435.78	2656.51
435.97	2572.25
436.16	2551.18
436.34	2560.55
436.53	2628.42
436.72	2834.39
436.90	2539.48
437.09	2705.66
437.28	2738.43
437.46	2679.91
437.65	2672.89
437.84	2841.41
438.02	2843.75
438.21	2794.60
438.40	2722.04
438.58	2890.56
438.77	2796.94
438.96	2705.66
439.14	2890.56
439.33	2768.85
439.52	2965.46
439.70	3002.91
439.89	2935.03
440.08	2995.89
440.26	2953.76
440.45	3087.17
440.63	2925.67
440.82	3159.72
441.01	3194.83
441.19	3183.13
441.38	3192.49
441.57	3110.57
441.75	3220.58
441.94	3241.64
442.12	3180.79
442.31	3204.19
442.50	3302.50
442.68	3424.20
442.87	3379.73
443.05	3253.34
443.24	3403.14
443.43	3269.73
443.61	3356.33
443.80	3438.25
443.98	3283.77
444.17	3304.84
444.35	3346.97
444.54	3370.37
444.73	3332.92
444.91	3492.08
445.10	3506.12
445.28	3351.65
445.47	3452.29
445.65	3492.08
445.84	3527.19
446.02	3461.65
446.21	3412.50
446.39	3447.61
446.58	3459.31
446.77	3557.61
446.95	3307.18
447.14	3358.67
447.32	3550.59
447.51	3461.65
447.69	3456.97
447.88	3508.46
448.06	3578.68
448.25	3496.76
448.43	3426.54
448.62	3403.14
448.80	3667.62
448.99	3609.11
449.17	3595.06
449.36	3550.59
449.54	3639.53
449.73	3648.90
449.91	3630.17
450.10	3627.83
450.28	3782.31
450.46	3684.00
450.65	3691.02
450.83	3770.60
451.02	3735.50
451.20	3737.84
451.39	3864.22
451.57	3719.11
451.76	3665.28
451.94	3693.37
452.13	3866.56
452.31	3798.69
452.49	3880.61
452.68	3859.54
452.86	3875.93
453.05	3878.27
453.23	3854.86
453.42	3698.05
453.60	3794.01
453.78	3850.18
453.97	3887.63
454.15	3885.29
454.34	3962.53
454.52	3925.08
454.70	3927.42
454.89	3936.78
455.07	4079.55
455.26	3934.44
455.44	4121.68
455.62	4142.75
455.81	4070.19
455.99	4049.13
456.17	4187.22
456.36	4077.21
456.54	4236.37
456.73	4217.65
456.91	4344.03
457.09	4308.93
457.28	4395.53
457.46	4182.54
457.64	4311.27
457.83	4308.93
458.01	4227.01
458.19	4301.90
458.38	4271.48
458.56	4411.91
458.74	4468.08
458.93	4306.59
459.11	4308.93
459.29	4322.97
459.48	4351.06
459.66	4571.07
459.84	4587.45
460.03	4519.57
460.21	4550.00
460.39	4454.04
460.57	4414.25
460.76	4505.53
460.94	4652.98
461.12	4603.83
461.31	4489.15
461.49	4601.49
461.67	4652.98
461.85	4713.84
462.04	4711.50
462.22	4704.48
462.40	4753.63
462.59	4737.24
462.77	4844.91
462.95	4807.46
463.13	4842.57
463.32	4812.14
463.50	4755.97
463.68	4875.34
463.86	4748.95
464.05	4690.43
464.23	4861.29
464.41	4875.34
464.59	4772.35
464.78	4835.55
464.96	4912.78
465.14	4791.08
465.32	4917.47
465.50	5008.75
465.69	4929.17
465.87	4919.81
466.05	5071.94
466.23	4858.95
466.41	5011.09
466.60	5135.14
466.78	5020.45
466.96	4863.63
467.14	5018.11
467.32	5107.05
467.51	5184.29
467.69	4919.81
467.87	5090.67
468.05	5123.43
468.23	5160.88
468.41	5163.22
468.60	5125.77
468.78	5153.86
468.96	5240.46
469.14	5313.02
469.32	5242.80
469.50	5259.18
469.69	5242.80
469.87	5460.47
470.05	5430.04
470.23	5486.22
470.41	5411.32
470.59	5261.52
470.77	5294.29
470.95	5453.45
471.14	5455.79
471.32	5350.46
471.50	5565.79
471.68	5460.47
471.86	5788.14
472.04	5748.36
472.22	5860.70
472.40	5577.50
472.58	5671.12
472.77	5722.61
472.95	5827.93
473.13	6104.12
473.31	5727.29
473.49	5825.59
473.67	5940.28
473.85	5989.43
474.03	5795.17
474.21	5968.37
474.39	6129.86
474.57	6008.16
474.75	6136.88
474.93	6087.73
475.12	6061.99
475.30	6155.61
475.48	6136.88
475.66	6256.25
475.84	6183.70
476.02	6204.76
476.20	6324.13
476.38	6396.68
476.56	6462.22
476.74	6490.31
476.92	6450.52
477.10	6464.56
477.28	6492.65
477.46	6640.10
477.64	6813.30
477.82	6815.64
478.00	6780.53
478.18	6827.34
478.36	6932.67
478.54	7080.12
478.72	7136.29
478.90	7077.78
479.08	7068.42
479.26	7243.96
479.44	7162.04
479.62	7239.28
479.80	7260.34
479.98	7349.28
480.16	7559.93
480.34	7531.84
480.52	7644.19
480.70	7667.60
480.88	7569.29
481.06	7646.53
481.24	7695.68
481.41	7723.77
481.59	7859.52
481.77	7873.56
481.95	8053.78
482.13	7948.46
482.31	8173.15
482.49	8262.09
482.67	8367.42
482.85	8351.03
483.03	8381.46
483.21	8496.14
483.39	8461.04
483.57	8322.94
483.74	8468.06
483.92	8755.94
484.10	8730.20
484.28	8816.80
484.46	8908.08
484.64	8957.23
484.82	8741.90
485.00	9092.98
485.18	9172.56
485.35	9448.74
485.53	9308.31
485.71	9469.81
485.89	9437.04
486.07	9362.14
486.25	9657.05
486.43	9504.92
486.61	9558.75
486.78	9612.58
486.96	10045.58
487.14	10078.35
487.32	10022.17
487.50	10054.94
487.68	10230.48
487.85	10307.72
488.03	10572.20
488.21	10562.84
488.39	10597.95
488.57	10857.75
488.75	10801.57
488.92	10796.89
489.10	10733.70
489.28	11005.20
489.46	10944.34
489.64	10995.84
489.81	11253.30
489.99	11208.83
490.17	11140.95
490.35	11316.49
490.53	11328.19
490.70	11625.44
490.88	11377.34
491.06	11599.70
491.24	11777.58
491.41	11754.17
491.59	11854.81
491.77	12046.74
491.95	11943.75
492.13	12224.62
492.30	12168.45
492.48	12128.66
492.66	12311.22
492.84	12243.34
493.01	12470.37
493.19	12514.84
493.37	12641.23
493.54	12596.76
493.72	12676.34
493.90	13011.04
494.08	13034.44
494.25	12802.73
494.43	13111.68
494.61	13298.92
494.79	13385.52
494.96	13277.86
495.14	13385.52
495.32	13540.00
495.49	13633.62
495.67	13610.22
495.85	13848.95
496.02	13727.24
496.20	13792.78
496.38	13752.99
496.55	13874.70
496.73	14090.02
496.91	14019.81
497.09	14277.27
497.26	14139.18
497.44	14263.22
497.62	14609.62
497.79	14427.06
497.97	14148.54
498.14	14633.03
498.32	14916.23
498.50	14892.83
498.67	14937.30
498.85	14794.53
499.03	14984.11
499.20	15016.88
499.38	15161.99
499.56	15023.90
499.73	15051.99
499.91	15098.80
500.08	15307.10
500.26	15342.21
500.44	15288.38
500.61	15545.84
500.79	15325.83
500.97	15456.90
501.14	15758.83
501.32	15625.42
501.49	15543.50
501.67	15988.20
501.84	15829.04
502.02	15770.53
502.20	16105.23
502.37	16145.02
502.55	16135.65
502.72	16170.76
502.90	16280.77
503.07	15955.43
503.25	16177.78
503.43	16030.33
503.60	16360.34
503.78	16386.09
503.95	16315.87
504.13	16451.63
504.30	16814.41
504.48	16669.30
504.65	16360.34
504.83	16893.99
505.01	16739.51
505.18	16725.47
505.36	17074.21
505.53	16765.26
505.71	16931.44
505.88	17163.15
506.06	17242.73
506.23	17149.11
506.41	16996.97
506.58	17514.23
506.76	17460.40
506.93	17460.40
507.11	17413.59
507.28	17554.02
507.46	17841.90
507.63	17486.14
507.81	17673.39
507.98	17238.05
508.16	17682.75
508.33	17596.15
508.50	17680.41
508.68	17937.87
508.85	17996.38
509.03	18090.00
509.20	18361.50
509.38	18347.46
509.55	18260.86
509.73	17914.46
509.90	18302.99
510.08	18368.52
510.25	18228.09
510.42	18324.05
510.60	18530.02
510.77	18831.95
510.95	18567.47
511.12	18637.69
511.30	18750.03
511.47	18691.52
511.64	18691.52
511.82	18635.35
511.99	18822.59
512.17	19023.87
512.34	18843.65
512.51	19115.16
512.69	18883.44
512.86	19180.69
513.04	19522.41
513.21	19208.78
513.38	19339.85
513.56	19328.14
513.73	19215.80
513.90	19520.07
514.08	19246.23
514.25	19901.58
514.43	19859.45
514.60	19611.35
514.77	19477.94
514.95	19770.51
515.12	19934.34
515.29	19885.19
515.47	19871.15
515.64	20067.75
515.81	19733.06
515.99	20079.46
516.16	20133.29
516.33	19985.83
516.51	20285.42
516.68	20119.24
516.85	20063.07
517.03	20025.62
517.20	20563.95
517.37	20540.54
517.54	20601.40
517.72	20439.90
517.89	20505.43
518.06	20615.44
518.24	20503.09
518.41	20582.67
518.58	20673.95
518.75	20526.50
518.93	20606.08
519.10	20835.45
519.27	20945.45
519.45	20814.38
519.62	20961.84
519.79	20900.98
519.96	21088.23
520.14	21062.48
520.31	21472.07
520.48	21083.55
520.65	21081.21
520.83	21151.42
521.00	21472.07
521.17	21427.60
521.34	21640.59
521.52	21701.45
521.69	21441.65
521.86	21720.17
522.03	21605.49
522.20	21661.66
522.38	21802.09
522.55	21500.16
522.72	21909.75
522.89	21654.64
523.07	21713.15
523.24	21832.52
523.41	22094.66
523.58	21867.63
523.75	22569.79
523.92	22047.85
524.10	22040.82
524.27	22019.76
524.44	22197.64
524.61	22253.81
524.78	22370.84
524.96	22274.88
525.13	22331.05
525.30	22558.08
525.47	22352.12
525.64	22211.68
525.81	22405.95
525.98	22607.23
526.16	22932.57
526.33	22630.64
526.50	22464.46
526.67	22663.41
526.84	22693.83
527.01	22918.53
527.18	22560.42
527.36	22850.65
527.53	23047.26
527.70	22958.31
527.87	23171.30
528.04	22759.37
528.21	23349.18
528.38	22972.36
528.55	23065.98
528.72	23307.05
528.89	23243.86
529.07	23002.78
529.24	23442.81
529.41	23290.67
529.58	23597.28
529.75	23527.06
529.92	23644.09
530.09	23592.60
530.26	23543.45
530.43	23749.42
530.60	23555.15
530.77	23784.52
530.94	23557.49
531.11	23417.06
531.28	23655.79
531.46	23506.00
531.63	23585.58
531.80	23880.49
531.97	23796.23
532.14	23726.01
532.31	23812.61
532.48	24020.92
532.65	23784.52
532.82	24002.19
532.99	23887.51
533.16	23798.57
533.33	24254.97
533.50	24631.80
533.67	24276.04
533.84	23983.47
534.01	24266.67
534.18	24329.87
534.35	24383.70
534.52	24259.65
534.69	24308.80
534.86	25006.28
535.03	24280.72
535.20	24524.13
535.37	24767.55
535.54	24760.53
535.71	24332.21
535.88	24343.91
536.05	24641.16
536.22	24666.91
536.38	24727.76
536.55	24772.23
536.72	24903.30
536.89	24692.65
537.06	24769.89
537.23	25085.86
537.40	24884.58
537.57	24812.02
537.74	24690.31
537.91	25252.04
538.08	24989.90
538.25	24898.62
538.42	25109.27
538.59	25359.70
538.75	24790.95
538.92	25383.11
539.09	25401.83
539.26	25315.23
539.43	25467.37
539.60	25310.55
539.77	25333.96
539.94	25710.78
540.11	25043.73
540.28	25497.80
540.44	25294.17
540.61	25352.68
540.78	25383.11
540.95	25453.33
541.12	25289.49
541.29	25722.49
541.46	25888.67
541.62	25479.07
541.79	25678.02
541.96	25757.60
542.13	25348.00
542.30	25963.56
542.47	25675.68
542.63	26251.45
542.80	25982.29
542.97	26005.69
543.14	26127.40
543.31	26225.70
543.48	25905.05
543.64	26424.65
543.81	26057.18
543.98	26490.18
544.15	26359.11
544.32	26199.96
544.48	26817.86
544.65	26410.60
544.82	26321.66
544.99	26148.46
545.16	26515.93
545.32	26668.06
545.49	26511.25
545.66	26597.85
545.83	26534.65
546.00	26637.64
546.16	26394.22
546.33	26424.65
546.50	26302.94
546.67	26569.76
546.83	26506.57
547.00	26305.28
547.17	26728.92
547.34	26845.94
547.50	26834.24
547.67	26855.31
547.84	26813.18
548.00	26890.41
548.17	26934.88
548.34	27007.44
548.51	27110.43
548.67	27304.69
548.84	27047.23
549.01	26668.06
549.18	27030.85
549.34	27115.11
549.51	27108.08
549.68	27098.72
549.84	27035.53
550.01	27014.46
550.18	26927.86
550.34	27412.35
550.51	27711.94
550.68	27290.65
550.84	26902.12
551.01	27723.65
551.18	27232.13
551.34	26883.39
551.51	27267.24
551.68	27653.43
551.84	27449.80
552.01	27281.28
552.18	27466.19
552.34	27585.55
552.51	27704.92
552.68	27749.39
552.84	27646.41
553.01	27585.55
553.18	27035.53
553.34	27850.03
553.51	27896.85
553.67	27543.42
553.84	27941.32
554.01	28070.04
554.17	27718.96
554.34	27470.87
554.51	27772.80
554.67	27847.69
554.84	27665.13
555.00	27896.85
555.17	27915.57
555.33	27971.74
555.50	27978.76
555.67	27969.40
555.83	28034.94
556.00	27936.63
556.16	28013.87
556.33	27821.95
556.50	28254.95
556.66	28498.36
556.83	28041.96
556.99	28725.39
557.16	28357.93
557.32	28332.18
557.49	28533.47
557.65	28346.23
557.82	28341.55
557.98	28098.13
558.15	28343.89
558.32	28430.49
558.48	28229.20
558.65	28343.89
558.81	28421.13
558.98	28287.71
559.14	28561.56
559.31	28444.53
559.47	28161.33
559.64	28496.02
559.80	28559.22
559.97	28790.93
560.13	28540.49
560.30	28304.10
560.46	28472.62
560.63	28638.80
560.79	28826.04
560.96	28678.58
561.12	28439.85
561.29	28226.86
561.45	28535.81
561.61	28526.45
561.78	28727.74
561.94	28987.53
562.11	28678.58
562.27	28624.75
562.44	28325.16
562.60	28765.18
562.77	28985.19
562.93	28561.56
563.10	29013.28
563.26	28795.61
563.42	29020.30
563.59	29048.39
563.75	28652.84
563.92	28950.09
564.08	28533.47
564.24	28879.87
564.41	28744.12
564.57	28804.97
564.74	28889.23
564.90	28999.24
565.07	28868.17
565.23	28940.72
565.39	29017.96
565.56	29359.68
565.72	29249.67
565.88	28830.72
566.05	28811.99
566.21	28856.46
566.38	28599.01
566.54	29226.27
566.70	28961.79
566.87	29095.20
567.03	29156.05
567.19	29495.43
567.36	28996.90
567.52	29043.71
567.68	29347.98
567.85	29069.45
568.01	28896.25
568.17	29123.29
568.34	29188.82
568.50	29085.84
568.66	29223.93
568.83	29207.55
568.99	29081.16
569.15	29184.14
569.32	28872.85
569.48	29163.08
569.64	29465.00
569.81	29127.97
569.97	28746.46
570.13	29511.81
570.30	29001.58
570.46	29411.17
570.62	29479.05
570.78	29383.09
570.95	29291.80
571.11	29429.90
571.27	29022.64
571.43	29242.65
571.60	29483.73
571.76	29720.12
571.92	29687.36
572.09	29001.58
572.25	29172.44
572.41	29312.87
572.57	29460.32
572.74	29666.29
572.90	29050.73
573.06	29282.44
573.22	29530.54
573.38	29064.77
573.55	29380.74
573.71	29862.90
573.87	29549.26
574.03	29397.13
574.20	29359.68
574.36	29390.11
574.52	29308.19
574.68	29359.68
574.84	29460.32
575.01	29457.98
575.17	29577.35
575.33	29104.56
575.49	29017.96
575.65	30073.54
575.82	29673.31
575.98	29586.71
576.14	29514.16
576.30	29336.27
576.46	29355.00
576.62	29680.33
576.79	29514.16
576.95	29635.86
577.11	29502.45
577.27	29380.74
577.43	29617.14
577.59	29378.40
577.75	29565.65
577.92	29273.08
578.08	29036.69
578.24	29591.39
578.40	29797.36
578.56	29673.31
578.72	29565.65
578.88	29497.77
579.04	30298.23
579.21	29525.86
579.37	29558.63
579.53	29668.63
579.69	29259.04
579.85	29326.91
580.01	29406.49
580.17	29743.53
580.33	29584.37
580.49	29979.92
580.65	29614.80
580.82	30113.33
580.98	29853.53
581.14	29556.28
581.30	29418.19
581.46	29340.96
581.62	29465.00
581.78	29537.56
581.94	29886.30
582.10	29720.12
582.26	29441.60
582.42	29951.84
582.58	29780.98
582.74	29614.80
582.90	29656.93
583.06	29813.74
583.22	29624.16
583.38	29624.16
583.54	29575.01
583.70	29619.48
583.86	29883.96
584.02	29682.67
584.18	29912.05
584.34	29586.71
584.50	29703.74
584.66	29565.65
584.82	29472.03
584.98	29476.71
585.14	29755.23
585.30	29628.84
585.46	29598.41
585.62	29617.14
585.78	29780.98
585.94	29357.34
586.10	30263.13
586.26	29762.25
586.42	29963.54
586.58	29780.98
586.74	29645.23
586.90	29481.39
587.06	29825.45
587.22	29759.91
587.38	29834.81
587.54	29940.13
587.70	30164.82
587.86	30270.15
588.02	30155.46
588.18	29930.77
588.34	29893.32
588.49	29764.59
588.65	29928.43
588.81	29694.38
588.97	29874.60
589.13	29790.34
589.29	29830.13
589.45	30047.80
589.61	29933.11
589.77	30291.21
589.93	29853.53
590.08	30394.20
590.24	29879.28
590.40	29977.58
590.56	29993.97
590.72	29879.28
590.88	29579.69
591.04	30216.32
591.20	29954.18
591.35	30059.50
591.51	29780.98
591.67	30129.72
591.83	30450.37
591.99	30293.55
