SpectraSuite Data File
++++++++++++++++++++++++++++++++++++
Date: Fri Oct 18 13:58:27 GMT-05:00 2013
User: bianchi
Dark Spectrum Present: No
Reference Spectrum Present: No
Number of Sampled Component Spectra: 1
Spectrometers: USB2+H05261
Integration Time (usec): 50000 (USB2+H05261)
Spectra Averaged: 1 (USB2+H05261)
Boxcar Smoothing: 0 (USB2+H05261)
Correct for Electrical Dark: No (USB2+H05261)
Strobe/Lamp Enabled: No (USB2+H05261)
Correct for Detector Non-linearity: No (USB2+H05261)
Correct for Stray Light: No (USB2+H05261)
Number of Pixels in Processed Spectrum: 2048
>>>>>Begin Processed Spectral Data<<<<<
365.73	0.00
365.92	0.00
366.12	0.00
366.32	0.00
366.52	0.00
366.72	0.00
366.91	0.00
367.11	0.00
367.31	0.00
367.51	0.00
367.70	0.00
367.90	0.00
368.10	0.00
368.30	0.00
368.49	0.00
368.69	0.00
368.89	0.00
369.09	0.00
369.28	0.00
369.48	0.00
369.68	0.00
369.87	0.00
370.07	0.00
370.27	0.00
370.47	0.00
370.66	112.35
370.86	60.85
371.06	91.28
371.25	184.90
371.45	110.01
371.65	180.22
371.84	198.95
372.04	63.19
372.24	189.58
372.44	159.16
372.63	210.65
372.83	215.33
373.03	283.20
373.22	205.97
373.42	196.60
373.62	231.71
373.81	273.84
374.01	238.73
374.21	285.55
374.40	224.69
374.60	330.02
374.79	266.82
374.99	191.92
375.19	271.50
375.38	231.71
375.58	262.14
375.78	301.93
375.97	255.12
376.17	238.73
376.37	210.65
376.56	203.63
376.76	257.46
376.95	168.52
377.15	234.05
377.35	245.76
377.54	210.65
377.74	243.42
377.93	168.52
378.13	285.55
378.33	320.65
378.52	259.80
378.72	355.76
378.91	344.06
379.11	318.31
379.31	283.20
379.50	301.93
379.70	330.02
379.89	348.74
380.09	332.36
380.28	252.78
380.48	297.25
380.68	353.42
380.87	248.10
381.07	322.99
381.26	341.72
381.46	386.19
381.65	346.40
381.85	269.16
382.04	301.93
382.24	386.19
382.43	369.80
382.63	344.06
382.83	379.17
383.02	344.06
383.22	332.36
383.41	308.95
383.61	346.40
383.80	397.89
384.00	355.76
384.19	416.62
384.39	325.33
384.58	456.40
384.78	409.59
384.97	397.89
385.17	393.21
385.36	442.36
385.56	425.98
385.75	421.30
385.95	379.17
386.14	351.08
386.34	353.42
386.53	418.96
386.72	351.08
386.92	449.38
387.11	362.78
387.31	390.87
387.50	337.04
387.70	440.02
387.89	308.95
388.09	454.06
388.28	383.85
388.48	421.30
388.67	388.53
388.86	390.87
389.06	442.36
389.25	489.17
389.45	543.00
389.64	496.19
389.84	442.36
390.03	503.22
390.22	500.87
390.42	489.17
390.61	433.00
390.81	472.79
391.00	538.32
391.19	540.66
391.39	479.81
391.58	510.24
391.78	479.81
391.97	571.09
392.16	421.30
392.36	519.60
392.55	507.90
392.75	500.87
392.94	599.18
393.13	557.05
393.33	463.43
393.52	526.62
393.71	664.71
393.91	547.69
394.10	545.34
394.29	552.37
394.49	519.60
394.68	564.07
394.88	697.48
395.07	592.16
395.26	603.86
395.46	559.39
395.65	650.67
395.84	587.47
396.04	664.71
396.23	723.23
396.42	655.35
396.62	674.07
396.81	695.14
397.00	716.20
397.19	603.86
397.39	631.94
397.58	667.05
397.77	636.63
397.97	697.48
398.16	662.37
398.35	688.12
398.55	627.26
398.74	690.46
398.93	697.48
399.12	676.41
399.32	760.67
399.51	798.12
399.70	697.48
399.90	678.76
400.09	795.78
400.28	718.54
400.47	753.65
400.67	709.18
400.86	774.72
401.05	779.40
401.24	837.91
401.44	739.61
401.63	758.33
401.82	748.97
402.01	748.97
402.21	748.97
402.40	791.10
402.59	823.87
402.78	802.80
402.97	842.59
403.17	786.42
403.36	774.72
403.55	840.25
403.74	898.77
403.93	952.60
404.13	943.24
404.32	936.21
404.51	915.15
404.70	917.49
404.89	926.85
405.09	1015.79
405.28	957.28
405.47	1034.52
405.66	1004.09
405.85	964.30
406.05	994.73
406.24	933.87
406.43	1069.62
406.62	966.64
406.81	1039.20
407.00	1062.60
407.20	983.02
407.39	999.41
407.58	917.49
407.77	1069.62
407.96	1121.12
408.15	1102.39
408.34	1057.92
408.54	1102.39
408.73	1123.46
408.92	1062.60
409.11	1111.75
409.30	1144.52
409.49	1123.46
409.68	1196.01
409.87	1078.99
410.07	1128.14
410.26	1116.44
410.45	1125.80
410.64	1158.57
410.83	1160.91
411.02	1291.98
411.21	1259.21
411.40	1158.57
411.59	1317.72
411.78	1331.76
411.98	1249.85
412.17	1385.60
412.36	1228.78
412.55	1261.55
412.74	1320.06
412.93	1324.74
413.12	1256.87
413.31	1310.70
413.50	1401.98
413.69	1439.43
413.88	1425.39
414.07	1486.24
414.26	1373.89
414.45	1460.49
414.64	1392.62
414.83	1507.30
415.02	1420.71
415.22	1551.78
415.41	1577.52
415.60	1561.14
415.79	1554.12
415.98	1523.69
416.17	1563.48
416.36	1504.96
416.55	1593.90
416.74	1626.67
416.93	1591.56
417.12	1547.09
417.31	1685.19
417.50	1685.19
417.69	1678.16
417.88	1647.74
418.07	1661.78
418.26	1795.19
418.45	1827.96
418.64	1872.43
418.83	1741.36
419.02	1813.92
419.21	1818.60
419.39	1755.40
419.58	1820.94
419.77	1727.32
419.96	1830.30
420.15	1816.26
420.34	1827.96
420.53	1853.70
420.72	2001.16
420.91	1804.55
421.10	1762.42
421.29	2022.22
421.48	1898.17
421.67	1905.20
421.86	1909.88
422.05	1989.46
422.24	1937.96
422.43	1949.67
422.61	1888.81
422.80	2047.97
422.99	1919.24
423.18	2054.99
423.37	1994.14
423.56	2015.20
423.75	2012.86
423.94	2010.52
424.13	1839.66
424.32	1937.96
424.50	2087.76
424.69	2036.27
424.88	1975.41
425.07	2085.42
425.26	1944.99
425.45	2010.52
425.64	2043.29
425.83	2047.97
426.01	2015.20
426.20	2047.97
426.39	2090.10
426.58	2054.99
426.77	1998.82
426.96	2132.23
427.15	2094.78
427.33	2115.84
427.52	2165.00
427.71	2090.10
427.90	2193.08
428.09	2160.31
428.28	2033.93
428.46	2160.31
428.65	2200.10
428.84	2202.44
429.03	2237.55
429.22	2148.61
429.40	2188.40
429.59	2200.10
429.78	2134.57
429.97	2113.50
430.16	2139.25
430.34	2256.28
430.53	2361.60
430.72	2361.60
430.91	2214.15
431.10	2186.06
431.28	2445.86
431.47	2417.77
431.66	2263.30
431.85	2347.56
432.03	2424.80
432.22	2513.74
432.41	2331.17
432.60	2560.55
432.79	2462.24
432.97	2457.56
433.16	2410.75
433.35	2462.24
433.54	2382.67
433.72	2502.03
433.91	2464.58
434.10	2527.78
434.28	2562.89
434.47	2495.01
434.66	2614.38
434.85	2656.51
435.03	2574.59
435.22	2600.34
435.41	2703.32
435.59	2621.40
435.78	2677.57
435.97	2569.91
436.16	2801.62
436.34	2651.83
436.53	2745.45
436.72	2782.90
436.90	2651.83
437.09	2616.72
437.28	2588.63
437.46	2700.98
437.65	2818.00
437.84	2785.24
438.02	2801.62
438.21	2747.79
438.40	2808.64
438.58	2942.05
438.77	2836.73
438.96	2801.62
439.14	2864.82
439.33	2871.84
439.52	2855.45
439.70	3026.31
439.89	2956.10
440.08	3035.67
440.26	2995.89
440.45	3178.45
440.63	2979.50
440.82	3173.77
441.01	3054.40
441.19	2979.50
441.38	3164.40
441.57	3251.00
441.75	3138.66
441.94	3260.37
442.12	3300.16
442.31	3377.39
442.50	3274.41
442.68	3361.01
442.87	3375.05
443.05	3372.71
443.24	3358.67
443.43	3309.52
443.61	3363.35
443.80	3424.20
443.98	3229.94
444.17	3272.07
444.35	3307.18
444.54	3487.40
444.73	3421.86
444.91	3391.44
445.10	3337.60
445.28	3431.23
445.47	3386.76
445.65	3293.13
445.84	3452.29
446.02	3435.91
446.21	3494.42
446.39	3463.99
446.58	3424.20
446.77	3545.91
446.95	3456.97
447.14	3501.44
447.32	3482.72
447.51	3421.86
447.69	3536.55
447.88	3473.36
448.06	3506.12
448.25	3604.42
448.43	3550.59
448.62	3400.80
448.80	3571.66
448.99	3524.85
449.17	3576.34
449.36	3595.06
449.54	3534.21
449.73	3646.55
449.91	3609.11
450.10	3751.88
450.28	3777.62
450.46	3765.92
450.65	3794.01
450.83	3630.17
451.02	3768.26
451.20	3742.52
451.39	3768.26
451.57	3655.92
451.76	3707.41
451.94	3843.16
452.13	3922.74
452.31	3913.38
452.49	3772.94
452.68	3885.29
452.86	3957.85
453.05	3859.54
453.23	3946.14
453.42	3721.45
453.60	3880.61
453.78	4077.21
453.97	3812.73
454.15	3899.33
454.34	3808.05
454.52	3925.08
454.70	3962.53
454.89	3974.23
455.07	3997.64
455.26	4072.53
455.44	4133.39
455.62	3971.89
455.81	4124.02
455.99	4166.15
456.17	4065.51
456.36	4093.60
456.54	4315.95
456.73	4306.59
456.91	4271.48
457.09	4348.72
457.28	4362.76
457.46	4241.05
457.64	4451.70
457.83	4304.25
458.01	4187.22
458.19	4252.75
458.38	4395.53
458.56	4456.38
458.74	4489.15
458.93	4348.72
459.11	4479.79
459.29	4454.04
459.48	4418.93
459.66	4397.87
459.84	4526.60
460.03	4538.30
460.21	4699.80
460.39	4636.60
460.57	4416.59
460.76	4610.86
460.94	4594.47
461.12	4650.64
461.31	4678.73
461.49	4559.36
461.67	4610.86
461.85	4760.65
462.04	4744.27
462.22	4765.33
462.40	4695.11
462.59	4753.63
462.77	4692.77
462.95	4674.05
463.13	4758.31
463.32	4713.84
463.50	4812.14
463.68	4779.37
463.86	4819.16
464.05	4758.31
464.23	4802.78
464.41	4821.50
464.59	4779.37
464.78	5039.17
464.96	4870.65
465.14	4772.35
465.32	4957.25
465.50	5221.74
465.69	4999.38
465.87	4805.12
466.05	4985.34
466.23	4774.69
466.41	5069.60
466.60	5074.28
466.78	5095.35
466.96	4950.23
467.14	5214.71
467.32	4894.06
467.51	5160.88
467.69	5013.43
467.87	5022.79
468.05	5135.14
468.23	5109.39
468.41	5177.26
468.60	5219.39
468.78	5125.77
468.96	5184.29
469.14	5266.21
469.32	5490.90
469.50	5256.84
469.69	5219.39
469.87	5359.83
470.05	5336.42
470.23	5345.78
470.41	5322.38
470.59	5493.24
470.77	5420.68
470.95	5423.02
471.14	5554.09
471.32	5352.81
471.50	5668.78
471.68	5603.24
471.86	5392.59
472.04	5664.10
472.22	5809.21
472.40	5453.45
472.58	5722.61
472.77	5731.97
472.95	5841.98
473.13	5884.11
473.31	5701.54
473.49	5797.51
473.67	5795.17
473.85	5944.96
474.03	5893.47
474.21	5919.21
474.39	5977.73
474.57	5916.87
474.75	6017.52
474.93	6179.01
475.12	6239.87
475.30	6118.16
475.48	6174.33
475.66	6286.68
475.84	6197.74
476.02	6200.08
476.20	6190.72
476.38	6637.76
476.56	6541.80
476.74	6553.50
476.92	6656.48
477.10	6441.15
477.28	6663.51
477.46	6520.73
477.64	6616.69
477.82	6689.25
478.00	6892.88
478.18	7005.22
478.36	6904.58
478.54	7002.88
478.72	6857.77
478.90	7215.87
479.08	6920.96
479.26	7274.38
479.44	7206.51
479.62	7398.43
479.80	7389.07
479.98	7262.68
480.16	7501.42
480.34	7447.58
480.52	7536.52
480.70	7665.25
480.88	7571.63
481.06	7775.26
481.24	7674.62
481.41	7822.07
481.59	8070.17
481.77	7948.46
481.95	7925.05
482.13	8042.08
482.31	8053.78
482.49	8119.32
482.67	8294.86
482.85	8276.13
483.03	8507.85
483.21	8505.51
483.39	8580.40
483.57	8449.33
483.74	8425.93
483.92	8638.92
484.10	8690.41
484.28	9111.71
484.46	8837.86
484.64	9184.26
484.82	8805.10
485.00	9025.11
485.18	9392.57
485.35	9362.14
485.53	9451.08
485.71	9385.55
485.89	9760.03
486.07	9308.31
486.25	9441.72
486.43	9544.70
486.61	9776.42
486.78	9748.33
486.96	9846.63
487.14	10202.40
487.32	10050.26
487.50	9900.47
487.68	10146.22
487.85	10167.29
488.03	10417.72
488.21	10462.19
488.39	10555.82
488.57	10679.86
488.75	10684.55
488.92	10892.85
489.10	10792.21
489.28	10834.34
489.46	10883.49
489.64	10801.57
489.81	11260.32
489.99	11447.56
490.17	11286.06
490.35	11236.91
490.53	11494.37
490.70	11660.55
490.88	11719.06
491.06	11463.94
491.24	11648.85
491.41	11784.60
491.59	11880.56
491.77	11798.64
491.95	11915.67
492.13	12133.34
492.30	12182.49
492.48	12196.53
492.66	12056.10
492.84	12194.19
493.01	12500.80
493.19	12491.44
493.37	12573.36
493.54	12896.35
493.72	12725.49
493.90	12732.51
494.08	13004.02
494.25	13099.98
494.43	13254.45
494.61	13118.70
494.79	13214.66
494.96	13092.96
495.14	13518.93
495.32	13284.88
495.49	13399.57
495.67	13481.49
495.85	13554.04
496.02	13771.71
496.20	13980.02
496.38	13944.91
496.55	13860.65
496.73	14197.69
496.91	14052.58
497.09	14300.67
497.26	14398.98
497.44	14413.02
497.62	14288.97
497.79	14391.95
497.97	14129.81
498.14	14558.13
498.32	14806.23
498.50	14714.95
498.67	14923.26
498.85	14949.00
499.03	15080.07
499.20	14995.81
499.38	14988.79
499.56	14890.49
499.73	15335.19
499.91	15370.30
500.08	15356.25
500.26	15054.33
500.44	15391.36
500.61	15339.87
500.79	15515.41
500.97	15583.29
501.14	15906.28
501.32	15737.76
501.49	16009.26
501.67	15646.48
501.84	16046.71
502.02	15782.23
502.20	15854.79
502.37	16353.32
502.55	16276.09
502.72	16212.89
502.90	15894.58
503.07	16107.57
503.25	16208.21
503.43	16016.29
503.60	16425.88
503.78	16477.37
503.95	16411.84
504.13	16460.99
504.30	16702.06
504.48	16575.67
504.65	16685.68
504.83	16851.86
505.01	16791.00
505.18	16926.75
505.36	17282.52
505.53	16982.93
505.71	16634.19
505.88	17355.07
506.06	17071.87
506.23	17118.68
506.41	17163.15
506.58	17603.17
506.76	16994.63
506.93	17507.21
507.11	17273.15
507.28	17495.50
507.46	17720.20
507.63	17352.73
507.81	17657.00
507.98	17834.88
508.16	17748.28
508.33	17666.36
508.50	17549.34
508.68	17942.55
508.85	17921.48
509.03	18087.66
509.20	18026.81
509.38	18356.82
509.55	18127.45
509.73	18373.21
509.90	18494.91
510.08	18370.86
510.25	18300.65
510.42	18590.88
510.60	18565.13
510.77	18448.10
510.95	18494.91
511.12	18604.92
511.30	18623.64
511.47	18670.45
511.64	18719.60
511.82	19042.60
511.99	18855.36
512.17	18747.69
512.34	18918.55
512.51	19016.85
512.69	19021.53
512.86	19360.91
513.04	19358.57
513.21	19241.54
513.38	19152.60
513.56	19300.06
513.73	19297.72
513.90	19103.45
514.08	19349.21
514.25	19688.59
514.43	19323.46
514.60	19829.02
514.77	19843.06
514.95	19864.13
515.12	19880.51
515.29	19899.23
515.47	19889.87
515.64	19868.81
515.81	19611.35
515.99	19875.83
516.16	20475.01
516.33	20304.15
516.51	20194.14
516.68	20086.48
516.85	20369.68
517.03	20308.83
517.20	20297.13
517.37	20606.08
517.54	20638.84
517.72	20760.55
517.89	20470.33
518.06	20446.92
518.24	20397.77
518.41	20615.44
518.58	20685.65
518.75	20776.94
518.93	20849.49
519.10	20748.85
519.27	20917.37
519.45	20716.08
519.62	20982.90
519.79	20980.56
519.96	20926.73
520.14	21149.08
520.31	21158.44
520.48	21310.58
520.65	21228.66
520.83	21357.39
521.00	21261.43
521.17	21099.93
521.34	21518.89
521.52	21385.47
521.69	21483.78
521.86	21664.00
522.03	22043.17
522.20	21755.28
522.38	21818.47
522.55	21841.88
522.72	21984.65
522.89	21933.16
523.07	22019.76
523.24	21958.91
523.41	22181.26
523.58	21872.31
523.75	22115.72
523.92	21811.45
524.10	22050.19
524.27	22216.36
524.44	22150.83
524.61	22565.10
524.78	22230.41
524.96	22295.94
525.13	22295.94
525.30	22319.35
525.47	22265.52
525.64	22225.73
525.81	22649.36
525.98	22766.39
526.16	22558.08
526.33	22855.33
526.50	22892.78
526.67	22609.58
526.84	22773.41
527.01	22373.18
527.18	22625.96
527.36	23166.62
527.53	22796.82
527.70	23051.94
527.87	23316.42
528.04	23030.87
528.21	22803.84
528.38	22668.09
528.55	23302.37
528.72	22916.19
528.89	23407.70
529.07	23271.95
529.24	23463.87
529.41	23297.69
529.58	23126.83
529.75	23260.24
529.92	23419.40
530.09	23243.86
530.26	23363.23
530.43	23447.49
530.60	23592.60
530.77	23513.02
530.94	23491.96
531.11	23627.71
531.28	23370.25
531.46	23637.07
531.63	23999.85
531.80	24067.73
531.97	24025.60
532.14	23861.76
532.31	23927.30
532.48	23557.49
532.65	23988.15
532.82	23796.23
532.99	23871.12
533.16	23915.59
533.33	24315.83
533.50	24166.03
533.67	24545.20
533.84	24247.95
534.01	23948.36
534.18	24304.12
534.35	24425.83
534.52	24016.24
534.69	24245.61
534.86	24479.66
535.03	24175.39
535.20	24903.30
535.37	24702.01
535.54	24538.18
535.71	24432.85
535.88	24737.12
536.05	24311.14
536.22	24929.05
536.38	25036.71
536.55	24795.64
536.72	24957.13
536.89	24568.60
537.06	24568.60
537.23	24917.34
537.40	24772.23
537.57	24954.79
537.74	25032.03
537.91	25308.21
538.08	24800.32
538.25	25097.56
538.42	25137.35
538.59	25151.40
538.75	24790.95
538.92	25249.70
539.09	25427.58
539.26	25343.32
539.43	24985.22
539.60	25441.62
539.77	25296.51
539.94	25364.39
540.11	25553.97
540.28	25275.45
540.44	25460.35
540.61	25392.47
540.78	25624.18
540.95	25277.79
541.12	25521.20
541.29	25631.21
541.46	25781.00
541.62	25195.87
541.79	25951.86
541.96	25359.70
542.13	25661.63
542.30	25933.14
542.47	25689.72
542.63	25663.97
542.80	26111.02
542.97	26450.39
543.14	26492.52
543.31	26078.25
543.48	26059.52
543.64	26031.44
543.81	26235.06
543.98	26305.28
544.15	26515.93
544.32	26324.01
544.48	26277.19
544.65	26162.51
544.82	26443.37
544.99	26321.66
545.16	26434.01
545.32	26162.51
545.49	26469.12
545.66	27026.17
545.83	26588.49
546.00	26654.02
546.16	26672.74
546.33	26560.40
546.50	26178.89
546.67	27016.80
546.83	26284.22
547.00	26794.45
547.17	26689.13
547.34	26813.18
547.50	26824.88
547.67	27335.12
547.84	26766.37
548.00	27292.99
548.17	26960.63
548.34	26967.65
548.51	26492.52
548.67	27012.12
548.84	27208.73
549.01	27096.38
549.18	27182.98
549.34	26836.58
549.51	27101.06
549.68	26986.38
549.84	27243.84
550.01	27082.34
550.18	27016.80
550.34	27215.75
550.51	27363.20
550.68	27482.57
550.84	27171.28
551.01	27520.02
551.18	27370.22
551.34	26698.49
551.51	27400.65
551.68	27108.08
551.84	27702.58
552.01	27082.34
552.18	27695.56
552.34	27515.34
552.51	27351.50
552.68	27225.11
552.84	27435.76
553.01	27768.12
553.18	27571.51
553.34	27733.01
553.51	27981.10
553.67	27653.43
553.84	27644.07
554.01	27924.93
554.17	27615.98
554.34	28135.58
554.51	27779.82
554.67	27733.01
554.84	27910.89
555.00	27887.48
555.17	27728.33
555.33	28006.85
555.50	27704.92
555.67	28016.21
555.83	27882.80
556.00	27847.69
556.16	28149.62
556.33	28039.62
556.50	28023.23
556.66	28322.82
556.83	28135.58
556.99	28507.72
557.16	28348.57
557.32	28238.56
557.49	28271.33
557.65	27995.15
557.82	28102.81
557.98	28072.39
558.15	28135.58
558.32	28594.32
558.48	28196.43
558.65	28404.74
558.81	28795.61
558.98	28423.47
559.14	28247.93
559.31	28315.80
559.47	28006.85
559.64	28056.00
559.80	28240.90
559.97	28528.79
560.13	28545.17
560.30	28790.93
560.46	28299.42
560.63	28561.56
560.79	28552.20
560.96	28601.35
561.12	28400.06
561.29	28224.52
561.45	28573.26
561.61	28978.17
561.78	28701.99
561.94	28568.58
562.11	28662.20
562.27	28533.47
562.44	28545.17
562.60	28357.93
562.77	28636.45
562.93	28367.29
563.10	28828.38
563.26	28599.01
563.42	29329.25
563.59	29041.37
563.75	28449.21
563.92	29076.48
564.08	28620.07
564.24	28739.44
564.41	28652.84
564.57	28863.49
564.74	28882.21
564.90	28875.19
565.07	29167.76
565.23	29252.02
565.39	29090.52
565.56	28896.25
565.72	28837.74
565.88	29158.39
566.05	29050.73
566.21	28966.47
566.38	28936.04
566.54	28627.09
566.70	29338.62
566.87	29053.07
567.03	29142.01
567.19	29193.50
567.36	29074.13
567.52	29127.97
567.68	29027.32
567.85	29022.64
568.01	29090.52
568.17	28912.64
568.34	29422.87
568.50	29441.60
568.66	29167.76
568.83	29582.03
568.99	29130.31
569.15	29497.77
569.32	29315.21
569.48	28659.86
569.64	29366.70
569.81	29008.60
569.97	29366.70
570.13	29282.44
570.30	29397.13
570.46	29088.18
570.62	29050.73
570.78	28982.85
570.95	28940.72
571.11	29226.27
571.27	29020.30
571.43	29301.17
571.60	29216.91
571.76	29689.70
571.92	29160.73
572.09	29113.92
572.25	29521.18
572.41	29205.20
572.57	29567.99
572.74	29766.93
572.90	29249.67
573.06	28996.90
573.22	29113.92
573.38	29350.32
573.55	29448.62
573.71	29862.90
573.87	29579.69
574.03	29469.69
574.20	29788.00
574.36	28959.45
574.52	29144.35
574.68	29355.00
574.84	29626.50
575.01	29378.40
575.17	29385.43
575.33	29722.46
575.49	29350.32
575.65	29315.21
575.82	29266.06
575.98	29511.81
576.14	29614.80
576.30	29441.60
576.46	29612.46
576.62	29560.97
576.79	29301.17
576.95	29125.63
577.11	29441.60
577.27	29596.07
577.43	29677.99
577.59	29762.25
577.75	29811.40
577.92	29303.51
578.08	29654.59
578.24	29979.92
578.40	29387.77
578.56	29589.05
578.72	29708.42
578.88	29708.42
579.04	29413.51
579.21	29654.59
579.37	29481.39
579.53	29654.59
579.69	29244.99
579.85	29165.42
580.01	29301.17
580.17	29474.37
580.33	29486.07
580.49	29532.88
580.65	29654.59
580.82	29790.34
580.98	29748.21
581.14	29788.00
581.30	29617.14
581.46	29565.65
581.62	29525.86
581.78	29209.89
581.94	29570.33
582.10	29195.84
582.26	29626.50
582.42	29895.66
582.58	29401.81
582.74	29755.23
582.90	29795.02
583.06	29869.92
583.22	29614.80
583.38	29652.25
583.54	29441.60
583.70	29642.88
583.86	29596.07
584.02	29703.74
584.18	29935.45
584.34	29750.55
584.50	29788.00
584.66	30022.05
584.82	29713.10
584.98	29886.30
585.14	29860.55
585.30	29369.04
585.46	29518.84
585.62	29369.04
585.78	29420.53
585.94	29406.49
586.10	29816.08
586.26	30148.44
586.42	29766.93
586.58	29710.76
586.74	29507.13
586.90	29404.15
587.06	29558.63
587.22	29677.99
587.38	29472.03
587.54	30190.57
587.70	29893.32
587.86	30312.28
588.02	29900.34
588.18	30029.07
588.34	29731.83
588.49	29551.60
588.65	29549.26
588.81	29991.62
588.97	30120.35
589.13	29385.43
589.29	29708.42
589.45	29677.99
589.61	30148.44
589.77	29989.28
589.93	30038.44
590.08	29916.73
590.24	30382.49
590.40	29905.02
590.56	30125.04
590.72	29804.38
590.88	29720.12
591.04	29521.18
591.20	30347.39
591.35	29928.43
591.51	30043.12
591.67	30134.40
591.83	30614.21
591.99	30181.21
