SpectraSuite Data File
++++++++++++++++++++++++++++++++++++
Date: Fri Oct 18 13:58:42 GMT-05:00 2013
User: bianchi
Dark Spectrum Present: No
Reference Spectrum Present: No
Number of Sampled Component Spectra: 1
Spectrometers: USB2+H05261
Integration Time (usec): 50000 (USB2+H05261)
Spectra Averaged: 1 (USB2+H05261)
Boxcar Smoothing: 0 (USB2+H05261)
Correct for Electrical Dark: No (USB2+H05261)
Strobe/Lamp Enabled: No (USB2+H05261)
Correct for Detector Non-linearity: No (USB2+H05261)
Correct for Stray Light: No (USB2+H05261)
Number of Pixels in Processed Spectrum: 2048
>>>>>Begin Processed Spectral Data<<<<<
365.73	7.02
365.92	7.02
366.12	7.02
366.32	0.00
366.52	0.00
366.72	0.00
366.91	0.00
367.11	0.00
367.31	0.00
367.51	0.00
367.70	0.00
367.90	0.00
368.10	0.00
368.30	0.00
368.49	0.00
368.69	0.00
368.89	0.00
369.09	0.00
369.28	0.00
369.48	0.00
369.68	0.00
369.87	0.00
370.07	0.00
370.27	0.00
370.47	0.00
370.66	74.90
370.86	105.32
371.06	145.11
371.25	84.26
371.45	110.01
371.65	149.79
371.84	154.48
372.04	191.92
372.24	119.37
372.44	124.05
372.63	201.29
372.83	271.50
373.03	250.44
373.22	208.31
373.42	264.48
373.62	252.78
373.81	278.52
374.01	201.29
374.21	262.14
374.40	297.25
374.60	266.82
374.79	276.18
374.99	231.71
375.19	208.31
375.38	203.63
375.58	227.03
375.78	308.95
375.97	248.10
376.17	297.25
376.37	234.05
376.56	234.05
376.76	269.16
376.95	231.71
377.15	243.42
377.35	285.55
377.54	278.52
377.74	215.33
377.93	243.42
378.13	241.08
378.33	257.46
378.52	297.25
378.72	271.50
378.91	259.80
379.11	299.59
379.31	285.55
379.50	322.99
379.70	262.14
379.89	358.10
380.09	276.18
380.28	276.18
380.48	229.37
380.68	325.33
380.87	273.84
381.07	334.70
381.26	320.65
381.46	252.78
381.65	337.04
381.85	372.15
382.04	330.02
382.24	304.27
382.43	374.49
382.63	341.72
382.83	332.36
383.02	353.42
383.22	365.12
383.41	402.57
383.61	339.38
383.80	372.15
384.00	315.97
384.19	435.34
384.39	358.10
384.58	383.85
384.78	313.63
384.97	404.91
385.17	407.25
385.36	367.46
385.56	308.95
385.75	423.64
385.95	383.85
386.14	440.02
386.34	388.53
386.53	442.36
386.72	447.04
386.92	496.19
387.11	428.32
387.31	308.95
387.50	397.89
387.70	400.23
387.89	423.64
388.09	379.17
388.28	447.04
388.48	433.00
388.67	362.78
388.86	337.04
389.06	416.62
389.25	428.32
389.45	444.70
389.64	425.98
389.84	428.32
390.03	435.34
390.22	482.15
390.42	433.00
390.61	440.02
390.81	496.19
391.00	484.49
391.19	454.06
391.39	594.50
391.58	519.60
391.78	538.32
391.97	503.22
392.16	561.73
392.36	528.96
392.55	461.09
392.75	575.77
392.94	582.79
393.13	535.98
393.33	615.56
393.52	517.26
393.71	524.28
393.91	592.16
394.10	559.39
394.29	575.77
394.49	540.66
394.68	631.94
394.88	575.77
395.07	580.45
395.26	503.22
395.46	603.86
395.65	617.90
395.84	655.35
396.04	706.84
396.23	653.01
396.42	660.03
396.62	685.78
396.81	629.60
397.00	603.86
397.19	702.16
397.39	723.23
397.58	681.10
397.77	620.24
397.97	648.33
398.16	744.29
398.35	690.46
398.55	585.13
398.74	664.71
398.93	690.46
399.12	732.59
399.32	688.12
399.51	772.38
399.70	716.20
399.90	758.33
400.09	772.38
400.28	753.65
400.47	765.36
400.67	793.44
400.86	774.72
401.05	770.04
401.24	819.19
401.44	767.70
401.63	816.85
401.82	770.04
402.01	833.23
402.21	840.25
402.40	751.31
402.59	828.55
402.78	940.90
402.97	814.51
403.17	833.23
403.36	763.01
403.55	819.19
403.74	894.08
403.93	936.21
404.13	870.68
404.32	896.43
404.51	959.62
404.70	947.92
404.89	994.73
405.09	971.32
405.28	952.60
405.47	919.83
405.66	980.68
405.85	938.55
406.05	959.62
406.24	976.00
406.43	954.94
406.62	917.49
406.81	1111.75
407.00	1011.11
407.20	990.05
407.39	1057.92
407.58	1064.94
407.77	1057.92
407.96	1022.81
408.15	1135.16
408.34	1132.82
408.54	1001.75
408.73	1086.01
408.92	1100.05
409.11	1050.90
409.30	1011.11
409.49	1118.78
409.68	1118.78
409.87	1128.14
410.07	1149.20
410.26	1097.71
410.45	1186.65
410.64	1149.20
410.83	1196.01
411.02	1231.12
411.21	1245.16
411.40	1191.33
411.59	1331.76
411.78	1268.57
411.98	1254.53
412.17	1308.36
412.36	1235.80
412.55	1301.34
412.74	1303.68
412.93	1348.15
413.12	1343.47
413.31	1387.94
413.50	1287.29
413.69	1341.13
413.88	1291.98
414.07	1437.09
414.26	1437.09
414.45	1348.15
414.64	1411.34
414.83	1451.13
415.02	1490.92
415.22	1483.90
415.41	1507.30
415.60	1469.86
415.79	1542.41
415.98	1551.78
416.17	1551.78
416.36	1593.90
416.55	1570.50
416.74	1603.27
416.93	1624.33
417.12	1706.25
417.31	1598.59
417.50	1661.78
417.69	1757.74
417.88	1762.42
418.07	1645.40
418.26	1682.85
418.45	1757.74
418.64	1739.02
418.83	1792.85
419.02	1722.63
419.21	1778.81
419.39	1849.02
419.58	1849.02
419.77	1750.72
419.96	1856.04
420.15	1858.39
420.34	1867.75
420.53	1907.54
420.72	1909.88
420.91	1839.66
421.10	1832.64
421.29	1930.94
421.48	1912.22
421.67	1909.88
421.86	1914.56
422.05	2050.31
422.24	1886.47
422.43	1846.68
422.61	1970.73
422.80	1996.48
422.99	1956.69
423.18	2036.27
423.37	2050.31
423.56	1944.99
423.75	1898.17
423.94	2012.86
424.13	1916.90
424.32	1921.58
424.50	2005.84
424.69	1980.09
424.88	1966.05
425.07	1912.22
425.26	1912.22
425.45	2022.22
425.64	1825.62
425.83	2076.06
426.01	2169.68
426.20	2008.18
426.39	1961.37
426.58	2040.95
426.77	2015.20
426.96	2085.42
427.15	1994.14
427.33	2099.46
427.52	2083.08
427.71	2064.35
427.90	2008.18
428.09	2141.59
428.28	2150.95
428.46	2214.15
428.65	2228.19
428.84	2228.19
429.03	2275.00
429.22	2169.68
429.40	2167.34
429.59	2169.68
429.78	2099.46
429.97	2073.71
430.16	2237.55
430.34	2183.72
430.53	2307.77
430.72	2352.24
430.91	2221.17
431.10	2270.32
431.28	2363.94
431.47	2310.11
431.66	2293.72
431.85	2326.49
432.03	2431.82
432.22	2544.16
432.41	2485.65
432.60	2356.92
432.79	2455.22
432.97	2413.09
433.16	2392.03
433.35	2490.33
433.54	2356.92
433.72	2492.67
433.91	2478.63
434.10	2473.95
434.28	2537.14
434.47	2574.59
434.66	2560.55
434.85	2567.57
435.03	2647.15
435.22	2525.44
435.41	2541.82
435.59	2597.99
435.78	2682.25
435.97	2607.36
436.16	2600.34
436.34	2787.58
436.53	2628.42
436.72	2705.66
436.90	2595.65
437.09	2679.91
437.28	2586.29
437.46	2684.59
437.65	2637.78
437.84	2794.60
438.02	2691.62
438.21	2733.75
438.40	2715.02
438.58	2782.90
438.77	2897.58
438.96	2808.64
439.14	2876.52
439.33	2918.65
439.52	3047.38
439.70	2993.55
439.89	3061.42
440.08	2993.55
440.26	3056.74
440.45	2918.65
440.63	3052.06
440.82	3054.40
441.01	3021.63
441.19	3080.14
441.38	3246.32
441.57	3162.06
441.75	3206.53
441.94	3176.11
442.12	3260.37
442.31	3183.13
442.50	3283.77
442.68	3234.62
442.87	3220.58
443.05	3295.47
443.24	3321.22
443.43	3258.03
443.61	3377.39
443.80	3332.92
443.98	3265.05
444.17	3211.22
444.35	3391.44
444.54	3419.52
444.73	3344.63
444.91	3398.46
445.10	3438.25
445.28	3232.28
445.47	3442.93
445.65	3414.84
445.84	3410.16
446.02	3459.31
446.21	3311.86
446.39	3396.12
446.58	3461.65
446.77	3400.80
446.95	3283.77
447.14	3353.99
447.32	3459.31
447.51	3440.59
447.69	3459.31
447.88	3471.01
448.06	3485.06
448.25	3321.22
448.43	3545.91
448.62	3557.61
448.80	3524.85
448.99	3548.25
449.17	3641.87
449.36	3606.77
449.54	3637.19
449.73	3595.06
449.91	3627.83
450.10	3698.05
450.28	3618.47
450.46	3707.41
450.65	3768.26
450.83	3777.62
451.02	3604.42
451.20	3749.54
451.39	3812.73
451.57	3805.71
451.76	3794.01
451.94	3770.60
452.13	3992.95
452.31	3960.19
452.49	3784.65
452.68	3812.73
452.86	3833.80
453.05	3721.45
453.23	3824.44
453.42	3887.63
453.60	3819.75
453.78	3857.20
453.97	4007.00
454.15	3995.29
454.34	3927.42
454.52	4049.13
454.70	3894.65
454.89	4084.23
455.07	4065.51
455.26	4042.11
455.44	4007.00
455.62	3957.85
455.81	3988.27
455.99	4044.45
456.17	4224.67
456.36	4161.47
456.54	4227.01
456.73	4175.52
456.91	4365.10
457.09	4128.70
457.28	4262.12
457.46	4114.66
457.64	4369.78
457.83	4341.69
458.01	4177.86
458.19	4493.83
458.38	4531.28
458.56	4404.89
458.74	4472.76
458.93	4348.72
459.11	4470.42
459.29	4498.51
459.48	4404.89
459.66	4528.94
459.84	4634.26
460.03	4552.34
460.21	4557.02
460.39	4454.04
460.57	4587.45
460.76	4477.44
460.94	4760.65
461.12	4484.47
461.31	4521.92
461.49	4596.81
461.67	4582.77
461.85	4791.08
462.04	4615.54
462.22	4709.16
462.40	4643.62
462.59	4533.62
462.77	4603.83
462.95	4713.84
463.13	4791.08
463.32	4826.18
463.50	4732.56
463.68	4718.52
463.86	4751.29
464.05	4737.24
464.23	4704.48
464.41	5069.60
464.59	4795.76
464.78	5015.77
464.96	4983.00
465.14	4961.94
465.32	4940.87
465.50	4987.68
465.69	4968.96
465.87	4961.94
466.05	5043.85
466.23	4943.21
466.41	5008.75
466.60	4964.28
466.78	4847.25
466.96	4903.42
467.14	4964.28
467.32	5076.62
467.51	5132.79
467.69	4877.68
467.87	5060.24
468.05	5135.14
468.23	5039.17
468.41	5027.47
468.60	5144.50
468.78	5158.54
468.96	4999.38
469.14	5097.69
469.32	5207.69
469.50	5177.26
469.69	5376.21
469.87	5387.91
470.05	5458.13
470.23	5254.50
470.41	5268.55
470.59	5631.33
470.77	5287.27
470.95	5441.75
471.14	5467.49
471.32	5369.19
471.50	5600.90
471.68	5605.58
471.86	5455.79
472.04	5741.33
472.22	5631.33
472.40	5570.48
472.58	5696.86
472.77	5673.46
472.95	5703.89
473.13	5954.32
473.31	5607.92
473.49	5757.72
473.67	5767.08
473.85	5827.93
474.03	5891.13
474.21	5884.11
474.39	5863.04
474.57	6122.84
474.75	6026.88
474.93	6160.29
475.12	6150.93
475.30	6097.10
475.48	6155.61
475.66	6012.84
475.84	6193.06
476.02	6373.28
476.20	6094.76
476.38	6296.04
476.56	6516.05
476.74	6628.40
476.92	6534.78
477.10	6698.61
477.28	6637.76
477.46	6532.44
477.64	6722.02
477.82	6649.46
478.00	6843.73
478.18	6850.75
478.36	6864.79
478.54	7091.82
478.72	7077.78
478.90	6944.37
479.08	6984.16
479.26	7148.00
479.44	7243.96
479.62	7321.20
479.80	7309.49
479.98	7269.70
480.16	7368.01
480.34	7524.82
480.52	7503.76
480.70	7501.42
480.88	7489.71
481.06	7644.19
481.24	7552.91
481.41	8028.04
481.59	7637.17
481.77	7962.50
481.95	7964.84
482.13	8058.46
482.31	8168.47
482.49	8084.21
482.67	8067.83
482.85	8285.50
483.03	8344.01
483.21	8484.44
483.39	8479.76
483.57	8393.16
483.74	8697.43
483.92	8795.73
484.10	8648.28
484.28	8730.20
484.46	8950.21
484.64	9081.28
484.82	9032.13
485.00	9048.51
485.18	9186.60
485.35	9448.74
485.53	9174.90
485.71	9458.10
485.89	9502.58
486.07	9500.23
486.25	9525.98
486.43	9650.03
486.61	9839.61
486.78	9696.84
486.96	9664.07
487.14	9933.23
487.32	10033.88
487.50	9905.15
487.68	9991.75
487.85	10354.53
488.03	10270.27
488.21	10518.37
488.39	10410.70
488.57	10326.44
488.75	10761.78
488.92	10832.00
489.10	10799.23
489.28	10932.64
489.46	10963.07
489.64	11157.33
489.81	11274.36
489.99	11304.79
490.17	11265.00
490.35	11569.27
490.53	11510.75
490.70	11641.82
490.88	11555.22
491.06	11510.75
491.24	11524.80
491.41	11658.21
491.59	11709.70
491.77	11892.26
491.95	11995.25
492.13	12229.30
492.30	11920.35
492.48	12360.37
492.66	12250.36
492.84	12023.33
493.01	12666.98
493.19	12545.27
493.37	12582.72
493.54	12524.21
493.72	12814.43
493.90	12819.11
494.08	12816.77
494.25	12917.42
494.43	13165.51
494.61	13195.94
494.79	13202.96
494.96	13167.85
495.14	13193.60
495.32	13348.08
495.49	13476.80
495.67	13394.89
495.85	13514.25
496.02	13715.54
496.20	13617.24
496.38	13858.31
496.55	13741.29
496.73	14218.75
496.91	14043.21
497.09	14377.91
497.26	14017.47
497.44	14052.58
497.62	14134.50
497.79	14520.68
497.97	14501.96
498.14	14658.78
498.32	14738.35
498.50	14672.82
498.67	14787.50
498.85	14569.83
499.03	15021.56
499.20	14609.62
499.38	14986.45
499.56	14920.92
499.73	15192.42
499.91	15110.50
500.08	15272.00
500.26	15272.00
500.44	15250.93
500.61	15346.89
500.79	15342.21
500.97	15602.01
501.14	15826.70
501.32	15829.04
501.49	15838.41
501.67	15382.00
501.84	15616.05
502.02	15721.38
502.20	15812.66
502.37	15819.68
502.55	15850.11
502.72	16088.84
502.90	15960.11
503.07	16098.20
503.25	16210.55
503.43	15838.41
503.60	16685.68
503.78	16620.14
503.95	16379.07
504.13	16540.57
504.30	16699.72
504.48	16381.41
504.65	16650.57
504.83	16573.33
505.01	17041.44
505.18	16830.79
505.36	17060.16
505.53	16980.59
505.71	16950.16
505.88	17214.64
506.06	16816.75
506.23	17331.67
506.41	17083.57
506.58	17322.30
506.76	17130.38
506.93	17121.02
507.11	17287.20
507.28	17254.43
507.46	17561.04
507.63	17781.05
507.81	17497.84
507.98	17502.53
508.16	17785.73
508.33	17458.06
508.50	17846.58
508.68	17830.20
508.85	18015.10
509.03	17554.02
509.20	17748.28
509.38	18345.12
509.55	18342.78
509.73	18389.59
509.90	18148.51
510.08	18377.89
510.25	18272.56
510.42	18326.39
510.60	18375.55
510.77	18305.33
510.95	18607.26
511.12	18429.38
511.30	18401.29
511.47	18609.60
511.64	18953.66
511.82	18834.29
511.99	18829.61
512.17	18934.93
512.34	19087.07
512.51	18595.56
512.69	19089.41
512.86	19183.03
513.04	19384.32
513.21	19276.65
513.38	19473.26
513.56	19232.18
513.73	19166.65
513.90	19400.70
514.08	19183.03
514.25	19578.58
514.43	19522.41
514.60	19391.34
514.77	19658.16
514.95	19854.76
515.12	19765.82
515.29	19431.13
515.47	19609.01
515.64	20114.56
515.81	19763.48
515.99	20123.93
516.16	20264.36
516.33	20524.16
516.51	20259.68
516.68	20198.82
516.85	19693.27
517.03	20491.39
517.20	20498.41
517.37	20404.79
517.54	20343.94
517.72	20175.42
517.89	20299.47
518.06	20350.96
518.24	20350.96
518.41	20549.90
518.58	20645.87
518.75	20610.76
518.93	20549.90
519.10	20746.51
519.27	20786.30
519.45	20547.56
519.62	20697.36
519.79	20837.79
519.96	20893.96
520.14	20996.95
520.31	20985.24
520.48	21511.86
520.65	21153.76
520.83	21226.32
521.00	21284.83
521.17	21074.18
521.34	21139.72
521.52	21235.68
521.69	21298.88
521.86	21408.88
522.03	21352.71
522.20	21443.99
522.38	21888.69
522.55	21710.81
522.72	21544.63
522.89	21764.64
523.07	22127.42
523.24	21596.12
523.41	21968.27
523.58	21383.13
523.75	21923.80
523.92	21816.13
524.10	21989.33
524.27	21813.79
524.44	22448.08
524.61	22043.17
524.78	22031.46
524.96	22052.53
525.13	22331.05
525.30	22405.95
525.47	22530.00
525.64	22630.64
525.81	22637.66
525.98	22764.05
526.16	22632.98
526.33	22628.30
526.50	22574.47
526.67	22487.87
526.84	22710.22
527.01	22609.58
527.18	22843.63
527.36	22600.21
527.53	23028.53
527.70	23517.70
527.87	23360.89
528.04	22972.36
528.21	23077.68
528.38	22923.21
528.55	23042.57
528.72	23332.80
528.89	23351.52
529.07	23337.48
529.24	23330.46
529.41	23630.05
529.58	23054.28
529.75	23159.60
529.92	23534.09
530.09	23239.18
530.26	23688.56
530.43	23587.92
530.60	23363.23
530.77	23321.10
530.94	23740.05
531.11	23634.73
531.28	23662.82
531.46	23597.28
531.63	24147.31
531.80	23906.23
531.97	24121.56
532.14	24070.07
532.31	23953.04
532.48	23936.66
532.65	24032.62
532.82	23646.43
532.99	23967.09
533.16	23880.49
533.33	24339.23
533.50	24393.06
533.67	24423.49
533.84	23906.23
534.01	24016.24
534.18	24198.80
534.35	24154.33
534.52	24414.13
534.69	24343.91
534.86	24327.53
535.03	24123.90
535.20	24271.36
535.37	24664.57
535.54	24863.51
535.71	24458.60
535.88	24575.62
536.05	24601.37
536.22	24797.98
536.38	24606.05
536.55	24971.18
536.72	24814.36
536.89	24451.58
537.06	24573.28
537.23	25266.08
537.40	24882.24
537.57	24996.92
537.74	25013.31
537.91	25214.59
538.08	24924.36
538.25	25029.69
538.42	25329.28
538.59	24971.18
538.75	24961.81
538.92	25266.08
539.09	25252.04
539.26	25212.25
539.43	25348.00
539.60	25252.04
539.77	25277.79
539.94	25687.38
540.11	24842.45
540.28	25181.82
540.44	25219.27
540.61	25467.37
540.78	25446.30
540.95	25560.99
541.12	25081.18
541.29	25734.19
541.46	25563.33
541.62	25832.49
541.79	25703.76
541.96	24980.54
542.13	25621.84
542.30	25640.57
542.47	25972.92
542.63	25841.85
542.80	25923.77
542.97	26288.90
543.14	25886.32
543.31	25944.84
543.48	25874.62
543.64	26347.41
543.81	26134.42
543.98	26307.62
544.15	26089.95
544.32	26192.94
544.48	26326.35
544.65	26522.95
544.82	26464.44
544.99	26106.34
545.16	26338.05
545.32	26333.37
545.49	26267.83
545.66	26824.88
545.83	26422.31
546.00	26569.76
546.16	26977.01
546.33	26499.55
546.50	26277.19
546.67	26735.94
546.83	26469.12
547.00	26623.59
547.17	26838.92
547.34	26464.44
547.50	26754.66
547.67	27187.66
547.84	26590.83
548.00	26567.42
548.17	26607.21
548.34	27136.17
548.51	27103.40
548.67	27126.81
548.84	26810.84
549.01	26778.07
549.18	26569.76
549.34	27101.06
549.51	26927.86
549.68	26918.50
549.84	27072.98
550.01	27290.65
550.18	27232.13
550.34	27089.36
550.51	27281.28
550.68	27536.40
550.84	27014.46
551.01	27283.62
551.18	27166.60
551.34	27206.39
551.51	27288.31
551.68	27529.38
551.84	27545.76
552.01	27847.69
552.18	27487.25
552.34	27424.06
552.51	27833.65
552.68	27421.72
552.84	27288.31
553.01	27826.63
553.18	27370.22
553.34	27817.27
553.51	27644.07
553.67	27880.46
553.84	27894.50
554.01	27807.90
554.17	27538.74
554.34	28140.26
554.51	27838.33
554.67	28006.85
554.84	27597.26
555.00	27704.92
555.17	27936.63
555.33	27838.33
555.50	28161.33
555.67	28276.01
555.83	28147.28
556.00	28091.11
556.16	28247.93
556.33	27840.67
556.50	28004.51
556.66	28144.94
556.83	28121.54
556.99	28182.39
557.16	28376.66
557.32	28210.48
557.49	28158.99
557.65	28004.51
557.82	28051.32
557.98	28034.94
558.15	28128.56
558.32	28716.03
558.48	28374.31
558.65	28517.09
558.81	28512.41
558.98	28580.28
559.14	28247.93
559.31	28287.71
559.47	28449.21
559.64	28332.18
559.80	28205.80
559.97	28716.03
560.13	28781.57
560.30	28215.16
560.46	28765.18
560.63	28437.51
560.79	28769.86
560.96	28973.49
561.12	28629.43
561.29	28545.17
561.45	28783.91
561.61	28645.82
561.78	28645.82
561.94	28659.86
562.11	28769.86
562.27	28510.07
562.44	28723.05
562.60	28414.10
562.77	28753.48
562.93	28416.44
563.10	28650.50
563.26	28561.56
563.42	28758.16
563.59	28723.05
563.75	28687.95
563.92	28652.84
564.08	28596.67
564.24	28437.51
564.41	28730.08
564.57	28872.85
564.74	29090.52
564.90	28947.75
565.07	28987.53
565.23	28861.15
565.39	28922.00
565.56	29125.63
565.72	28762.84
565.88	28980.51
566.05	28709.01
566.21	28809.65
566.38	28856.46
566.54	29137.33
566.70	29027.32
566.87	29111.58
567.03	29331.59
567.19	29364.36
567.36	29134.99
567.52	29071.79
567.68	29104.56
567.85	28655.18
568.01	29219.25
568.17	28917.32
568.34	28886.89
568.50	28828.38
568.66	28940.72
568.83	29118.60
568.99	28917.32
569.15	29013.28
569.32	29174.78
569.48	29240.31
569.64	29500.11
569.81	29621.82
569.97	29151.37
570.13	29469.69
570.30	29294.14
570.46	29497.77
570.62	29338.62
570.78	29015.62
570.95	29088.18
571.11	29254.36
571.27	28940.72
571.43	29027.32
571.60	28793.27
571.76	29287.12
571.92	29387.77
572.09	29132.65
572.25	29633.52
572.41	29319.89
572.57	29275.42
572.74	29153.71
572.90	29249.67
573.06	29305.85
573.22	29383.09
573.38	29310.53
573.55	29137.33
573.71	29968.22
573.87	29509.47
574.03	29062.43
574.20	29090.52
574.36	29057.75
574.52	29289.46
574.68	29191.16
574.84	29806.72
575.01	29446.28
575.17	29532.88
575.33	29303.51
575.49	29134.99
575.65	29565.65
575.82	30052.48
575.98	29350.32
576.14	29408.83
576.30	29872.26
576.46	29057.75
576.62	29287.12
576.79	29647.57
576.95	29436.92
577.11	29401.81
577.27	29319.89
577.43	29380.74
577.59	30022.05
577.75	29483.73
577.92	29149.03
578.08	29134.99
578.24	29357.34
578.40	29312.87
578.56	29652.25
578.72	29352.66
578.88	29935.45
579.04	29773.95
579.21	29511.81
579.37	29376.06
579.53	29680.33
579.69	29432.24
579.85	28926.68
580.01	29624.16
580.17	29057.75
580.33	29465.00
580.49	29525.86
580.65	29799.70
580.82	29926.09
580.98	29633.52
581.14	29539.90
581.30	29542.24
581.46	29539.90
581.62	29579.69
581.78	29708.42
581.94	29621.82
582.10	29343.30
582.26	29544.58
582.42	29577.35
582.58	29680.33
582.74	29659.27
582.90	29635.86
583.06	29586.71
583.22	29539.90
583.38	29212.23
583.54	29713.10
583.70	29865.24
583.86	29954.18
584.02	29333.93
584.18	29947.15
584.34	29776.30
584.50	29752.89
584.66	29432.24
584.82	29413.51
584.98	29589.05
585.14	29556.28
585.30	29174.78
585.46	29589.05
585.62	29647.57
585.78	29748.21
585.94	29296.49
586.10	29567.99
586.26	29687.36
586.42	29947.15
586.58	29788.00
586.74	29558.63
586.90	29603.10
587.06	29322.23
587.22	29813.74
587.38	29551.60
587.54	29848.85
587.70	30008.01
587.86	29806.72
588.02	29553.94
588.18	29907.37
588.34	29975.24
588.49	29848.85
588.65	29558.63
588.81	29577.35
588.97	29743.53
589.13	30036.09
589.29	29511.81
589.45	29771.61
589.61	29972.90
589.77	30209.29
589.93	29855.87
590.08	30008.01
590.24	30274.83
590.40	30038.44
590.56	30132.06
590.72	29748.21
590.88	29656.93
591.04	29434.58
591.20	30293.55
591.35	30139.08
591.51	30108.65
591.67	30433.99
591.83	30405.90
591.99	30132.06
