SpectraSuite Data File
++++++++++++++++++++++++++++++++++++
Date: Fri Oct 18 13:58:26 GMT-05:00 2013
User: bianchi
Dark Spectrum Present: No
Reference Spectrum Present: No
Number of Sampled Component Spectra: 1
Spectrometers: USB2+H05261
Integration Time (usec): 50000 (USB2+H05261)
Spectra Averaged: 1 (USB2+H05261)
Boxcar Smoothing: 0 (USB2+H05261)
Correct for Electrical Dark: No (USB2+H05261)
Strobe/Lamp Enabled: No (USB2+H05261)
Correct for Detector Non-linearity: No (USB2+H05261)
Correct for Stray Light: No (USB2+H05261)
Number of Pixels in Processed Spectrum: 2048
>>>>>Begin Processed Spectral Data<<<<<
365.73	0.00
365.92	0.00
366.12	0.00
366.32	0.00
366.52	0.00
366.72	0.00
366.91	0.00
367.11	0.00
367.31	0.00
367.51	0.00
367.70	0.00
367.90	0.00
368.10	0.00
368.30	0.00
368.49	0.00
368.69	0.00
368.89	0.00
369.09	0.00
369.28	0.00
369.48	0.00
369.68	0.00
369.87	0.00
370.07	0.00
370.27	0.00
370.47	0.00
370.66	35.11
370.86	21.06
371.06	173.20
371.25	168.52
371.45	177.88
371.65	154.48
371.84	184.90
372.04	128.73
372.24	156.82
372.44	135.75
372.63	135.75
372.83	159.16
373.03	250.44
373.22	285.55
373.42	255.12
373.62	224.69
373.81	194.26
374.01	217.67
374.21	182.56
374.40	210.65
374.60	252.78
374.79	264.48
374.99	208.31
375.19	229.37
375.38	269.16
375.58	229.37
375.78	273.84
375.97	224.69
376.17	299.59
376.37	259.80
376.56	248.10
376.76	163.84
376.95	212.99
377.15	266.82
377.35	222.35
377.54	255.12
377.74	238.73
377.93	245.76
378.13	306.61
378.33	264.48
378.52	201.29
378.72	318.31
378.91	208.31
379.11	257.46
379.31	297.25
379.50	248.10
379.70	311.29
379.89	269.16
380.09	264.48
380.28	292.57
380.48	374.49
380.68	262.14
380.87	353.42
381.07	299.59
381.26	327.68
381.46	376.83
381.65	332.36
381.85	290.23
382.04	266.82
382.24	358.10
382.43	304.27
382.63	330.02
382.83	386.19
383.02	367.46
383.22	351.08
383.41	318.31
383.61	379.17
383.80	376.83
384.00	362.78
384.19	372.15
384.39	437.68
384.58	318.31
384.78	330.02
384.97	351.08
385.17	353.42
385.36	365.12
385.56	416.62
385.75	395.55
385.95	374.49
386.14	390.87
386.34	407.25
386.53	402.57
386.72	418.96
386.92	491.51
387.11	430.66
387.31	440.02
387.50	383.85
387.70	421.30
387.89	386.19
388.09	433.00
388.28	465.77
388.48	456.40
388.67	503.22
388.86	470.45
389.06	367.46
389.25	430.66
389.45	423.64
389.64	550.03
389.84	463.43
390.03	442.36
390.22	489.17
390.42	395.55
390.61	468.11
390.81	514.92
391.00	395.55
391.19	524.28
391.39	472.79
391.58	505.56
391.78	521.94
391.97	503.22
392.16	599.18
392.36	533.64
392.55	514.92
392.75	526.62
392.94	550.03
393.13	489.17
393.33	512.58
393.52	538.32
393.71	547.69
393.91	580.45
394.10	603.86
394.29	594.50
394.49	594.50
394.68	557.05
394.88	580.45
395.07	629.60
395.26	624.92
395.46	540.66
395.65	620.24
395.84	615.56
396.04	688.12
396.23	634.29
396.42	650.67
396.62	638.97
396.81	617.90
397.00	723.23
397.19	713.86
397.39	622.58
397.58	653.01
397.77	697.48
397.97	655.35
398.16	631.94
398.35	678.76
398.55	674.07
398.74	690.46
398.93	671.73
399.12	730.25
399.32	685.78
399.51	695.14
399.70	753.65
399.90	732.59
400.09	758.33
400.28	760.67
400.47	751.31
400.67	802.80
400.86	791.10
401.05	767.70
401.24	781.74
401.44	823.87
401.63	795.78
401.82	812.17
402.01	812.17
402.21	840.25
402.40	791.10
402.59	744.29
402.78	763.01
402.97	760.67
403.17	854.30
403.36	868.34
403.55	929.19
403.74	854.30
403.93	926.85
404.13	823.87
404.32	894.08
404.51	873.02
404.70	985.37
404.89	950.26
405.09	905.79
405.28	968.98
405.47	910.47
405.66	980.68
405.85	1015.79
406.05	983.02
406.24	952.60
406.43	931.53
406.62	1048.56
406.81	1086.01
407.00	945.58
407.20	968.98
407.39	957.28
407.58	994.73
407.77	1008.77
407.96	1078.99
408.15	999.41
408.34	1053.24
408.54	968.98
408.73	1057.92
408.92	1086.01
409.11	1008.77
409.30	1097.71
409.49	1076.65
409.68	1057.92
409.87	1137.50
410.07	1149.20
410.26	1268.57
410.45	1179.63
410.64	1128.14
410.83	1142.18
411.02	1205.38
411.21	1212.40
411.40	1219.42
411.59	1242.82
411.78	1203.04
411.98	1261.55
412.17	1263.89
412.36	1343.47
412.55	1336.45
412.74	1345.81
412.93	1284.95
413.12	1287.29
413.31	1310.70
413.50	1423.05
413.69	1350.49
413.88	1495.60
414.07	1380.92
414.26	1483.90
414.45	1444.11
414.64	1476.88
414.83	1479.22
415.02	1575.18
415.22	1495.60
415.41	1549.43
415.60	1467.52
415.79	1577.52
415.98	1600.93
416.17	1633.69
416.36	1589.22
416.55	1612.63
416.74	1549.43
416.93	1743.70
417.12	1568.16
417.31	1598.59
417.50	1666.46
417.69	1664.12
417.88	1643.06
418.07	1694.55
418.26	1771.79
418.45	1767.10
418.64	1732.00
418.83	1757.74
419.02	1689.87
419.21	1732.00
419.39	1776.47
419.58	1750.72
419.77	1804.55
419.96	1809.23
420.15	2001.16
420.34	1872.43
420.53	1928.60
420.72	1886.47
420.91	1879.45
421.10	1914.56
421.29	1926.26
421.48	1872.43
421.67	1783.49
421.86	1900.52
422.05	2005.84
422.24	1968.39
422.43	1867.75
422.61	1923.92
422.80	2026.90
422.99	1977.75
423.18	2022.22
423.37	2001.16
423.56	1975.41
423.75	1980.09
423.94	1998.82
424.13	1834.98
424.32	1900.52
424.50	1982.43
424.69	2108.82
424.88	2064.35
425.07	2071.37
425.26	1987.11
425.45	1996.48
425.64	1959.03
425.83	1947.33
426.01	2085.42
426.20	2057.33
426.39	2008.18
426.58	1989.46
426.77	2024.56
426.96	2195.42
427.15	2071.37
427.33	2022.22
427.52	2010.52
427.71	2148.61
427.90	2148.61
428.09	2230.53
428.28	2054.99
428.46	2120.53
428.65	2155.63
428.84	2071.37
429.03	2246.91
429.22	2202.44
429.40	2307.77
429.59	2148.61
429.78	2132.23
429.97	2246.91
430.16	2225.85
430.34	2265.64
430.53	2342.88
430.72	2363.94
430.91	2310.11
431.10	2356.92
431.28	2293.72
431.47	2342.88
431.66	2359.26
431.85	2382.67
432.03	2417.77
432.22	2471.61
432.41	2455.22
432.60	2452.88
432.79	2457.56
432.97	2448.20
433.16	2509.05
433.35	2541.82
433.54	2462.24
433.72	2387.35
433.91	2506.71
434.10	2595.65
434.28	2469.27
434.47	2609.70
434.66	2441.18
434.85	2616.72
435.03	2518.42
435.22	2630.76
435.41	2637.78
435.59	2487.99
435.78	2607.36
435.97	2609.70
436.16	2640.12
436.34	2693.96
436.53	2679.91
436.72	2626.08
436.90	2670.55
437.09	2729.06
437.28	2562.89
437.46	2590.97
437.65	2764.17
437.84	2710.34
438.02	2757.15
438.21	2836.73
438.40	2785.24
438.58	2848.43
438.77	2860.13
438.96	2829.71
439.14	2890.56
439.33	2942.05
439.52	2878.86
439.70	3045.04
439.89	3070.78
440.08	2991.20
440.26	3061.42
440.45	2960.78
440.63	3091.85
440.82	3075.46
441.01	3103.55
441.19	3124.62
441.38	2991.20
441.57	3164.40
441.75	3150.36
441.94	3215.90
442.12	3225.26
442.31	3323.56
442.50	3192.49
442.68	3314.20
442.87	3309.52
443.05	3323.56
443.24	3351.65
443.43	3330.58
443.61	3389.10
443.80	3461.65
443.98	3302.50
444.17	3084.83
444.35	3309.52
444.54	3440.59
444.73	3461.65
444.91	3541.23
445.10	3370.37
445.28	3335.26
445.47	3365.69
445.65	3597.40
445.84	3473.36
446.02	3492.08
446.21	3475.70
446.39	3412.50
446.58	3396.12
446.77	3576.34
446.95	3417.18
447.14	3412.50
447.32	3529.53
447.51	3517.83
447.69	3461.65
447.88	3510.80
448.06	3393.78
448.25	3639.53
448.43	3585.70
448.62	3442.93
448.80	3538.89
448.99	3480.38
449.17	3515.48
449.36	3527.19
449.54	3513.14
449.73	3749.54
449.91	3737.84
450.10	3581.02
450.28	3730.81
450.46	3691.02
450.65	3658.26
450.83	3716.77
451.02	3723.79
451.20	3803.37
451.39	3852.52
451.57	3693.37
451.76	3761.24
451.94	3833.80
452.13	3859.54
452.31	3728.47
452.49	3637.19
452.68	3943.80
452.86	3653.58
453.05	3915.72
453.23	3953.16
453.42	3824.44
453.60	3871.25
453.78	3946.14
453.97	3852.52
454.15	3934.44
454.34	3723.79
454.52	3927.42
454.70	3941.46
454.89	4021.04
455.07	3981.25
455.26	3925.08
455.44	3985.93
455.62	4065.51
455.81	4098.28
455.99	4131.05
456.17	3964.87
456.36	4217.65
456.54	4135.73
456.73	4159.13
456.91	4231.69
457.09	4219.99
457.28	4407.23
457.46	4241.05
457.64	4114.66
457.83	4397.87
458.01	4168.49
458.19	4414.25
458.38	4313.61
458.56	4243.39
458.74	4393.19
458.93	4386.16
459.11	4374.46
459.29	4360.42
459.48	4369.78
459.66	4362.76
459.84	4531.28
460.03	4521.92
460.21	4472.76
460.39	4475.10
460.57	4479.79
460.76	4550.00
460.94	4447.02
461.12	4407.23
461.31	4624.90
461.49	4489.15
461.67	4545.32
461.85	4622.56
462.04	4648.30
462.22	4875.34
462.40	4564.04
462.59	4620.22
462.77	4634.26
462.95	4727.88
463.13	4648.30
463.32	4690.43
463.50	4664.69
463.68	4936.19
463.86	5085.98
464.05	4770.01
464.23	4966.62
464.41	4961.94
464.59	4823.84
464.78	4856.61
464.96	4858.95
465.14	4814.48
465.32	4910.44
465.50	4908.10
465.69	5032.15
465.87	5050.88
466.05	4924.49
466.23	4929.17
466.41	5158.54
466.60	5048.54
466.78	4894.06
466.96	4858.95
467.14	4975.98
467.32	5107.05
467.51	5151.52
467.69	4858.95
467.87	5029.81
468.05	5205.35
468.23	5149.18
468.41	5177.26
468.60	5221.74
468.78	5193.65
468.96	5043.85
469.14	5081.30
469.32	5261.52
469.50	5259.18
469.69	5294.29
469.87	5359.83
470.05	5336.42
470.23	5497.92
470.41	5390.25
470.59	5371.53
470.77	5296.63
470.95	5298.97
471.14	5430.04
471.32	5486.22
471.50	5458.13
471.68	5572.82
471.86	5598.56
472.04	5666.44
472.22	5549.41
472.40	5593.88
472.58	5694.52
472.77	5724.95
472.95	5753.04
473.13	6015.18
473.31	5799.85
473.49	5738.99
473.67	5963.68
473.85	5827.93
474.03	5867.72
474.21	6033.90
474.39	5940.28
474.57	6038.58
474.75	6040.92
474.93	5996.45
475.12	6157.95
475.30	6136.88
475.48	6057.31
475.66	6349.87
475.84	6375.62
476.02	6097.10
476.20	6139.23
476.38	6494.99
476.56	6523.07
476.74	6478.60
476.92	6527.75
477.10	6326.47
477.28	6600.31
477.46	6693.93
477.64	6607.33
477.82	6684.57
478.00	6946.71
478.18	6729.04
478.36	7035.65
478.54	6979.48
478.72	7047.35
478.90	7117.57
479.08	7117.57
479.26	7112.89
479.44	7307.15
479.62	7288.43
479.80	7398.43
479.98	7232.26
480.16	7499.08
480.34	7309.49
480.52	7651.21
480.70	7592.70
480.88	7463.97
481.06	7571.63
481.24	7803.35
481.41	7887.61
481.59	7922.71
481.77	7941.44
481.95	7831.43
482.13	8081.87
482.31	8046.76
482.49	8198.90
482.67	8084.21
482.85	8341.67
483.03	8524.23
483.21	8599.13
483.39	8374.44
483.57	8456.36
483.74	8631.90
483.92	8615.51
484.10	8540.61
484.28	8629.56
484.46	8875.31
484.64	9172.56
484.82	8826.16
485.00	9027.45
485.18	9219.37
485.35	9451.08
485.53	9210.01
485.71	9315.33
485.89	9554.07
486.07	9495.55
486.25	9373.85
486.43	9469.81
486.61	9551.73
486.78	9781.10
486.96	9837.27
487.14	10108.77
487.32	10204.74
487.50	10068.98
487.68	10211.76
487.85	10218.78
488.03	10207.08
488.21	10738.38
488.39	10417.72
488.57	10668.16
488.75	10492.62
488.92	10490.28
489.10	10745.40
489.28	10712.63
489.46	10895.19
489.64	10888.17
489.81	11147.97
489.99	11063.71
490.17	11304.79
490.35	11311.81
490.53	11115.20
490.70	11552.88
490.88	11349.26
491.06	11375.00
491.24	11667.57
491.41	11630.12
491.59	11627.78
491.77	11793.96
491.95	12030.35
492.13	12131.00
492.30	12051.42
492.48	12173.13
492.66	12336.96
492.84	12341.64
493.01	12528.89
493.19	12381.43
493.37	12484.42
493.54	12805.07
493.72	12891.67
493.90	12638.89
494.08	12692.73
494.25	12854.22
494.43	13177.22
494.61	12861.24
494.79	13202.96
494.96	13060.19
495.14	13195.94
495.32	13605.53
495.49	13406.59
495.67	13359.78
495.85	13495.53
496.02	13720.22
496.20	13703.84
496.38	13738.94
496.55	13745.97
496.73	14092.37
496.91	13954.27
497.09	14204.71
497.26	14118.11
497.44	14040.87
497.62	14129.81
497.79	14368.55
497.97	14288.97
498.14	14717.29
498.32	14846.02
498.50	14726.65
498.67	14785.16
498.85	14504.30
499.03	14860.06
499.20	14546.43
499.38	15096.46
499.56	14890.49
499.73	15272.00
499.91	15119.86
500.08	15176.03
500.26	15335.19
500.44	15297.74
500.61	15583.29
500.79	15391.36
500.97	15468.60
501.14	15740.10
501.32	16121.61
501.49	15852.45
501.67	15740.10
501.84	15473.28
502.02	15723.72
502.20	15854.79
502.37	15964.79
502.55	15964.79
502.72	16231.62
502.90	16336.94
503.07	16287.79
503.25	16306.51
503.43	16006.92
503.60	16367.37
503.78	16240.98
503.95	16432.90
504.13	16393.11
504.30	16472.69
504.48	16657.59
504.65	16545.25
504.83	16716.11
505.01	17238.05
505.18	16833.13
505.36	17158.47
505.53	16592.06
505.71	17205.28
505.88	16908.03
506.06	16723.13
506.23	17011.01
506.41	16889.31
506.58	17366.78
506.76	17387.84
506.93	16950.16
507.11	16947.82
507.28	17523.59
507.46	17605.51
507.63	17511.89
507.81	17556.36
507.98	17212.30
508.16	17631.26
508.33	17937.87
508.50	17738.92
508.68	17685.09
508.85	17823.18
509.03	17848.93
509.20	17994.04
509.38	17970.63
509.55	18251.50
509.73	18366.18
509.90	18518.32
510.08	18120.43
510.25	18235.11
510.42	18211.71
510.60	18324.05
510.77	18354.48
510.95	18663.43
511.12	18361.50
511.30	18359.16
511.47	18422.36
511.64	18551.09
511.82	19005.15
511.99	18874.08
512.17	19119.84
512.34	18853.02
512.51	18911.53
512.69	19058.98
512.86	19344.53
513.04	19145.58
513.21	19316.44
513.38	18979.40
513.56	19370.27
513.73	18986.43
513.90	19379.64
514.08	19033.24
514.25	19463.90
514.43	19337.51
514.60	19688.59
514.77	19632.41
514.95	19578.58
515.12	19300.06
515.29	19873.49
515.47	19627.73
515.64	19489.64
515.81	19868.81
515.99	19988.18
516.16	20088.82
516.33	20311.17
516.51	20123.93
516.68	20156.69
516.85	20208.19
517.03	20180.10
517.20	20332.23
517.37	20325.21
517.54	20154.35
517.72	20341.60
517.89	20147.33
518.06	20477.35
518.24	20304.15
518.41	20395.43
518.58	20489.05
518.75	20641.18
518.93	20648.21
519.10	21139.72
519.27	20517.14
519.45	20732.47
519.62	20922.05
519.79	20978.22
519.96	20943.11
520.14	21109.29
520.31	20868.22
520.48	20952.48
520.65	21010.99
520.83	21453.35
521.00	21083.55
521.17	20947.79
521.34	21191.21
521.52	21273.13
521.69	21188.87
521.86	21671.02
522.03	21940.18
522.20	21699.11
522.38	21542.29
522.55	21614.85
522.72	21472.07
522.89	21860.60
523.07	22068.91
523.24	21572.72
523.41	21891.03
523.58	21771.66
523.75	21755.28
523.92	21984.65
524.10	22129.77
524.27	21986.99
524.44	22286.58
524.61	22380.20
524.78	22115.72
524.96	22441.06
525.13	22157.85
525.30	22356.80
525.47	22246.79
525.64	22260.84
525.81	22295.94
525.98	22757.03
526.16	22668.09
526.33	22590.85
526.50	22581.49
526.67	22614.26
526.84	22560.42
527.01	22698.52
527.18	22869.37
527.36	22869.37
527.53	22703.20
527.70	23019.17
527.87	23023.85
528.04	22965.34
528.21	23143.22
528.38	22773.41
528.55	23080.02
528.72	22967.68
528.89	23515.36
529.07	22916.19
529.24	23115.13
529.41	23377.27
529.58	23468.55
529.75	23087.04
529.92	23440.47
530.09	23433.44
530.26	23351.52
530.43	23524.72
530.60	23484.94
530.77	23527.06
530.94	23669.84
531.11	23328.12
531.28	23557.49
531.46	23676.86
531.63	23428.76
531.80	23623.03
531.97	24077.09
532.14	23793.89
532.31	23873.46
532.48	24170.71
532.65	23917.93
532.82	23686.22
532.99	23868.78
533.16	24044.32
533.33	24432.85
533.50	24044.32
533.67	24034.96
533.84	24109.86
534.01	24175.39
534.18	24243.27
534.35	24404.77
534.52	24336.89
534.69	24360.30
534.86	24545.20
535.03	24364.98
535.20	24011.56
535.37	24634.14
535.54	24425.83
535.71	24386.04
535.88	24606.05
536.05	24144.97
536.22	24865.85
536.38	24631.80
536.55	24783.93
536.72	24830.74
536.89	24727.76
537.06	24664.57
537.23	24929.05
537.40	24800.32
537.57	24877.55
537.74	24821.38
537.91	25214.59
538.08	25062.46
538.25	24758.19
538.42	24812.02
538.59	24627.12
538.75	25270.76
538.92	25092.88
539.09	25343.32
539.26	25179.48
539.43	25331.62
539.60	25532.90
539.77	25340.98
539.94	25486.09
540.11	25247.36
540.28	25221.61
540.44	25263.74
540.61	25523.54
540.78	25596.10
540.95	25497.80
541.12	25465.03
541.29	25390.13
541.46	25521.20
541.62	25535.24
541.79	25455.67
541.96	25502.48
542.13	25619.50
542.30	25729.51
542.47	25771.64
542.63	25977.61
542.80	26101.65
542.97	26190.59
543.14	26436.35
543.31	25986.97
543.48	26157.83
543.64	26092.29
543.81	26157.83
543.98	26223.36
544.15	26305.28
544.32	26452.73
544.48	26368.48
544.65	26017.40
544.82	26291.24
544.99	26333.37
545.16	26188.25
545.32	26588.49
545.49	26277.19
545.66	26621.25
545.83	26288.90
546.00	26930.20
546.16	26513.59
546.33	26244.43
546.50	26419.97
546.67	26686.79
546.83	26160.17
547.00	26288.90
547.17	26490.18
547.34	26630.62
547.50	26967.65
547.67	26801.47
547.84	26719.56
548.00	26630.62
548.17	27023.83
548.34	26579.12
548.51	27072.98
548.67	27091.70
548.84	26803.82
549.01	26883.39
549.18	26672.74
549.34	27140.85
549.51	26728.92
549.68	27185.32
549.84	26904.46
550.01	27384.27
550.18	27318.73
550.34	27194.68
550.51	27215.75
550.68	27098.72
550.84	26871.69
551.01	27283.62
551.18	27126.81
551.34	26969.99
551.51	27426.40
551.68	27234.47
551.84	27381.93
552.01	27175.96
552.18	27718.96
552.34	27571.51
552.51	27969.40
552.68	27278.94
552.84	27620.66
553.01	27442.78
553.18	27936.63
553.34	27604.28
553.51	27899.19
553.67	27723.65
553.84	27875.78
554.01	27611.30
554.17	27707.26
554.34	27740.03
554.51	27541.08
554.67	27618.32
554.84	27777.48
555.00	27566.83
555.17	27967.06
555.33	27714.28
555.50	27927.27
555.67	27674.49
555.83	27779.82
556.00	27903.87
556.16	28037.28
556.33	28074.73
556.50	28226.86
556.66	27964.72
556.83	28189.41
556.99	27978.76
557.16	28641.14
557.32	28510.07
557.49	28177.71
557.65	27974.08
557.82	28329.84
557.98	28273.67
558.15	28233.88
558.32	28467.94
558.48	28189.41
558.65	28577.94
558.81	28264.31
558.98	28411.76
559.14	28606.03
559.31	28063.02
559.47	28217.50
559.64	28430.49
559.80	28332.18
559.97	28498.36
560.13	28477.30
560.30	28442.19
560.46	28325.16
560.63	28402.40
560.79	28503.04
560.96	28655.18
561.12	28692.63
561.29	28505.38
561.45	28318.14
561.61	28725.39
561.78	28762.84
561.94	28718.37
562.11	28739.44
562.27	28786.25
562.44	28577.94
562.60	28711.35
562.77	28723.05
562.93	28102.81
563.10	28816.68
563.26	28521.77
563.42	28865.83
563.59	28889.23
563.75	28849.44
563.92	28830.72
564.08	28559.22
564.24	28575.60
564.41	28795.61
564.57	28617.73
564.74	28821.36
564.90	28882.21
565.07	29022.64
565.23	28947.75
565.39	28790.93
565.56	28552.20
565.72	28828.38
565.88	29298.83
566.05	28423.47
566.21	28601.35
566.38	28856.46
566.54	28917.32
566.70	29193.50
566.87	29221.59
567.03	29083.50
567.19	29570.33
567.36	29259.04
567.52	29006.26
567.68	29134.99
567.85	28601.35
568.01	29053.07
568.17	29186.48
568.34	29282.44
568.50	29088.18
568.66	28978.17
568.83	29256.70
568.99	29067.11
569.15	29022.64
569.32	29097.54
569.48	28959.45
569.64	29008.60
569.81	29109.24
569.97	29268.40
570.13	29097.54
570.30	29116.26
570.46	28996.90
570.62	28903.28
570.78	28783.91
570.95	28854.12
571.11	29273.08
571.27	28952.43
571.43	28992.22
571.60	29380.74
571.76	29144.35
571.92	29067.11
572.09	29577.35
572.25	29092.86
572.41	29216.91
572.57	29167.76
572.74	29193.50
572.90	29273.08
573.06	29345.64
573.22	29106.90
573.38	29167.76
573.55	29092.86
573.71	29708.42
573.87	29696.72
574.03	29312.87
574.20	29062.43
574.36	29076.48
574.52	29460.32
574.68	29298.83
574.84	29626.50
575.01	29331.59
575.17	29259.04
575.33	29366.70
575.49	29350.32
575.65	29095.20
575.82	29778.64
575.98	29280.10
576.14	29434.58
576.30	29598.41
576.46	29235.63
576.62	29516.50
576.79	29624.16
576.95	29198.18
577.11	29413.51
577.27	29685.01
577.43	29425.22
577.59	29617.14
577.75	29237.97
577.92	29165.42
578.08	29331.59
578.24	29465.00
578.40	29895.66
578.56	29642.88
578.72	29598.41
578.88	29965.88
579.04	30103.97
579.21	29532.88
579.37	29551.60
579.53	30225.68
579.69	29713.10
579.85	29577.35
580.01	29486.07
580.17	29448.62
580.33	29371.38
580.49	29172.44
580.65	29989.28
580.82	29612.46
580.98	29465.00
581.14	29577.35
581.30	29509.47
581.46	29546.92
581.62	29572.67
581.78	29177.12
581.94	29596.07
582.10	29366.70
582.26	29539.90
582.42	29626.50
582.58	29881.62
582.74	29649.91
582.90	29518.84
583.06	29813.74
583.22	30005.67
583.38	29401.81
583.54	29317.55
583.70	29837.15
583.86	29263.72
584.02	29273.08
584.18	29556.28
584.34	30061.84
584.50	29806.72
584.66	29851.19
584.82	29240.31
584.98	29385.43
585.14	29523.52
585.30	29261.38
585.46	29631.18
585.62	29170.10
585.78	29895.66
585.94	29418.19
586.10	29696.72
586.26	29575.01
586.42	29656.93
586.58	29968.22
586.74	29785.66
586.90	29132.65
587.06	29668.63
587.22	29900.34
587.38	29268.40
587.54	30108.65
587.70	30022.05
587.86	29748.21
588.02	29619.48
588.18	30246.74
588.34	29989.28
588.49	29968.22
588.65	29769.27
588.81	29701.40
588.97	29935.45
589.13	29729.48
589.29	29813.74
589.45	29790.34
589.61	29902.68
589.77	29958.86
589.93	29942.47
590.08	30150.78
590.24	30146.10
590.40	29972.90
590.56	29883.96
590.72	29996.31
590.88	29668.63
591.04	29621.82
591.20	29905.02
591.35	30118.01
591.51	30171.85
591.67	30352.07
591.83	30146.10
591.99	29914.39
