SpectraSuite Data File
++++++++++++++++++++++++++++++++++++
Date: Fri Oct 18 13:58:33 GMT-05:00 2013
User: bianchi
Dark Spectrum Present: No
Reference Spectrum Present: No
Number of Sampled Component Spectra: 1
Spectrometers: USB2+H05261
Integration Time (usec): 50000 (USB2+H05261)
Spectra Averaged: 1 (USB2+H05261)
Boxcar Smoothing: 0 (USB2+H05261)
Correct for Electrical Dark: No (USB2+H05261)
Strobe/Lamp Enabled: No (USB2+H05261)
Correct for Detector Non-linearity: No (USB2+H05261)
Correct for Stray Light: No (USB2+H05261)
Number of Pixels in Processed Spectrum: 2048
>>>>>Begin Processed Spectral Data<<<<<
365.73	0.00
365.92	0.00
366.12	0.00
366.32	0.00
366.52	0.00
366.72	0.00
366.91	0.00
367.11	0.00
367.31	0.00
367.51	0.00
367.70	0.00
367.90	0.00
368.10	0.00
368.30	0.00
368.49	0.00
368.69	0.00
368.89	0.00
369.09	0.00
369.28	0.00
369.48	0.00
369.68	0.00
369.87	0.00
370.07	0.00
370.27	0.00
370.47	0.00
370.66	84.26
370.86	133.41
371.06	110.01
371.25	107.66
371.45	56.17
371.65	95.96
371.84	110.01
372.04	138.09
372.24	173.20
372.44	163.84
372.63	205.97
372.83	215.33
373.03	177.88
373.22	170.86
373.42	154.48
373.62	189.58
373.81	191.92
374.01	266.82
374.21	215.33
374.40	238.73
374.60	273.84
374.79	224.69
374.99	259.80
375.19	191.92
375.38	280.86
375.58	276.18
375.78	276.18
375.97	269.16
376.17	264.48
376.37	212.99
376.56	220.01
376.76	210.65
376.95	276.18
377.15	301.93
377.35	280.86
377.54	248.10
377.74	248.10
377.93	355.76
378.13	248.10
378.33	278.52
378.52	283.20
378.72	283.20
378.91	327.68
379.11	273.84
379.31	330.02
379.50	269.16
379.70	234.05
379.89	290.23
380.09	285.55
380.28	273.84
380.48	301.93
380.68	318.31
380.87	269.16
381.07	346.40
381.26	327.68
381.46	351.08
381.65	292.57
381.85	301.93
382.04	330.02
382.24	299.59
382.43	372.15
382.63	285.55
382.83	346.40
383.02	290.23
383.22	383.85
383.41	381.51
383.61	383.85
383.80	362.78
384.00	290.23
384.19	327.68
384.39	341.72
384.58	315.97
384.78	332.36
384.97	353.42
385.17	308.95
385.36	414.27
385.56	425.98
385.75	315.97
385.95	430.66
386.14	397.89
386.34	397.89
386.53	395.55
386.72	360.44
386.92	381.51
387.11	440.02
387.31	393.21
387.50	376.83
387.70	402.57
387.89	388.53
388.09	423.64
388.28	451.72
388.48	486.83
388.67	454.06
388.86	440.02
389.06	379.17
389.25	491.51
389.45	449.38
389.64	463.43
389.84	491.51
390.03	554.71
390.22	470.45
390.42	491.51
390.61	379.17
390.81	472.79
391.00	489.17
391.19	543.00
391.39	533.64
391.58	524.28
391.78	528.96
391.97	484.49
392.16	472.79
392.36	629.60
392.55	505.56
392.75	552.37
392.94	589.82
393.13	554.71
393.33	557.05
393.52	496.19
393.71	571.09
393.91	603.86
394.10	650.67
394.29	564.07
394.49	629.60
394.68	617.90
394.88	678.76
395.07	608.54
395.26	491.51
395.46	601.52
395.65	648.33
395.84	610.88
396.04	681.10
396.23	638.97
396.42	587.47
396.62	627.26
396.81	643.65
397.00	676.41
397.19	716.20
397.39	645.99
397.58	674.07
397.77	669.39
397.97	669.39
398.16	678.76
398.35	727.91
398.55	734.93
398.74	730.25
398.93	723.23
399.12	678.76
399.32	667.05
399.51	704.50
399.70	662.37
399.90	674.07
400.09	648.33
400.28	755.99
400.47	837.91
400.67	798.12
400.86	751.31
401.05	819.19
401.24	781.74
401.44	821.53
401.63	842.59
401.82	821.53
402.01	748.97
402.21	821.53
402.40	786.42
402.59	856.64
402.78	809.83
402.97	819.19
403.17	844.93
403.36	901.11
403.55	884.72
403.74	952.60
403.93	950.26
404.13	858.98
404.32	779.40
404.51	936.21
404.70	903.45
404.89	929.19
405.09	903.45
405.28	922.17
405.47	901.11
405.66	961.96
405.85	1013.45
406.05	931.53
406.24	947.92
406.43	924.51
406.62	910.47
406.81	1078.99
407.00	980.68
407.20	1027.50
407.39	1069.62
407.58	1088.35
407.77	1121.12
407.96	1029.84
408.15	1048.56
408.34	1142.18
408.54	1069.62
408.73	1050.90
408.92	1046.22
409.11	1088.35
409.30	1149.20
409.49	1149.20
409.68	1111.75
409.87	1135.16
410.07	1149.20
410.26	1188.99
410.45	1193.67
410.64	1172.61
410.83	1191.33
411.02	1203.04
411.21	1203.04
411.40	1156.22
411.59	1219.42
411.78	1294.32
411.98	1226.44
412.17	1336.45
412.36	1313.04
412.55	1313.04
412.74	1352.83
412.93	1357.51
413.12	1282.61
413.31	1423.05
413.50	1329.42
413.69	1394.96
413.88	1378.58
414.07	1409.00
414.26	1432.41
414.45	1488.58
414.64	1458.15
414.83	1404.32
415.02	1486.24
415.22	1521.35
415.41	1528.37
415.60	1509.65
415.79	1589.22
415.98	1694.55
416.17	1544.75
416.36	1563.48
416.55	1636.03
416.74	1652.42
416.93	1722.63
417.12	1607.95
417.31	1689.87
417.50	1633.69
417.69	1722.63
417.88	1668.80
418.07	1724.97
418.26	1680.50
418.45	1715.61
418.64	1886.47
418.83	1849.02
419.02	1764.76
419.21	1715.61
419.39	1881.79
419.58	1739.02
419.77	1757.74
419.96	1916.90
420.15	1795.19
420.34	1905.20
420.53	1748.38
420.72	1867.75
420.91	1851.36
421.10	1923.92
421.29	1930.94
421.48	1930.94
421.67	2038.61
421.86	1926.26
422.05	1863.07
422.24	1935.62
422.43	1956.69
422.61	1989.46
422.80	1954.35
422.99	2026.90
423.18	1956.69
423.37	2076.06
423.56	2040.95
423.75	2160.31
423.94	1989.46
424.13	1891.15
424.32	1949.67
424.50	2069.03
424.69	2050.31
424.88	2146.27
425.07	1952.01
425.26	1987.11
425.45	2005.84
425.64	2129.89
425.83	2120.53
426.01	2120.53
426.20	2019.88
426.39	2057.33
426.58	2076.06
426.77	1961.37
426.96	2022.22
427.15	2120.53
427.33	2111.16
427.52	2087.76
427.71	2190.74
427.90	2181.38
428.09	2181.38
428.28	2186.06
428.46	2190.74
428.65	2012.86
428.84	2214.15
429.03	2296.07
429.22	2139.25
429.40	2296.07
429.59	2244.57
429.78	2202.44
429.97	2136.91
430.16	2183.72
430.34	2225.85
430.53	2221.17
430.72	2345.22
430.91	2136.91
431.10	2272.66
431.28	2345.22
431.47	2380.32
431.66	2441.18
431.85	2263.30
432.03	2593.31
432.22	2394.37
432.41	2469.27
432.60	2438.84
432.79	2354.58
432.97	2450.54
433.16	2417.77
433.35	2403.73
433.54	2525.44
433.72	2401.39
433.91	2429.48
434.10	2607.36
434.28	2506.71
434.47	2670.55
434.66	2527.78
434.85	2567.57
435.03	2562.89
435.22	2492.67
435.41	2665.87
435.59	2513.74
435.78	2560.55
435.97	2679.91
436.16	2693.96
436.34	2675.23
436.53	2546.50
436.72	2754.81
436.90	2504.37
437.09	2656.51
437.28	2700.98
437.46	2619.06
437.65	2679.91
437.84	2752.47
438.02	2729.06
438.21	2808.64
438.40	2827.37
438.58	2860.13
438.77	2825.03
438.96	2888.22
439.14	2906.95
439.33	2937.37
439.52	2970.14
439.70	2986.52
439.89	3077.80
440.08	3073.12
440.26	3054.40
440.45	3016.95
440.63	3016.95
440.82	3054.40
441.01	3091.85
441.19	3082.49
441.38	3138.66
441.57	3260.37
441.75	3138.66
441.94	3150.36
442.12	3173.77
442.31	3206.53
442.50	3318.88
442.68	3197.17
442.87	3260.37
443.05	3255.69
443.24	3218.24
443.43	3267.39
443.61	3403.14
443.80	3428.88
443.98	3290.79
444.17	3197.17
444.35	3330.58
444.54	3496.76
444.73	3431.23
444.91	3468.67
445.10	3370.37
445.28	3431.23
445.47	3468.67
445.65	3459.31
445.84	3426.54
446.02	3461.65
446.21	3393.78
446.39	3471.01
446.58	3442.93
446.77	3372.71
446.95	3353.99
447.14	3290.79
447.32	3576.34
447.51	3449.95
447.69	3496.76
447.88	3597.40
448.06	3463.99
448.25	3438.25
448.43	3353.99
448.62	3555.27
448.80	3468.67
448.99	3531.87
449.17	3578.68
449.36	3557.61
449.54	3627.83
449.73	3581.02
449.91	3630.17
450.10	3588.04
450.28	3777.62
450.46	3625.49
450.65	3674.64
450.83	3691.02
451.02	3716.77
451.20	3735.50
451.39	3712.09
451.57	3861.88
451.76	3705.07
451.94	3751.88
452.13	3904.01
452.31	3838.48
452.49	3559.95
452.68	3878.27
452.86	3878.27
453.05	3815.07
453.23	4009.34
453.42	3953.16
453.60	3772.94
453.78	3819.75
453.97	3892.31
454.15	3868.91
454.34	3892.31
454.52	3918.06
454.70	3934.44
454.89	4004.66
455.07	3913.38
455.26	3997.64
455.44	4088.92
455.62	4023.38
455.81	4065.51
455.99	4203.60
456.17	4142.75
456.36	4142.75
456.54	4203.60
456.73	4173.18
456.91	4222.33
457.09	4187.22
457.28	4411.91
457.46	4156.79
457.64	4159.13
457.83	4294.88
458.01	4348.72
458.19	4402.55
458.38	4449.36
458.56	4442.34
458.74	4287.86
458.93	4287.86
459.11	4351.06
459.29	4407.23
459.48	4414.25
459.66	4402.55
459.84	4491.49
460.03	4482.13
460.21	4447.02
460.39	4624.90
460.57	4376.80
460.76	4407.23
460.94	4645.96
461.12	4533.62
461.31	4550.00
461.49	4580.43
461.67	4580.43
461.85	4723.20
462.04	4730.22
462.22	4781.71
462.40	4629.58
462.59	4716.18
462.77	4641.28
462.95	4704.48
463.13	4706.82
463.32	4814.48
463.50	4821.50
463.68	4793.42
463.86	4774.69
464.05	4765.33
464.23	4830.87
464.41	4924.49
464.59	4667.03
464.78	4856.61
464.96	4858.95
465.14	4971.30
465.32	4802.78
465.50	4812.14
465.69	5060.24
465.87	5039.17
466.05	4987.68
466.23	4908.10
466.41	5001.72
466.60	5067.26
466.78	4952.57
466.96	4922.15
467.14	4987.68
467.32	5263.86
467.51	5181.95
467.69	4973.64
467.87	5048.54
468.05	5177.26
468.23	4992.36
468.41	5088.32
468.60	5100.03
468.78	5160.88
468.96	5085.98
469.14	5053.22
469.32	5193.65
469.50	5214.71
469.69	5282.59
469.87	5254.50
470.05	5476.85
470.23	5390.25
470.41	5516.64
470.59	5378.55
470.77	5397.28
470.95	5474.51
471.14	5514.30
471.32	5453.45
471.50	5603.24
471.68	5701.54
471.86	5540.05
472.04	5643.03
472.22	5631.33
472.40	5521.32
472.58	5727.29
472.77	5823.25
472.95	5891.13
473.13	5851.34
473.31	5916.87
473.49	5753.04
473.67	5696.86
473.85	5942.62
474.03	6066.67
474.21	6031.56
474.39	5954.32
474.57	6017.52
474.75	6092.41
474.93	6094.76
475.12	6108.80
475.30	6022.20
475.48	6043.26
475.66	6246.89
475.84	6078.37
476.02	6516.05
476.20	6272.64
476.38	6483.28
476.56	6431.79
476.74	6300.72
476.92	6448.18
477.10	6710.32
477.28	6595.63
477.46	6555.84
477.64	6698.61
477.82	6715.00
478.00	6700.95
478.18	6832.02
478.36	6902.24
478.54	7035.65
478.72	7045.01
478.90	7101.19
479.08	7253.32
479.26	7119.91
479.44	7208.85
479.62	7225.23
479.80	7377.37
479.98	7382.05
480.16	7417.16
480.34	7454.61
480.52	7541.21
480.70	7749.51
480.88	7307.15
481.06	7698.02
481.24	7695.68
481.41	7761.22
481.59	7784.62
481.77	7702.70
481.95	7868.88
482.13	7934.42
482.31	8250.39
482.49	8142.72
482.67	8297.20
482.85	8255.07
483.03	8367.42
483.21	8538.27
483.39	8493.80
483.57	8601.47
483.74	8692.75
483.92	8784.03
484.10	8561.68
484.28	8676.37
484.46	8894.04
484.64	8938.51
484.82	8912.76
485.00	9207.67
485.18	9397.25
485.35	9329.38
485.53	9378.53
485.71	9413.63
485.89	9591.52
486.07	9376.19
486.25	9338.74
486.43	9504.92
486.61	9549.39
486.78	9640.67
486.96	9858.34
487.14	9879.40
487.32	10029.20
487.50	9944.94
487.68	10122.82
487.85	10218.78
488.03	10501.98
488.21	10509.01
488.39	10583.90
488.57	10530.07
488.75	10611.99
488.92	10864.77
489.10	10775.83
489.28	11033.29
489.46	10937.32
489.64	10883.49
489.81	11279.04
489.99	11571.61
490.17	11243.93
490.35	11414.79
490.53	11454.58
490.70	11618.42
490.88	11705.02
491.06	11566.93
491.24	11782.26
491.41	11716.72
491.59	11913.33
491.77	11688.64
491.95	12053.76
492.13	12138.02
492.30	12322.92
492.48	12435.27
492.66	12294.83
492.84	12067.80
493.01	12519.53
493.19	12397.82
493.37	12564.00
493.54	12432.93
493.72	12727.83
493.90	12692.73
494.08	13001.68
494.25	12730.17
494.43	13095.30
494.61	13020.40
494.79	13371.48
494.96	13074.23
495.14	13284.88
495.32	13359.78
495.49	13493.19
495.67	13586.81
495.85	13645.32
496.02	13816.18
496.20	13607.87
496.38	13799.80
496.55	13818.52
496.73	14111.09
496.91	14071.30
497.09	14267.91
497.26	14185.99
497.44	14106.41
497.62	14317.06
497.79	14190.67
497.97	14455.15
498.14	14501.96
498.32	14572.18
498.50	14827.29
498.67	14614.30
498.85	14728.99
499.03	14841.34
499.20	14801.55
499.38	14869.42
499.56	15044.96
499.73	15042.62
499.91	14965.39
500.08	15421.79
500.26	14860.06
500.44	15206.46
500.61	15520.09
500.79	15456.90
500.97	15667.55
501.14	15822.02
501.32	15857.13
501.49	15585.63
501.67	15611.37
501.84	15728.40
502.02	15742.44
502.20	15910.96
502.37	15896.92
502.55	16025.65
502.72	16002.24
502.90	15885.22
503.07	16512.48
503.25	16182.46
503.43	16222.25
503.60	16374.39
503.78	16149.70
503.95	16128.63
504.13	16395.45
504.30	16327.58
504.48	16088.84
504.65	16631.85
504.83	16840.15
505.01	16933.78
505.18	16739.51
505.36	16592.06
505.53	16837.81
505.71	17111.66
505.88	17139.74
506.06	17043.78
506.23	17130.38
506.41	17289.54
506.58	17209.96
506.76	17224.00
506.93	17151.45
507.11	17322.30
507.28	17378.48
507.46	17334.01
507.63	17490.82
507.81	17645.30
507.98	17818.50
508.16	17687.43
508.33	17867.65
508.50	17900.42
508.68	17804.46
508.85	17944.89
509.03	17706.15
509.20	17919.14
509.38	18146.17
509.55	18277.24
509.73	18150.85
509.90	18181.28
510.08	18211.71
510.25	18310.01
510.42	18312.35
510.60	18750.03
510.77	18614.28
510.95	18565.13
511.12	18508.96
511.30	18398.95
511.47	18787.48
511.64	18829.61
511.82	18937.27
511.99	18724.29
512.17	18965.36
512.34	18658.75
512.51	18902.17
512.69	18984.09
512.86	19044.94
513.04	19173.67
513.21	19096.43
513.38	19218.14
513.56	19566.88
513.73	19250.91
513.90	19377.30
514.08	19389.00
514.25	19592.62
514.43	19885.19
514.60	19822.00
514.77	19658.16
514.95	19983.49
515.12	19433.47
515.29	19468.58
515.47	19737.74
515.64	19697.95
515.81	20039.67
515.99	19946.05
516.16	20156.69
516.33	19999.88
516.51	20299.47
516.68	20027.96
516.85	20140.31
517.03	20177.76
517.20	20252.66
517.37	20374.36
517.54	20018.60
517.72	20346.28
517.89	20702.04
518.06	20105.20
518.24	20350.96
518.41	20397.77
518.58	20381.38
518.75	20573.31
518.93	20931.41
519.10	20903.32
519.27	20851.83
519.45	20503.09
519.62	21060.14
519.79	20926.73
519.96	20861.19
520.14	20926.73
520.31	20807.36
520.48	21216.96
520.65	21123.33
520.83	21181.85
521.00	21263.77
521.17	21144.40
521.34	21144.40
521.52	21748.26
521.69	21376.11
521.86	21652.30
522.03	21635.91
522.20	21521.23
522.38	21813.79
522.55	21774.00
522.72	21584.42
522.89	21731.87
523.07	21977.63
523.24	22036.14
523.41	21769.32
523.58	21626.55
523.75	22211.68
523.92	21888.69
524.10	22024.44
524.27	21752.94
524.44	21963.59
524.61	22377.86
524.78	22356.80
524.96	22164.87
525.13	22132.11
525.30	22005.72
525.47	22377.86
525.64	22459.78
525.81	22885.76
525.98	22398.93
526.16	22485.53
526.33	22600.21
526.50	22569.79
526.67	22527.66
526.84	22897.46
527.01	22698.52
527.18	22881.08
527.36	23042.57
527.53	23019.17
527.70	22883.42
527.87	23175.98
528.04	23253.22
528.21	23007.47
528.38	22761.71
528.55	23112.79
528.72	23129.17
528.89	23531.75
529.07	23070.66
529.24	23194.71
529.41	23433.44
529.58	23194.71
529.75	23323.44
529.92	23269.61
530.09	23206.41
530.26	23901.55
530.43	23770.48
530.60	23201.73
530.77	23414.72
530.94	23726.01
531.11	23501.32
531.28	23655.79
531.46	23915.59
531.63	23473.23
531.80	23765.80
531.97	23910.91
532.14	23634.73
532.31	23852.40
532.48	24151.99
532.65	24325.19
532.82	23793.89
532.99	23756.44
533.16	24252.63
533.33	24261.99
533.50	24334.55
533.67	24166.03
533.84	24119.22
534.01	23772.82
534.18	24278.38
534.35	24451.58
534.52	24175.39
534.69	24439.87
534.86	24645.84
535.03	24458.60
535.20	24505.41
535.37	24304.12
535.54	24554.56
535.71	24416.47
535.88	24484.34
536.05	24655.20
536.22	24467.96
536.38	24971.18
536.55	24730.10
536.72	24699.67
536.89	24716.06
537.06	24952.45
537.23	24907.98
537.40	24882.24
537.57	24723.08
537.74	25083.52
537.91	25085.86
538.08	25020.33
538.25	24755.85
538.42	24774.57
538.59	25120.97
538.75	24723.08
538.92	25106.93
539.09	25165.44
539.26	25027.35
539.43	25130.33
539.60	25394.81
539.77	25376.09
539.94	25710.78
540.11	25123.31
540.28	25621.84
540.44	24886.92
540.61	25188.85
540.78	25212.25
540.95	25450.99
541.12	25436.94
541.29	25603.12
541.46	25785.68
541.62	25544.61
541.79	25804.41
541.96	25212.25
542.13	25223.95
542.30	25598.44
542.47	25862.92
542.63	26047.82
542.80	26111.02
542.97	25902.71
543.14	26120.38
543.31	25876.96
543.48	26277.19
543.64	26115.70
543.81	26426.99
543.98	26366.13
544.15	26471.46
544.32	26422.31
544.48	26359.11
544.65	26501.89
544.82	26087.61
544.99	25975.27
545.16	26167.19
545.32	26101.65
545.49	26164.85
545.66	26745.30
545.83	26569.76
546.00	26670.40
546.16	26232.72
546.33	26352.09
546.50	26263.15
546.67	26979.36
546.83	26249.11
547.00	26588.49
547.17	26801.47
547.34	26644.66
547.50	27098.72
547.67	26824.88
547.84	26567.42
548.00	26651.68
548.17	27185.32
548.34	26864.67
548.51	27199.37
548.67	27101.06
548.84	27414.69
549.01	26696.15
549.18	27159.58
549.34	27285.97
549.51	27054.25
549.68	26757.00
549.84	27035.53
550.01	27208.73
550.18	27049.57
550.34	27257.88
550.51	27187.66
550.68	27384.27
550.84	26986.38
551.01	27213.41
551.18	27239.15
551.34	27103.40
551.51	27192.34
551.68	27353.84
551.84	27424.06
552.01	27152.55
552.18	27620.66
552.34	27178.30
552.51	27449.80
552.68	27197.02
552.84	27489.59
553.01	27658.11
553.18	27725.99
553.34	27714.28
553.51	27634.71
553.67	28023.23
553.84	28400.06
554.01	27725.99
554.17	27819.61
554.34	27814.93
554.51	27580.87
554.67	27695.56
554.84	27683.86
555.00	28023.23
555.17	27892.16
555.33	28137.92
555.50	27772.80
555.67	27775.14
555.83	27873.44
556.00	28067.70
556.16	27981.10
556.33	28252.61
556.50	28058.34
556.66	27969.40
556.83	28016.21
556.99	28245.58
557.16	28102.81
557.32	28362.61
557.49	28243.24
557.65	28163.67
557.82	28212.82
557.98	27946.00
558.15	27962.38
558.32	28498.36
558.48	28374.31
558.65	28465.60
558.81	27910.89
558.98	28215.16
559.14	28481.98
559.31	27964.72
559.47	28428.15
559.64	28168.35
559.80	28381.34
559.97	28343.89
560.13	28788.59
560.30	28725.39
560.46	28582.62
560.63	28493.68
560.79	28500.70
560.96	28404.74
561.12	28416.44
561.29	28414.10
561.45	28533.47
561.61	28364.95
561.78	28666.88
561.94	28863.49
562.11	28648.16
562.27	28713.69
562.44	28503.04
562.60	28360.27
562.77	28664.54
562.93	28685.61
563.10	29088.18
563.26	28430.49
563.42	28950.09
563.59	28535.81
563.75	29469.69
563.92	28617.73
564.08	28699.65
564.24	28730.08
564.41	28842.42
564.57	28741.78
564.74	28706.67
564.90	28868.17
565.07	28872.85
565.23	28856.46
565.39	29198.18
565.56	28929.02
565.72	28631.77
565.88	29071.79
566.05	28914.98
566.21	29036.69
566.38	28765.18
566.54	28861.15
566.70	29408.83
566.87	29259.04
567.03	29212.23
567.19	29095.20
567.36	29151.37
567.52	29249.67
567.68	29174.78
567.85	29078.82
568.01	29069.45
568.17	29263.72
568.34	29415.85
568.50	29516.50
568.66	29174.78
568.83	29429.90
568.99	29252.02
569.15	29151.37
569.32	29448.62
569.48	29036.69
569.64	28851.78
569.81	29069.45
569.97	29214.57
570.13	29455.64
570.30	29029.66
570.46	29181.80
570.62	29277.76
570.78	29060.09
570.95	28636.45
571.11	29324.57
571.27	29198.18
571.43	28769.86
571.60	29523.52
571.76	29156.05
571.92	29537.56
572.09	29369.04
572.25	29294.14
572.41	29193.50
572.57	29134.99
572.74	29481.39
572.90	29207.55
573.06	29357.34
573.22	28830.72
573.38	29380.74
573.55	29275.42
573.71	29598.41
573.87	29972.90
574.03	29577.35
574.20	29652.25
574.36	29240.31
574.52	29497.77
574.68	29420.53
574.84	29425.22
575.01	29326.91
575.17	29532.88
575.33	29345.64
575.49	29254.36
575.65	29457.98
575.82	29626.50
575.98	29427.56
576.14	29514.16
576.30	29516.50
576.46	29205.20
576.62	29326.91
576.79	29525.86
576.95	29340.96
577.11	29448.62
577.27	29415.85
577.43	29589.05
577.59	29436.92
577.75	29289.46
577.92	29160.73
578.08	28957.11
578.24	29347.98
578.40	29890.98
578.56	29472.03
578.72	29301.17
578.88	29394.79
579.04	29558.63
579.21	29497.77
579.37	29514.16
579.53	29610.12
579.69	29064.77
579.85	29116.26
580.01	29792.68
580.17	29469.69
580.33	29539.90
580.49	29502.45
580.65	29876.94
580.82	29806.72
580.98	29514.16
581.14	29371.38
581.30	29851.19
581.46	29483.73
581.62	29563.31
581.78	29638.20
581.94	29434.58
582.10	29567.99
582.26	29907.37
582.42	29563.31
582.58	29708.42
582.74	29329.25
582.90	29476.71
583.06	29565.65
583.22	29788.00
583.38	29539.90
583.54	29626.50
583.70	29589.05
583.86	29228.61
584.02	29626.50
584.18	29582.03
584.34	29811.40
584.50	29486.07
584.66	29879.28
584.82	29446.28
584.98	29450.96
585.14	29783.32
585.30	29474.37
585.46	29586.71
585.62	29628.84
585.78	29633.52
585.94	29261.38
586.10	29778.64
586.26	29846.51
586.42	29872.26
586.58	29834.81
586.74	29898.00
586.90	29301.17
587.06	29577.35
587.22	29493.09
587.38	29268.40
587.54	30033.75
587.70	30022.05
587.86	29996.31
588.02	29949.50
588.18	30213.98
588.34	29596.07
588.49	29303.51
588.65	29455.64
588.81	29663.95
588.97	29776.30
589.13	29773.95
589.29	29614.80
589.45	29280.10
589.61	29811.40
589.77	30286.53
589.93	30171.85
590.08	30176.53
590.24	29923.75
590.40	30129.72
590.56	30000.99
590.72	29631.18
590.88	29799.70
591.04	29736.51
591.20	30103.97
591.35	29706.08
591.51	30316.96
591.67	30136.74
591.83	30136.74
591.99	30125.04
