SpectraSuite Data File
++++++++++++++++++++++++++++++++++++
Date: Fri Oct 18 13:58:22 GMT-05:00 2013
User: bianchi
Dark Spectrum Present: No
Reference Spectrum Present: No
Number of Sampled Component Spectra: 1
Spectrometers: USB2+H05261
Integration Time (usec): 50000 (USB2+H05261)
Spectra Averaged: 1 (USB2+H05261)
Boxcar Smoothing: 0 (USB2+H05261)
Correct for Electrical Dark: No (USB2+H05261)
Strobe/Lamp Enabled: No (USB2+H05261)
Correct for Detector Non-linearity: No (USB2+H05261)
Correct for Stray Light: No (USB2+H05261)
Number of Pixels in Processed Spectrum: 2048
>>>>>Begin Processed Spectral Data<<<<<
365.73	0.00
365.92	0.00
366.12	0.00
366.32	0.00
366.52	0.00
366.72	0.00
366.91	0.00
367.11	0.00
367.31	0.00
367.51	0.00
367.70	0.00
367.90	0.00
368.10	0.00
368.30	0.00
368.49	0.00
368.69	0.00
368.89	0.00
369.09	0.00
369.28	0.00
369.48	0.00
369.68	0.00
369.87	0.00
370.07	0.00
370.27	0.00
370.47	0.00
370.66	124.05
370.86	110.01
371.06	198.95
371.25	168.52
371.45	149.79
371.65	53.83
371.84	173.20
372.04	177.88
372.24	205.97
372.44	189.58
372.63	238.73
372.83	175.54
373.03	161.50
373.22	210.65
373.42	212.99
373.62	259.80
373.81	220.01
374.01	259.80
374.21	252.78
374.40	217.67
374.60	175.54
374.79	262.14
374.99	238.73
375.19	173.20
375.38	184.90
375.58	196.60
375.78	266.82
375.97	257.46
376.17	369.80
376.37	208.31
376.56	276.18
376.76	276.18
376.95	327.68
377.15	241.08
377.35	292.57
377.54	198.95
377.74	229.37
377.93	266.82
378.13	243.42
378.33	339.38
378.52	290.23
378.72	278.52
378.91	297.25
379.11	241.08
379.31	259.80
379.50	388.53
379.70	245.76
379.89	344.06
380.09	325.33
380.28	330.02
380.48	313.63
380.68	301.93
380.87	276.18
381.07	290.23
381.26	330.02
381.46	304.27
381.65	283.20
381.85	292.57
382.04	369.80
382.24	334.70
382.43	372.15
382.63	372.15
382.83	290.23
383.02	322.99
383.22	346.40
383.41	318.31
383.61	264.48
383.80	318.31
384.00	299.59
384.19	311.29
384.39	362.78
384.58	283.20
384.78	374.49
384.97	344.06
385.17	259.80
385.36	435.34
385.56	376.83
385.75	400.23
385.95	369.80
386.14	456.40
386.34	358.10
386.53	425.98
386.72	402.57
386.92	339.38
387.11	425.98
387.31	456.40
387.50	407.25
387.70	421.30
387.89	388.53
388.09	505.56
388.28	454.06
388.48	442.36
388.67	472.79
388.86	477.47
389.06	451.72
389.25	404.91
389.45	500.87
389.64	477.47
389.84	397.89
390.03	470.45
390.22	486.83
390.42	442.36
390.61	486.83
390.81	447.04
391.00	493.85
391.19	491.51
391.39	524.28
391.58	475.13
391.78	554.71
391.97	521.94
392.16	491.51
392.36	629.60
392.55	533.64
392.75	559.39
392.94	566.41
393.13	528.96
393.33	566.41
393.52	507.90
393.71	559.39
393.91	533.64
394.10	557.05
394.29	507.90
394.49	517.26
394.68	601.52
394.88	578.11
395.07	613.22
395.26	660.03
395.46	624.92
395.65	585.13
395.84	592.16
396.04	645.99
396.23	676.41
396.42	528.96
396.62	669.39
396.81	678.76
397.00	671.73
397.19	664.71
397.39	610.88
397.58	653.01
397.77	688.12
397.97	664.71
398.16	725.57
398.35	688.12
398.55	671.73
398.74	753.65
398.93	739.61
399.12	697.48
399.32	571.09
399.51	648.33
399.70	793.44
399.90	795.78
400.09	681.10
400.28	777.06
400.47	758.33
400.67	823.87
400.86	842.59
401.05	781.74
401.24	774.72
401.44	765.36
401.63	753.65
401.82	863.66
402.01	751.31
402.21	793.44
402.40	744.29
402.59	821.53
402.78	830.89
402.97	868.34
403.17	812.17
403.36	798.12
403.55	816.85
403.74	844.93
403.93	854.30
404.13	924.51
404.32	887.06
404.51	940.90
404.70	908.13
404.89	880.04
405.09	910.47
405.28	950.26
405.47	933.87
405.66	983.02
405.85	889.40
406.05	964.30
406.24	898.77
406.43	1011.11
406.62	959.62
406.81	1041.54
407.00	1036.86
407.20	1029.84
407.39	987.71
407.58	1109.41
407.77	1036.86
407.96	1022.81
408.15	1128.14
408.34	1088.35
408.54	1046.22
408.73	947.92
408.92	1034.52
409.11	1076.65
409.30	1100.05
409.49	1109.41
409.68	1071.97
409.87	1118.78
410.07	1067.28
410.26	1167.93
410.45	1231.12
410.64	1207.72
410.83	1184.31
411.02	1153.88
411.21	1317.72
411.40	1217.08
411.59	1198.35
411.78	1343.47
411.98	1233.46
412.17	1268.57
412.36	1196.01
412.55	1240.48
412.74	1378.58
412.93	1252.19
413.12	1329.42
413.31	1432.41
413.50	1369.21
413.69	1409.00
413.88	1420.71
414.07	1411.34
414.26	1401.98
414.45	1488.58
414.64	1472.20
414.83	1521.35
415.02	1411.34
415.22	1486.24
415.41	1502.62
415.60	1636.03
415.79	1540.07
415.98	1544.75
416.17	1645.40
416.36	1483.90
416.55	1654.76
416.74	1654.76
416.93	1636.03
417.12	1591.56
417.31	1708.59
417.50	1746.04
417.69	1825.62
417.88	1741.36
418.07	1717.95
418.26	1699.23
418.45	1689.87
418.64	1764.76
418.83	1717.95
419.02	1919.24
419.21	1874.77
419.39	1792.85
419.58	1755.40
419.77	1771.79
419.96	1813.92
420.15	1865.41
420.34	1783.49
420.53	1900.52
420.72	1863.07
420.91	1816.26
421.10	1909.88
421.29	2001.16
421.48	1933.28
421.67	1905.20
421.86	1898.17
422.05	1923.92
422.24	1926.26
422.43	2057.33
422.61	1991.80
422.80	2029.24
422.99	2001.16
423.18	2052.65
423.37	1998.82
423.56	1940.30
423.75	2040.95
423.94	1963.71
424.13	1809.23
424.32	1877.11
424.50	1973.07
424.69	2080.74
424.88	2204.78
425.07	2003.50
425.26	2005.84
425.45	1977.75
425.64	2036.27
425.83	1980.09
426.01	2031.58
426.20	2040.95
426.39	2073.71
426.58	2069.03
426.77	2064.35
426.96	2071.37
427.15	2101.80
427.33	2085.42
427.52	2165.00
427.71	2071.37
427.90	2064.35
428.09	2172.02
428.28	2188.40
428.46	2169.68
428.65	2162.66
428.84	2251.60
429.03	2204.78
429.22	2270.32
429.40	2277.34
429.59	2352.24
429.78	2165.00
429.97	2115.84
430.16	2209.47
430.34	2265.64
430.53	2235.21
430.72	2270.32
430.91	2223.51
431.10	2300.75
431.28	2267.98
431.47	2303.09
431.66	2389.69
431.85	2256.28
432.03	2436.50
432.22	2553.52
432.41	2438.84
432.60	2459.90
432.79	2256.28
432.97	2502.03
433.16	2429.48
433.35	2478.63
433.54	2471.61
433.72	2614.38
433.91	2586.29
434.10	2466.92
434.28	2499.69
434.47	2487.99
434.66	2527.78
434.85	2600.34
435.03	2672.89
435.22	2572.25
435.41	2558.21
435.59	2621.40
435.78	2588.63
435.97	2555.86
436.16	2703.32
436.34	2628.42
436.53	2696.30
436.72	2724.38
436.90	2621.40
437.09	2628.42
437.28	2698.64
437.46	2834.39
437.65	2684.59
437.84	2722.04
438.02	2745.45
438.21	2860.13
438.40	2672.89
438.58	2693.96
438.77	2944.39
438.96	2808.64
439.14	2881.20
439.33	2932.69
439.52	2937.37
439.70	3016.95
439.89	3155.04
440.08	3047.38
440.26	3019.29
440.45	2960.78
440.63	3056.74
440.82	3162.06
441.01	2925.67
441.19	3005.25
441.38	3033.33
441.57	3035.67
441.75	3241.64
441.94	3309.52
442.12	3248.66
442.31	3246.32
442.50	3318.88
442.68	3215.90
442.87	3169.09
443.05	3346.97
443.24	3248.66
443.43	3379.73
443.61	3428.88
443.80	3452.29
443.98	3276.75
444.17	3201.85
444.35	3309.52
444.54	3449.95
444.73	3433.57
444.91	3403.14
445.10	3295.47
445.28	3370.37
445.47	3405.48
445.65	3288.45
445.84	3407.82
446.02	3531.87
446.21	3520.17
446.39	3389.10
446.58	3468.67
446.77	3375.05
446.95	3435.91
447.14	3487.40
447.32	3520.17
447.51	3463.99
447.69	3421.86
447.88	3353.99
448.06	3435.91
448.25	3454.63
448.43	3447.61
448.62	3492.08
448.80	3527.19
448.99	3562.30
449.17	3520.17
449.36	3599.74
449.54	3552.93
449.73	3674.64
449.91	3691.02
450.10	3613.79
450.28	3709.75
450.46	3583.36
450.65	3595.06
450.83	3693.37
451.02	3810.39
451.20	3782.31
451.39	3761.24
451.57	3693.37
451.76	3716.77
451.94	3852.52
452.13	3831.46
452.31	3840.82
452.49	3691.02
452.68	3845.50
452.86	3845.50
453.05	3896.99
453.23	3981.25
453.42	3815.07
453.60	3765.92
453.78	3976.57
453.97	3826.78
454.15	3817.41
454.34	3976.57
454.52	4009.34
454.70	3948.48
454.89	4063.17
455.07	4002.32
455.26	3992.95
455.44	3974.23
455.62	4030.40
455.81	4042.11
455.99	4009.34
456.17	4128.70
456.36	4189.56
456.54	4271.48
456.73	4042.11
456.91	4142.75
457.09	4159.13
457.28	4355.74
457.46	4149.77
457.64	4224.67
457.83	4271.48
458.01	4156.79
458.19	4507.87
458.38	4329.99
458.56	4257.43
458.74	4269.14
458.93	4400.21
459.11	4454.04
459.29	4482.13
459.48	4344.03
459.66	4526.60
459.84	4409.57
460.03	4409.57
460.21	4587.45
460.39	4519.57
460.57	4493.83
460.76	4547.66
460.94	4540.64
461.12	4615.54
461.31	4596.81
461.49	4624.90
461.67	4456.38
461.85	4709.16
462.04	4762.99
462.22	4802.78
462.40	4709.16
462.59	4660.01
462.77	4741.93
462.95	4751.29
463.13	4636.60
463.32	4685.75
463.50	4739.58
463.68	4734.90
463.86	4802.78
464.05	4765.33
464.23	4652.98
464.41	4858.95
464.59	4802.78
464.78	4901.08
464.96	4978.32
465.14	4936.19
465.32	4980.66
465.50	4954.91
465.69	4978.32
465.87	5036.83
466.05	5004.07
466.23	4999.38
466.41	4877.68
466.60	5008.75
466.78	5158.54
466.96	4975.98
467.14	4947.89
467.32	4987.68
467.51	5107.05
467.69	4947.89
467.87	5085.98
468.05	4901.08
468.23	5064.92
468.41	5062.58
468.60	5004.07
468.78	5338.76
468.96	5163.22
469.14	5270.89
469.32	5200.67
469.50	5207.69
469.69	5160.88
469.87	5334.08
470.05	5430.04
470.23	5441.75
470.41	5413.66
470.59	5514.30
470.77	5324.72
470.95	5434.72
471.14	5586.86
471.32	5401.96
471.50	5657.07
471.68	5446.43
471.86	5619.63
472.04	5493.24
472.22	5678.14
472.40	5593.88
472.58	5544.73
472.77	5743.67
472.95	5710.91
473.13	5944.96
473.31	5643.03
473.49	5790.49
473.67	5792.83
473.85	5858.36
474.03	6045.60
474.21	5783.46
474.39	6066.67
474.57	6153.27
474.75	6076.03
474.93	6242.21
475.12	6024.54
475.30	6155.61
475.48	6193.06
475.66	6204.76
475.84	6113.48
476.02	6174.33
476.20	6202.42
476.38	6452.86
476.56	6506.69
476.74	6740.74
476.92	6487.96
477.10	6459.88
477.28	6607.33
477.46	6541.80
477.64	6567.54
477.82	6686.91
478.00	6944.37
478.18	6932.67
478.36	6906.92
478.54	6991.18
478.72	6897.56
478.90	7049.69
479.08	7042.67
479.26	7162.04
479.44	7180.76
479.62	7258.00
479.80	7173.74
479.98	7499.08
480.16	7700.36
480.34	7576.31
480.52	7517.80
480.70	7606.74
480.88	7412.48
481.06	7681.64
481.24	7520.14
481.41	7801.01
481.59	8077.19
481.77	7934.42
481.95	7880.58
482.13	7976.55
482.31	7941.44
482.49	8124.00
482.67	8212.94
482.85	8327.63
483.03	8411.89
483.21	8470.40
483.39	8292.52
483.57	8243.37
483.74	8575.72
483.92	8578.06
484.10	8793.39
484.28	9001.70
484.46	8908.08
484.64	9081.28
484.82	8987.66
485.00	9174.90
485.18	9128.09
485.35	9320.01
485.53	9348.10
485.71	9343.42
485.89	9378.53
486.07	9502.58
486.25	9575.13
486.43	9638.33
486.61	9572.79
486.78	9713.22
486.96	9745.99
487.14	10099.41
487.32	9703.86
487.50	10099.41
487.68	10214.10
487.85	10228.14
488.03	10478.58
488.21	10745.40
488.39	10513.69
488.57	10794.55
488.75	10867.11
488.92	10609.65
489.10	10977.11
489.28	10944.34
489.46	11089.46
489.64	10829.66
489.81	11199.46
489.99	11023.92
490.17	11318.83
490.35	11138.61
490.53	11323.51
490.70	11445.22
490.88	11389.05
491.06	11623.10
491.24	11866.52
491.41	11609.06
491.59	11929.71
491.77	11941.41
491.95	12009.29
492.13	12116.95
492.30	12194.19
492.48	11988.22
492.66	12046.74
492.84	12292.49
493.01	12484.42
493.19	12482.08
493.37	12795.71
493.54	12683.36
493.72	12519.53
493.90	12828.48
494.08	12767.62
494.25	12903.37
494.43	13018.06
494.61	13387.86
494.79	13202.96
494.96	13488.51
495.14	13296.58
495.32	13247.43
495.49	13572.77
495.67	13458.08
495.85	13624.26
496.02	13666.39
496.20	13783.41
496.38	13647.66
496.55	13724.90
496.73	14230.46
496.91	14022.15
497.09	13956.61
497.26	14153.22
497.44	14139.18
497.62	14061.94
497.79	14228.12
497.97	14480.89
498.14	14626.01
498.32	14693.88
498.50	14759.42
498.67	15028.58
498.85	14626.01
499.03	14944.32
499.20	15026.24
499.38	14867.08
499.56	14958.36
499.73	15084.75
499.91	15349.23
500.08	15260.29
500.26	15028.58
500.44	15213.48
500.61	15358.60
500.79	15438.17
500.97	15669.89
501.14	15613.71
501.32	15749.46
501.49	15735.42
501.67	15702.65
501.84	15438.17
502.02	15730.74
502.20	15803.30
502.37	16119.27
502.55	16208.21
502.72	16170.76
502.90	16248.00
503.07	16053.73
503.25	16194.17
503.43	16322.90
503.60	16404.81
503.78	16570.99
503.95	16269.06
504.13	16292.47
504.30	16456.31
504.48	16449.28
504.65	16594.40
504.83	16884.62
505.01	16762.92
505.18	16954.84
505.36	16978.25
505.53	16697.38
505.71	16819.09
505.88	16898.67
506.06	16875.26
506.23	17219.32
506.41	17139.74
506.58	17025.06
506.76	17118.68
506.93	16851.86
507.11	17273.15
507.28	17647.64
507.46	17694.45
507.63	17612.53
507.81	17535.29
507.98	17568.06
508.16	17778.71
508.33	17619.55
508.50	17736.58
508.68	17507.21
508.85	18183.62
509.03	17844.24
509.20	17844.24
509.38	18225.75
509.55	18113.41
509.73	18469.17
509.90	17975.31
510.08	18005.74
510.25	18122.77
510.42	18551.09
510.60	18387.25
510.77	18714.92
510.95	18642.37
511.12	18572.15
511.30	18300.65
511.47	18665.77
511.64	18600.24
511.82	19005.15
511.99	19042.60
512.17	18932.59
512.34	18984.09
512.51	19087.07
512.69	19161.97
512.86	19073.03
513.04	19241.54
513.21	19129.20
513.38	19290.70
513.56	19264.95
513.73	19379.64
513.90	19609.01
514.08	19129.20
514.25	19405.38
514.43	19690.93
514.60	19520.07
514.77	19597.31
514.95	19910.94
515.12	19735.40
515.29	19875.83
515.47	19594.96
515.64	19981.15
515.81	19744.76
515.99	19908.60
516.16	20037.33
516.33	20114.56
516.51	20465.64
516.68	19957.75
516.85	20163.72
517.03	20152.01
517.20	20203.50
517.37	20147.33
517.54	20713.74
517.72	20613.10
517.89	20283.08
518.06	20526.50
518.24	20414.15
518.41	20652.89
518.58	20767.57
518.75	20531.18
518.93	20458.62
519.10	20657.57
519.27	20945.45
519.45	20999.29
519.62	20849.49
519.79	20772.25
519.96	20847.15
520.14	21097.59
520.31	21228.66
520.48	21268.45
520.65	20865.88
520.83	20999.29
521.00	21287.17
521.17	21130.36
521.34	21043.76
521.52	21238.02
521.69	21474.42
521.86	21198.23
522.03	21806.77
522.20	21605.49
522.38	21692.08
522.55	21804.43
522.72	21579.74
522.89	21806.77
523.07	21919.12
523.24	21944.86
523.41	22017.42
523.58	21722.51
523.75	22202.32
523.92	22101.68
524.10	21806.77
524.27	21921.46
524.44	22214.02
524.61	22429.35
524.78	22195.30
524.96	22270.20
525.13	21919.12
525.30	22361.48
525.47	22572.13
525.64	22356.80
525.81	22469.14
525.98	22405.95
526.16	22134.45
526.33	22696.17
526.50	22824.90
526.67	22412.97
526.84	22534.68
527.01	22464.46
527.18	22319.35
527.36	23105.77
527.53	22792.14
527.70	22972.36
527.87	22820.22
528.04	22925.55
528.21	22857.67
528.38	22965.34
528.55	23260.24
528.72	22953.63
528.89	23573.88
529.07	22963.00
529.24	23309.40
529.41	23513.02
529.58	23183.01
529.75	23019.17
529.92	23080.02
530.09	23213.43
530.26	23405.36
530.43	23704.95
530.60	23484.94
530.77	23197.05
530.94	23316.42
531.11	23180.67
531.28	23548.13
531.46	23903.89
531.63	23541.11
531.80	23754.10
531.97	24130.92
532.14	23714.31
532.31	23910.91
532.48	24060.71
532.65	23915.59
532.82	24049.00
532.99	23976.45
533.16	23913.25
533.33	23491.96
533.50	24407.11
533.67	24212.84
533.84	24004.53
534.01	24142.63
534.18	24102.84
534.35	24011.56
534.52	24077.09
534.69	24439.87
534.86	24704.35
535.03	24332.21
535.20	24470.30
535.37	24521.79
535.54	24680.95
535.71	24238.59
535.88	24226.89
536.05	24608.39
536.22	24547.54
536.38	24805.00
536.55	24538.18
536.72	24664.57
536.89	24489.03
537.06	24545.20
537.23	24940.75
537.40	24812.02
537.57	24802.66
537.74	25268.42
537.91	25165.44
538.08	25268.42
538.25	25076.50
538.42	24842.45
538.59	25340.98
538.75	24655.20
538.92	24788.61
539.09	24985.22
539.26	25256.72
539.43	25029.69
539.60	25593.76
539.77	25268.42
539.94	25413.54
540.11	25177.14
540.28	25275.45
540.44	25280.13
540.61	25146.72
540.78	25560.99
540.95	25432.26
541.12	25509.50
541.29	25469.71
541.46	25626.53
541.62	25263.74
541.79	25383.11
541.96	25689.72
542.13	25497.80
542.30	25806.75
542.47	26057.18
542.63	25907.39
542.80	25743.55
542.97	25663.97
543.14	26246.77
543.31	25951.86
543.48	25855.90
543.64	26176.55
543.81	26211.66
543.98	26345.07
544.15	26111.02
544.32	26288.90
544.48	26483.16
544.65	26436.35
544.82	26373.16
544.99	26080.59
545.16	26185.91
545.32	26089.95
545.49	26654.02
545.66	26455.08
545.83	26881.05
546.00	26588.49
546.16	26700.83
546.33	26487.84
546.50	26066.55
546.67	26632.96
546.83	26125.06
547.00	26672.74
547.17	26752.32
547.34	26419.97
547.50	27054.25
547.67	26850.63
547.84	27070.64
548.00	26827.22
548.17	26874.03
548.34	26548.70
548.51	27056.59
548.67	26937.23
548.84	27243.84
549.01	27072.98
549.18	26958.29
549.34	26733.60
549.51	27307.03
549.68	26946.59
549.84	27115.11
550.01	27243.84
550.18	26881.05
550.34	26740.62
550.51	27098.72
550.68	27257.88
550.84	27101.06
551.01	27002.76
551.18	27267.24
551.34	26984.04
551.51	27323.41
551.68	27178.30
551.84	27552.79
552.01	27402.99
552.18	27466.19
552.34	27536.40
552.51	27770.46
552.68	27288.31
552.84	27641.73
553.01	27386.61
553.18	27332.78
553.34	27791.52
553.51	27461.51
553.67	27721.30
553.84	27576.19
554.01	28053.66
554.17	27784.50
554.34	27967.06
554.51	27508.32
554.67	28067.70
554.84	27658.11
555.00	27711.94
555.17	27578.53
555.33	27611.30
555.50	27976.42
555.67	27597.26
555.83	27917.91
556.00	27955.36
556.16	28114.52
556.33	27913.23
556.50	27889.82
556.66	28081.75
556.83	27852.38
556.99	28381.34
557.16	28020.89
557.32	28170.69
557.49	28187.07
557.65	27938.97
557.82	28386.02
557.98	27859.40
558.15	28479.64
558.32	27857.06
558.48	28439.85
558.65	28481.98
558.81	28112.17
558.98	28304.10
559.14	28362.61
559.31	28093.45
559.47	28208.14
559.64	28315.80
559.80	28095.79
559.97	28135.58
560.13	28173.03
560.30	28318.14
560.46	28233.88
560.63	28285.37
560.79	28973.49
560.96	28409.42
561.12	28451.55
561.29	28425.81
561.45	28336.87
561.61	28512.41
561.78	28868.17
561.94	28563.90
562.11	28957.11
562.27	28549.85
562.44	28671.56
562.60	28837.74
562.77	28496.02
562.93	28847.10
563.10	28914.98
563.26	28070.04
563.42	28868.17
563.59	28769.86
563.75	29071.79
563.92	28889.23
564.08	28774.55
564.24	28652.84
564.41	28877.53
564.57	28453.89
564.74	28734.76
564.90	29085.84
565.07	28802.63
565.23	28954.77
565.39	28922.00
565.56	28807.31
565.72	28423.47
565.88	28844.76
566.05	28694.97
566.21	28868.17
566.38	29032.00
566.54	28978.17
566.70	29111.58
566.87	29076.48
567.03	28861.15
567.19	29324.57
567.36	29455.64
567.52	28826.04
567.68	28751.14
567.85	28826.04
568.01	29024.98
568.17	29076.48
568.34	29291.80
568.50	29029.66
568.66	29198.18
568.83	29242.65
568.99	29160.73
569.15	29249.67
569.32	29088.18
569.48	28914.98
569.64	29163.08
569.81	29067.11
569.97	29392.45
570.13	29455.64
570.30	29247.33
570.46	29139.67
570.62	28989.88
570.78	29205.20
570.95	28816.68
571.11	29036.69
571.27	29270.74
571.43	29223.93
571.60	29113.92
571.76	28842.42
571.92	28957.11
572.09	29500.11
572.25	29193.50
572.41	28926.68
572.57	29298.83
572.74	29163.08
572.90	29106.90
573.06	29385.43
573.22	29420.53
573.38	29457.98
573.55	29170.10
573.71	29406.49
573.87	29418.19
574.03	29413.51
574.20	29825.45
574.36	29333.93
574.52	29310.53
574.68	29291.80
574.84	29120.95
575.01	29308.19
575.17	29308.19
575.33	29425.22
575.49	29450.96
575.65	29589.05
575.82	29593.73
575.98	29085.84
576.14	29535.22
576.30	29619.48
576.46	29090.52
576.62	29336.27
576.79	29570.33
576.95	29394.79
577.11	29553.94
577.27	29659.27
577.43	29589.05
577.59	29603.10
577.75	29364.36
577.92	29310.53
578.08	29219.25
578.24	29518.84
578.40	29380.74
578.56	29359.68
578.72	29362.02
578.88	29783.32
579.04	29820.77
579.21	29474.37
579.37	29762.25
579.53	29275.42
579.69	29387.77
579.85	29230.95
580.01	29532.88
580.17	29488.41
580.33	29434.58
580.49	29322.23
580.65	29514.16
580.82	29488.41
580.98	29502.45
581.14	29701.40
581.30	29556.28
581.46	29401.81
581.62	29628.84
581.78	29476.71
581.94	29565.65
582.10	29493.09
582.26	29584.37
582.42	29312.87
582.58	29855.87
582.74	29685.01
582.90	29633.52
583.06	29890.98
583.22	29347.98
583.38	29514.16
583.54	28940.72
583.70	29481.39
583.86	29907.37
584.02	29371.38
584.18	29841.83
584.34	29766.93
584.50	29586.71
584.66	29649.91
584.82	29654.59
584.98	29724.80
585.14	29780.98
585.30	29331.59
585.46	29303.51
585.62	29132.65
585.78	29572.67
585.94	29495.43
586.10	29685.01
586.26	29687.36
586.42	29874.60
586.58	29666.29
586.74	29350.32
586.90	29235.63
587.06	29132.65
587.22	29474.37
587.38	29495.43
587.54	29832.47
587.70	29736.51
587.86	30169.51
588.02	29823.11
588.18	30141.42
588.34	29958.86
588.49	29549.26
588.65	29495.43
588.81	29507.13
588.97	29668.63
589.13	29727.14
589.29	29457.98
589.45	29413.51
589.61	29511.81
589.77	30150.78
589.93	30017.37
590.08	30120.35
590.24	29930.77
590.40	29832.47
590.56	30424.62
590.72	29883.96
590.88	29841.83
591.04	29778.64
591.20	29685.01
591.35	30452.71
591.51	30286.53
591.67	30235.04
591.83	30333.34
591.99	29968.22
