SpectraSuite Data File
++++++++++++++++++++++++++++++++++++
Date: Fri Oct 18 13:58:09 GMT-05:00 2013
User: bianchi
Dark Spectrum Present: No
Reference Spectrum Present: No
Number of Sampled Component Spectra: 1
Spectrometers: USB2+H05261
Integration Time (usec): 50000 (USB2+H05261)
Spectra Averaged: 1 (USB2+H05261)
Boxcar Smoothing: 0 (USB2+H05261)
Correct for Electrical Dark: No (USB2+H05261)
Strobe/Lamp Enabled: No (USB2+H05261)
Correct for Detector Non-linearity: No (USB2+H05261)
Correct for Stray Light: No (USB2+H05261)
Number of Pixels in Processed Spectrum: 2048
>>>>>Begin Processed Spectral Data<<<<<
365.73	0.00
365.92	0.00
366.12	0.00
366.32	0.00
366.52	0.00
366.72	0.00
366.91	0.00
367.11	0.00
367.31	0.00
367.51	0.00
367.70	0.00
367.90	0.00
368.10	0.00
368.30	0.00
368.49	0.00
368.69	0.00
368.89	0.00
369.09	0.00
369.28	0.00
369.48	0.00
369.68	0.00
369.87	0.00
370.07	0.00
370.27	0.00
370.47	0.00
370.66	23.41
370.86	102.98
371.06	147.45
371.25	170.86
371.45	128.73
371.65	177.88
371.84	182.56
372.04	138.09
372.24	173.20
372.44	93.62
372.63	142.77
372.83	177.88
373.03	264.48
373.22	245.76
373.42	227.03
373.62	243.42
373.81	257.46
374.01	269.16
374.21	262.14
374.40	262.14
374.60	264.48
374.79	315.97
374.99	264.48
375.19	205.97
375.38	238.73
375.58	255.12
375.78	234.05
375.97	248.10
376.17	348.74
376.37	285.55
376.56	266.82
376.76	306.61
376.95	245.76
377.15	325.33
377.35	318.31
377.54	294.91
377.74	238.73
377.93	229.37
378.13	250.44
378.33	330.02
378.52	341.72
378.72	322.99
378.91	262.14
379.11	327.68
379.31	287.89
379.50	273.84
379.70	285.55
379.89	327.68
380.09	224.69
380.28	311.29
380.48	301.93
380.68	299.59
380.87	259.80
381.07	318.31
381.26	348.74
381.46	322.99
381.65	372.15
381.85	308.95
382.04	276.18
382.24	334.70
382.43	383.85
382.63	341.72
382.83	404.91
383.02	390.87
383.22	409.59
383.41	271.50
383.61	416.62
383.80	454.06
384.00	379.17
384.19	360.44
384.39	407.25
384.58	425.98
384.78	416.62
384.97	402.57
385.17	360.44
385.36	416.62
385.56	430.66
385.75	421.30
385.95	393.21
386.14	395.55
386.34	435.34
386.53	386.19
386.72	351.08
386.92	400.23
387.11	414.27
387.31	498.53
387.50	477.47
387.70	545.34
387.89	437.68
388.09	383.85
388.28	482.15
388.48	440.02
388.67	482.15
388.86	468.11
389.06	454.06
389.25	409.59
389.45	437.68
389.64	458.74
389.84	482.15
390.03	451.72
390.22	535.98
390.42	477.47
390.61	472.79
390.81	512.58
391.00	566.41
391.19	510.24
391.39	416.62
391.58	554.71
391.78	486.83
391.97	456.40
392.16	571.09
392.36	566.41
392.55	547.69
392.75	545.34
392.94	489.17
393.13	514.92
393.33	517.26
393.52	521.94
393.71	540.66
393.91	634.29
394.10	620.24
394.29	592.16
394.49	571.09
394.68	662.37
394.88	580.45
395.07	608.54
395.26	657.69
395.46	582.79
395.65	582.79
395.84	655.35
396.04	709.18
396.23	711.52
396.42	631.94
396.62	664.71
396.81	589.82
397.00	645.99
397.19	704.50
397.39	650.67
397.58	636.63
397.77	655.35
397.97	627.26
398.16	716.20
398.35	725.57
398.55	720.88
398.74	690.46
398.93	744.29
399.12	758.33
399.32	709.18
399.51	800.46
399.70	751.31
399.90	753.65
400.09	812.17
400.28	798.12
400.47	858.98
400.67	891.74
400.86	868.34
401.05	744.29
401.24	807.48
401.44	793.44
401.63	802.80
401.82	856.64
402.01	781.74
402.21	875.36
402.40	924.51
402.59	858.98
402.78	847.27
402.97	903.45
403.17	842.59
403.36	767.70
403.55	868.34
403.74	901.11
403.93	952.60
404.13	915.15
404.32	858.98
404.51	978.34
404.70	971.32
404.89	940.90
405.09	976.00
405.28	880.04
405.47	983.02
405.66	926.85
405.85	952.60
406.05	994.73
406.24	999.41
406.43	924.51
406.62	1067.28
406.81	1121.12
407.00	1071.97
407.20	1048.56
407.39	1050.90
407.58	1097.71
407.77	1107.07
407.96	1032.18
408.15	1132.82
408.34	945.58
408.54	1078.99
408.73	1062.60
408.92	1090.69
409.11	1071.97
409.30	1128.14
409.49	1109.41
409.68	1158.57
409.87	1078.99
410.07	1219.42
410.26	1200.69
410.45	1167.93
410.64	1233.46
410.83	1217.08
411.02	1132.82
411.21	1275.59
411.40	1231.12
411.59	1306.02
411.78	1184.31
411.98	1275.59
412.17	1348.15
412.36	1212.40
412.55	1315.38
412.74	1317.72
412.93	1378.58
413.12	1233.46
413.31	1565.82
413.50	1481.56
413.69	1366.87
413.88	1474.54
414.07	1474.54
414.26	1523.69
414.45	1348.15
414.64	1486.24
414.83	1479.22
415.02	1570.50
415.22	1533.05
415.41	1596.25
415.60	1661.78
415.79	1556.46
415.98	1504.96
416.17	1554.12
416.36	1694.55
416.55	1673.48
416.74	1610.29
416.93	1654.76
417.12	1673.48
417.31	1717.95
417.50	1631.35
417.69	1732.00
417.88	1806.89
418.07	1687.53
418.26	1724.97
418.45	1755.40
418.64	1842.00
418.83	1886.47
419.02	1856.04
419.21	1785.83
419.39	1879.45
419.58	1806.89
419.77	1839.66
419.96	1809.23
420.15	1909.88
420.34	1797.53
420.53	1994.14
420.72	1884.13
420.91	2029.24
421.10	2033.93
421.29	2029.24
421.48	1895.83
421.67	1895.83
421.86	1933.28
422.05	2012.86
422.24	2033.93
422.43	1963.71
422.61	2017.54
422.80	1989.46
422.99	2062.01
423.18	1996.48
423.37	2033.93
423.56	2052.65
423.75	2033.93
423.94	1970.73
424.13	1872.43
424.32	1877.11
424.50	1954.35
424.69	2064.35
424.88	2094.78
425.07	2019.88
425.26	2078.40
425.45	2106.48
425.64	1952.01
425.83	2050.31
426.01	2218.83
426.20	2167.34
426.39	2094.78
426.58	2136.91
426.77	2148.61
426.96	2235.21
427.15	2047.97
427.33	2132.23
427.52	2181.38
427.71	2132.23
427.90	2155.63
428.09	2113.50
428.28	2160.31
428.46	2326.49
428.65	2239.89
428.84	2352.24
429.03	2338.20
429.22	2193.08
429.40	2303.09
429.59	2300.75
429.78	2148.61
429.97	2333.51
430.16	2289.04
430.34	2328.83
430.53	2328.83
430.72	2401.39
430.91	2392.03
431.10	2300.75
431.28	2361.60
431.47	2464.58
431.66	2469.27
431.85	2408.41
432.03	2417.77
432.22	2527.78
432.41	2499.69
432.60	2480.97
432.79	2424.80
432.97	2544.16
433.16	2605.02
433.35	2490.33
433.54	2586.29
433.72	2516.08
433.91	2558.21
434.10	2525.44
434.28	2469.27
434.47	2534.80
434.66	2600.34
434.85	2703.32
435.03	2576.93
435.22	2595.65
435.41	2708.00
435.59	2698.64
435.78	2544.16
435.97	2612.04
436.16	2609.70
436.34	2712.68
436.53	2850.77
436.72	2759.49
436.90	2740.77
437.09	2649.49
437.28	2686.94
437.46	2789.92
437.65	2644.81
437.84	2796.94
438.02	2808.64
438.21	2761.83
438.40	2850.77
438.58	2906.95
438.77	2876.52
438.96	2750.13
439.14	2951.42
439.33	2939.71
439.52	2998.23
439.70	3038.02
439.89	3143.34
440.08	3089.51
440.26	3038.02
440.45	2991.20
440.63	3225.26
440.82	3122.27
441.01	3059.08
441.19	3236.96
441.38	3234.62
441.57	3138.66
441.75	3218.24
441.94	3288.45
442.12	3353.99
442.31	3368.03
442.50	3379.73
442.68	3325.90
442.87	3421.86
443.05	3370.37
443.24	3424.20
443.43	3391.44
443.61	3435.91
443.80	3595.06
443.98	3445.27
444.17	3330.58
444.35	3478.04
444.54	3496.76
444.73	3421.86
444.91	3463.99
445.10	3492.08
445.28	3286.11
445.47	3447.61
445.65	3620.81
445.84	3506.12
446.02	3585.70
446.21	3473.36
446.39	3339.94
446.58	3440.59
446.77	3461.65
446.95	3574.00
447.14	3534.21
447.32	3559.95
447.51	3590.38
447.69	3576.34
447.88	3562.30
448.06	3583.36
448.25	3676.98
448.43	3665.28
448.62	3688.68
448.80	3559.95
448.99	3581.02
449.17	3674.64
449.36	3590.38
449.54	3779.97
449.73	3665.28
449.91	3864.22
450.10	3662.94
450.28	3782.31
450.46	3737.84
450.65	3702.73
450.83	3896.99
451.02	3772.94
451.20	3908.69
451.39	3843.16
451.57	3728.47
451.76	3716.77
451.94	3817.41
452.13	3953.16
452.31	3967.21
452.49	3850.18
452.68	3833.80
452.86	3756.56
453.05	3955.51
453.23	4025.72
453.42	3805.71
453.60	3960.19
453.78	3978.91
453.97	3967.21
454.15	4016.36
454.34	3948.48
454.52	3974.23
454.70	4074.87
454.89	4065.51
455.07	4194.24
455.26	4056.15
455.44	4142.75
455.62	4182.54
455.81	4098.28
455.99	4341.69
456.17	4149.77
456.36	4255.09
456.54	4386.16
456.73	4329.99
456.91	4475.10
457.09	4311.27
457.28	4418.93
457.46	4423.61
457.64	4465.74
457.83	4416.59
458.01	4236.37
458.19	4514.89
458.38	4313.61
458.56	4533.62
458.74	4528.94
458.93	4554.68
459.11	4477.44
459.29	4475.10
459.48	4442.34
459.66	4554.68
459.84	4550.00
460.03	4739.58
460.21	4620.22
460.39	4660.01
460.57	4533.62
460.76	4608.51
460.94	4753.63
461.12	4720.86
461.31	4596.81
461.49	4599.15
461.67	4676.39
461.85	4856.61
462.04	4753.63
462.22	5107.05
462.40	4814.48
462.59	4786.40
462.77	4910.44
462.95	4926.83
463.13	4781.71
463.32	4844.91
463.50	4983.00
463.68	4809.80
463.86	4950.23
464.05	4807.46
464.23	4826.18
464.41	4933.85
464.59	4875.34
464.78	5036.83
464.96	4961.94
465.14	4814.48
465.32	5078.96
465.50	5018.11
465.69	5240.46
465.87	5022.79
466.05	5062.58
466.23	4975.98
466.41	5088.32
466.60	5207.69
466.78	5149.18
466.96	5064.92
467.14	5114.07
467.32	5191.31
467.51	5261.52
467.69	5048.54
467.87	5125.77
468.05	5062.58
468.23	5193.65
468.41	5296.63
468.60	5282.59
468.78	5207.69
468.96	5210.03
469.14	5376.21
469.32	5406.64
469.50	5287.27
469.69	5425.36
469.87	5497.92
470.05	5437.06
470.23	5589.20
470.41	5486.22
470.59	5621.97
470.77	5444.09
470.95	5537.71
471.14	5804.53
471.32	5577.50
471.50	5757.72
471.68	5746.02
471.86	5741.33
472.04	5837.30
472.22	5926.24
472.40	5694.52
472.58	5776.44
472.77	5804.53
472.95	5834.96
473.13	5947.30
473.31	5802.19
473.49	6008.16
473.67	5912.19
473.85	5933.26
474.03	6150.93
474.21	6033.90
474.39	6118.16
474.57	6148.59
474.75	6324.13
474.93	6415.41
475.12	6211.78
475.30	6340.51
475.48	6427.11
475.66	6328.81
475.84	6363.92
476.02	6523.07
476.20	6389.66
476.38	6689.25
476.56	6712.66
476.74	6623.72
476.92	6698.61
477.10	6649.46
477.28	6614.35
477.46	6602.65
477.64	6775.85
477.82	6937.35
478.00	7052.03
478.18	6925.65
478.36	7148.00
478.54	7201.83
478.72	7295.45
478.90	7258.00
479.08	7276.73
479.26	7068.42
479.44	7372.69
479.62	7335.24
479.80	7573.97
479.98	7566.95
480.16	7527.16
480.34	7585.68
480.52	7857.18
480.70	7906.33
480.88	7782.28
481.06	7927.39
481.24	7791.64
481.41	8013.99
481.59	8114.64
481.77	8191.88
481.95	8358.05
482.13	8212.94
482.31	8271.45
482.49	8552.32
482.67	8451.67
482.85	8655.30
483.03	8489.12
483.21	8578.06
483.39	8704.45
483.57	8725.52
483.74	8641.26
483.92	8844.88
484.10	8746.58
484.28	8870.63
484.46	9275.54
484.64	9493.21
484.82	9254.48
485.00	9202.99
485.18	9217.03
485.35	9549.39
485.53	9430.02
485.71	9413.63
485.89	9813.87
486.07	9525.98
486.25	9727.27
486.43	9834.93
486.61	9923.87
486.78	10085.37
486.96	9881.74
487.14	10169.63
487.32	10291.34
487.50	10256.23
487.68	10223.46
487.85	10574.54
488.03	10635.39
488.21	10597.95
488.39	10675.18
488.57	10775.83
488.75	10986.47
488.92	11026.26
489.10	11077.76
489.28	11122.23
489.46	11232.23
489.64	11124.57
489.81	11459.26
489.99	11211.17
490.17	11534.16
490.35	11784.60
490.53	11798.64
490.70	11690.98
490.88	11948.43
491.06	12004.61
491.24	12028.01
491.41	11789.28
491.59	12163.76
491.77	12098.23
491.95	12493.78
492.13	12500.80
492.30	12528.89
492.48	12400.16
492.66	12732.51
492.84	12627.19
493.01	12751.24
493.19	12842.52
493.37	12814.43
493.54	12795.71
493.72	12987.63
493.90	12968.91
494.08	13343.39
494.25	13284.88
494.43	13469.78
494.61	13521.27
494.79	13781.07
494.96	13757.67
495.14	13619.58
495.32	13572.77
495.49	13867.67
495.67	13905.12
495.85	13841.93
496.02	14043.21
496.20	14050.24
496.38	14230.46
496.55	14244.50
496.73	14366.21
496.91	14661.12
497.09	14518.34
497.26	14747.72
497.44	14623.67
497.62	14501.96
497.79	14918.57
497.97	14738.35
498.14	14796.87
498.32	14916.23
498.50	15276.68
498.67	15169.01
498.85	15290.72
499.03	15262.63
499.20	15014.54
499.38	15297.74
499.56	15314.13
499.73	15475.62
499.91	15789.25
500.08	15859.47
500.26	15344.55
500.44	15779.89
500.61	15688.61
500.79	15733.08
500.97	15908.62
501.14	16053.73
501.32	16065.44
501.49	16063.10
501.67	16072.46
501.84	16051.39
502.02	16229.27
502.20	16006.92
502.37	16514.82
502.55	16294.81
502.72	16196.51
502.90	16596.74
503.07	16358.00
503.25	16615.46
503.43	16603.76
503.60	16767.60
503.78	16854.20
503.95	16755.90
504.13	16685.68
504.30	16793.34
504.48	16917.39
504.65	16856.54
504.83	17149.11
505.01	17528.27
505.18	17144.42
505.36	17664.02
505.53	16987.61
505.71	17249.75
505.88	17504.87
506.06	17408.90
506.23	17736.58
506.41	17509.55
506.58	17947.23
506.76	17823.18
506.93	17699.13
507.11	17750.62
507.28	17813.82
507.46	17790.41
507.63	17865.31
507.81	18150.85
507.98	18050.21
508.16	18298.31
508.33	18132.13
508.50	18427.04
508.68	18487.89
508.85	18593.22
509.03	18424.70
509.20	18335.76
509.38	18752.37
509.55	18735.99
509.73	18607.26
509.90	18752.37
510.08	18532.36
510.25	18665.77
510.42	19098.77
510.60	19021.53
510.77	18902.17
510.95	18972.38
511.12	18895.14
511.30	19248.57
511.47	18981.74
511.64	19028.56
511.82	19723.69
511.99	19164.31
512.17	19475.60
512.34	19311.76
512.51	19459.21
512.69	19463.90
512.86	19751.78
513.04	19639.44
513.21	19711.99
513.38	19742.42
513.56	19908.60
513.73	19445.17
513.90	19962.43
514.08	19765.82
514.25	19896.89
514.43	20173.08
514.60	20390.75
514.77	20318.19
514.95	20512.46
515.12	20149.67
515.29	20042.01
515.47	20217.55
515.64	20790.98
515.81	20240.95
515.99	20320.53
516.16	20503.09
516.33	20662.25
516.51	20645.87
516.68	20662.25
516.85	20325.21
517.03	20783.96
517.20	20961.84
517.37	20905.66
517.54	21085.89
517.72	20872.90
517.89	20922.05
518.06	21062.48
518.24	21149.08
518.41	21085.89
518.58	21240.36
518.75	21256.75
518.93	21291.85
519.10	21345.69
519.27	21551.65
519.45	21376.11
519.62	21352.71
519.79	21064.82
519.96	21348.03
520.14	21738.90
520.31	21565.70
520.48	21694.43
520.65	21446.33
520.83	21766.98
521.00	21940.18
521.17	21994.01
521.34	21916.78
521.52	21839.54
521.69	22258.49
521.86	21886.35
522.03	22272.54
522.20	22188.28
522.38	22127.42
522.55	22183.60
522.72	22284.24
522.89	22398.93
523.07	22366.16
523.24	22518.29
523.41	23056.62
523.58	22370.84
523.75	22471.48
523.92	22611.92
524.10	22396.59
524.27	22607.23
524.44	22457.44
524.61	22984.06
524.78	22808.52
524.96	23028.53
525.13	23035.55
525.30	22794.48
525.47	22831.93
525.64	23110.45
525.81	23276.63
525.98	23028.53
526.16	23384.29
526.33	23183.01
526.50	23190.03
526.67	22726.60
526.84	23211.09
527.01	23653.45
527.18	23374.93
527.36	23620.69
527.53	23487.28
527.70	23524.72
527.87	23711.97
528.04	23700.26
528.21	23772.82
528.38	23618.35
528.55	23676.86
528.72	23798.57
528.89	23955.38
529.07	23775.16
529.24	24034.96
529.41	23985.81
529.58	23833.68
529.75	23847.72
529.92	23735.37
530.09	23983.47
530.26	24484.34
530.43	24170.71
530.60	24159.01
530.77	24240.93
530.94	24432.85
531.11	24231.57
531.28	24301.78
531.46	24278.38
531.63	24353.27
531.80	24680.95
531.97	24510.09
532.14	24610.73
532.31	24617.75
532.48	24435.19
532.65	24589.67
532.82	24353.27
532.99	24442.21
533.16	24655.20
533.33	24793.29
533.50	24978.20
533.67	24800.32
533.84	24622.44
534.01	25001.60
534.18	24760.53
534.35	24903.30
534.52	24870.53
534.69	25142.03
534.86	24985.22
535.03	25027.35
535.20	25289.49
535.37	25142.03
535.54	25249.70
535.71	24680.95
535.88	25130.33
536.05	25017.99
536.22	25181.82
536.38	25722.49
536.55	25408.86
536.72	25483.75
536.89	25266.08
537.06	25385.45
537.23	25582.06
537.40	25476.73
537.57	25167.78
537.74	25757.60
537.91	26078.25
538.08	25654.61
538.25	25577.37
538.42	25883.98
538.59	25504.82
538.75	25481.41
538.92	25907.39
539.09	25804.41
539.26	25898.03
539.43	25626.53
539.60	25841.85
539.77	26087.61
539.94	25773.98
540.11	25748.23
540.28	26167.19
540.44	26204.64
540.61	26139.10
540.78	25900.37
540.95	26171.87
541.12	26047.82
541.29	26169.53
541.46	26143.78
541.62	26260.81
541.79	26075.91
541.96	25951.86
542.13	26080.59
542.30	26611.89
542.47	26841.26
542.63	26529.97
542.80	26649.34
542.97	26717.22
543.14	26902.12
543.31	26611.89
543.48	26749.98
543.64	26939.57
543.81	27234.47
543.98	26782.75
544.15	26836.58
544.32	27433.42
544.48	27239.15
544.65	26918.50
544.82	27117.45
544.99	26930.20
545.16	27051.91
545.32	27154.90
545.49	27234.47
545.66	27618.32
545.83	27400.65
546.00	27398.31
546.16	27311.71
546.33	27044.89
546.50	26955.95
546.67	27700.24
546.83	26764.03
547.00	27510.66
547.17	27302.35
547.34	27300.01
547.50	27910.89
547.67	27660.45
547.84	27620.66
548.00	27737.69
548.17	27580.87
548.34	27438.10
548.51	27733.01
548.67	27826.63
548.84	27953.02
549.01	27688.54
549.18	27735.35
549.34	27611.30
549.51	27892.16
549.68	27580.87
549.84	27763.43
550.01	27910.89
550.18	27676.83
550.34	27903.87
550.51	28140.26
550.68	27943.66
550.84	28161.33
551.01	28144.94
551.18	27459.16
551.34	27531.72
551.51	28278.35
551.68	28086.43
551.84	28053.66
552.01	28163.67
552.18	28100.47
552.34	28184.73
552.51	28161.33
552.68	28114.52
552.84	28187.07
553.01	28247.93
553.18	28095.79
553.34	28439.85
553.51	28498.36
553.67	28744.12
553.84	28416.44
554.01	28376.66
554.17	28414.10
554.34	28872.85
554.51	28245.58
554.67	28704.33
554.84	28203.46
555.00	28535.81
555.17	28664.54
555.33	29006.26
555.50	28280.69
555.67	28711.35
555.83	28828.38
556.00	28980.51
556.16	28837.74
556.33	28624.75
556.50	28872.85
556.66	29057.75
556.83	28746.46
556.99	29069.45
557.16	28907.96
557.32	29460.32
557.49	29338.62
557.65	28718.37
557.82	28758.16
557.98	28987.53
558.15	28924.34
558.32	28816.68
558.48	29078.82
558.65	29207.55
558.81	29109.24
558.98	28723.05
559.14	29205.20
559.31	29539.90
559.47	29216.91
559.64	29371.38
559.80	29729.48
559.97	29298.83
560.13	29270.74
560.30	29301.17
560.46	29472.03
560.63	29116.26
560.79	29188.82
560.96	29188.82
561.12	29200.52
561.29	29142.01
561.45	29324.57
561.61	29647.57
561.78	29656.93
561.94	29331.59
562.11	29614.80
562.27	29736.51
562.44	29352.66
562.60	29795.02
562.77	29006.26
562.93	29352.66
563.10	29797.36
563.26	29591.39
563.42	29914.39
563.59	29640.54
563.75	29914.39
563.92	29865.24
564.08	29380.74
564.24	29675.65
564.41	29530.54
564.57	29617.14
564.74	29734.17
564.90	29809.06
565.07	29762.25
565.23	29881.62
565.39	29776.30
565.56	29823.11
565.72	29839.49
565.88	29624.16
566.05	29401.81
566.21	29823.11
566.38	29642.88
566.54	30024.39
566.70	29771.61
566.87	29706.08
567.03	29607.78
567.19	30242.06
567.36	29879.28
567.52	29830.13
567.68	29855.87
567.85	29832.47
568.01	29502.45
568.17	30134.40
568.34	29872.26
568.50	30239.72
568.66	30132.06
568.83	30216.32
568.99	30094.61
569.15	29879.28
569.32	29813.74
569.48	29546.92
569.64	30188.23
569.81	29675.65
569.97	29954.18
570.13	29837.15
570.30	30188.23
570.46	30412.92
570.62	30260.79
570.78	30029.07
570.95	29914.39
571.11	30094.61
571.27	29965.88
571.43	29963.54
571.60	30321.64
571.76	29715.44
571.92	30253.76
572.09	30295.89
572.25	30260.79
572.41	29900.34
572.57	30040.78
572.74	30316.96
572.90	30148.44
573.06	30366.11
573.22	30237.38
573.38	30726.55
573.55	30319.30
573.71	30251.42
573.87	30366.11
574.03	30323.98
574.20	30279.51
574.36	30249.08
574.52	30195.25
574.68	30103.97
574.84	30129.72
575.01	30183.55
575.17	30253.76
575.33	30618.89
575.49	30265.47
575.65	30436.33
575.82	30710.17
575.98	30387.18
576.14	30298.23
576.30	30244.40
576.46	30157.80
576.62	30305.26
576.79	30272.49
576.95	29811.40
577.11	30501.86
577.27	30228.02
577.43	30298.23
577.59	30698.47
577.75	30160.14
577.92	30160.14
578.08	30286.53
578.24	30125.04
578.40	30368.45
578.56	30424.62
578.72	30506.54
578.88	30508.88
579.04	30471.43
579.21	30216.32
579.37	30546.33
579.53	30553.35
579.69	30164.82
579.85	30110.99
580.01	30478.46
580.17	30398.88
580.33	30171.85
580.49	30511.22
580.65	30401.22
580.82	30677.40
580.98	30415.26
581.14	30450.37
581.30	30305.26
581.46	30216.32
581.62	30328.66
581.78	30829.54
581.94	30464.41
582.10	29942.47
582.26	30263.13
582.42	30656.34
582.58	30558.03
582.74	30986.35
582.90	30536.97
583.06	30192.91
583.22	30562.72
583.38	30665.70
583.54	30342.70
583.70	30616.55
583.86	30326.32
584.02	30403.56
584.18	30850.60
584.34	30642.29
584.50	30995.71
584.66	30543.99
584.82	30698.47
584.98	30782.73
585.14	30572.08
585.30	30551.01
585.46	30543.99
585.62	30401.22
585.78	30705.49
585.94	30518.25
586.10	30501.86
586.26	30675.06
586.42	30632.93
586.58	30600.16
586.74	30511.22
586.90	30625.91
587.06	30370.79
587.22	30862.30
587.38	30274.83
587.54	30380.15
587.70	30944.22
587.86	31030.82
588.02	30845.92
588.18	31339.77
588.34	30644.63
588.49	30927.84
588.65	30551.01
588.81	30969.97
588.97	30441.01
589.13	30333.34
589.29	30838.90
589.45	30817.83
589.61	31449.78
589.77	30497.18
589.93	30639.95
590.08	30881.03
590.24	31171.25
590.40	31246.15
590.56	30841.24
590.72	30656.34
590.88	30520.59
591.04	30588.46
591.20	30979.33
591.35	31248.49
591.51	31072.95
591.67	30932.52
591.83	31068.27
591.99	30824.86
