SpectraSuite Data File
++++++++++++++++++++++++++++++++++++
Date: Fri Oct 18 13:58:31 GMT-05:00 2013
User: bianchi
Dark Spectrum Present: No
Reference Spectrum Present: No
Number of Sampled Component Spectra: 1
Spectrometers: USB2+H05261
Integration Time (usec): 50000 (USB2+H05261)
Spectra Averaged: 1 (USB2+H05261)
Boxcar Smoothing: 0 (USB2+H05261)
Correct for Electrical Dark: No (USB2+H05261)
Strobe/Lamp Enabled: No (USB2+H05261)
Correct for Detector Non-linearity: No (USB2+H05261)
Correct for Stray Light: No (USB2+H05261)
Number of Pixels in Processed Spectrum: 2048
>>>>>Begin Processed Spectral Data<<<<<
365.73	0.00
365.92	0.00
366.12	0.00
366.32	0.00
366.52	0.00
366.72	0.00
366.91	0.00
367.11	0.00
367.31	0.00
367.51	0.00
367.70	0.00
367.90	0.00
368.10	0.00
368.30	0.00
368.49	0.00
368.69	0.00
368.89	0.00
369.09	0.00
369.28	0.00
369.48	0.00
369.68	0.00
369.87	0.00
370.07	0.00
370.27	0.00
370.47	0.00
370.66	51.49
370.86	79.58
371.06	126.39
371.25	175.54
371.45	147.45
371.65	140.43
371.84	196.60
372.04	163.84
372.24	140.43
372.44	187.24
372.63	145.11
372.83	126.39
373.03	142.77
373.22	194.26
373.42	152.13
373.62	194.26
373.81	187.24
374.01	299.59
374.21	217.67
374.40	205.97
374.60	187.24
374.79	222.35
374.99	210.65
375.19	259.80
375.38	255.12
375.58	205.97
375.78	241.08
375.97	203.63
376.17	299.59
376.37	266.82
376.56	313.63
376.76	212.99
376.95	243.42
377.15	252.78
377.35	264.48
377.54	180.22
377.74	271.50
377.93	262.14
378.13	229.37
378.33	283.20
378.52	278.52
378.72	332.36
378.91	322.99
379.11	283.20
379.31	276.18
379.50	304.27
379.70	346.40
379.89	294.91
380.09	269.16
380.28	299.59
380.48	308.95
380.68	292.57
380.87	215.33
381.07	262.14
381.26	311.29
381.46	248.10
381.65	266.82
381.85	266.82
382.04	264.48
382.24	374.49
382.43	348.74
382.63	337.04
382.83	360.44
383.02	374.49
383.22	388.53
383.41	341.72
383.61	341.72
383.80	383.85
384.00	372.15
384.19	407.25
384.39	339.38
384.58	407.25
384.78	269.16
384.97	325.33
385.17	346.40
385.36	355.76
385.56	304.27
385.75	369.80
385.95	374.49
386.14	425.98
386.34	435.34
386.53	346.40
386.72	416.62
386.92	348.74
387.11	339.38
387.31	383.85
387.50	395.55
387.70	351.08
387.89	433.00
388.09	372.15
388.28	386.19
388.48	407.25
388.67	484.49
388.86	449.38
389.06	486.83
389.25	458.74
389.45	479.81
389.64	421.30
389.84	498.53
390.03	475.13
390.22	484.49
390.42	433.00
390.61	519.60
390.81	465.77
391.00	437.68
391.19	482.15
391.39	507.90
391.58	451.72
391.78	477.47
391.97	456.40
392.16	517.26
392.36	599.18
392.55	507.90
392.75	514.92
392.94	451.72
393.13	521.94
393.33	575.77
393.52	610.88
393.71	582.79
393.91	533.64
394.10	573.43
394.29	596.84
394.49	592.16
394.68	561.73
394.88	550.03
395.07	620.24
395.26	667.05
395.46	664.71
395.65	524.28
395.84	596.84
396.04	638.97
396.23	547.69
396.42	688.12
396.62	662.37
396.81	594.50
397.00	617.90
397.19	671.73
397.39	631.94
397.58	650.67
397.77	587.47
397.97	674.07
398.16	683.44
398.35	645.99
398.55	615.56
398.74	713.86
398.93	802.80
399.12	718.54
399.32	662.37
399.51	732.59
399.70	819.19
399.90	734.93
400.09	751.31
400.28	727.91
400.47	730.25
400.67	704.50
400.86	737.27
401.05	873.02
401.24	786.42
401.44	837.91
401.63	678.76
401.82	877.70
402.01	791.10
402.21	793.44
402.40	835.57
402.59	828.55
402.78	840.25
402.97	849.61
403.17	800.46
403.36	830.89
403.55	772.38
403.74	854.30
403.93	884.72
404.13	889.40
404.32	849.61
404.51	945.58
404.70	882.38
404.89	922.17
405.09	983.02
405.28	898.77
405.47	910.47
405.66	966.64
405.85	997.07
406.05	961.96
406.24	1004.09
406.43	929.19
406.62	1039.20
406.81	1027.50
407.00	999.41
407.20	936.21
407.39	940.90
407.58	1034.52
407.77	966.64
407.96	1146.86
408.15	1088.35
408.34	1039.20
408.54	971.32
408.73	1074.31
408.92	1137.50
409.11	1163.25
409.30	1093.03
409.49	1053.24
409.68	1200.69
409.87	1156.22
410.07	1132.82
410.26	1121.12
410.45	1198.35
410.64	1165.59
410.83	1137.50
411.02	1200.69
411.21	1329.42
411.40	1118.78
411.59	1275.59
411.78	1207.72
411.98	1184.31
412.17	1235.80
412.36	1306.02
412.55	1188.99
412.74	1345.81
412.93	1327.08
413.12	1418.36
413.31	1399.64
413.50	1301.34
413.69	1444.11
413.88	1350.49
414.07	1362.19
414.26	1369.21
414.45	1528.37
414.64	1427.73
414.83	1460.49
415.02	1488.58
415.22	1432.41
415.41	1514.33
415.60	1521.35
415.79	1481.56
415.98	1645.40
416.17	1446.45
416.36	1640.72
416.55	1682.85
416.74	1638.38
416.93	1710.93
417.12	1671.14
417.31	1696.89
417.50	1575.18
417.69	1621.99
417.88	1664.12
418.07	1654.76
418.26	1701.57
418.45	1661.78
418.64	1813.92
418.83	1820.94
419.02	1764.76
419.21	1771.79
419.39	1858.39
419.58	1746.04
419.77	1790.51
419.96	1895.83
420.15	1870.09
420.34	1842.00
420.53	1748.38
420.72	1813.92
420.91	1830.30
421.10	1912.22
421.29	1858.39
421.48	1923.92
421.67	1937.96
421.86	1949.67
422.05	1942.64
422.24	1811.57
422.43	2001.16
422.61	1952.01
422.80	1902.86
422.99	1989.46
423.18	1905.20
423.37	2045.63
423.56	1994.14
423.75	1949.67
423.94	1839.66
424.13	1827.96
424.32	1919.24
424.50	2150.95
424.69	2097.12
424.88	1970.73
425.07	2005.84
425.26	2008.18
425.45	1987.11
425.64	1959.03
425.83	2195.42
426.01	2050.31
426.20	2031.58
426.39	2012.86
426.58	2001.16
426.77	2036.27
426.96	2040.95
427.15	2062.01
427.33	1966.05
427.52	2069.03
427.71	2099.46
427.90	2113.50
428.09	2230.53
428.28	2244.57
428.46	2172.02
428.65	2172.02
428.84	2197.76
429.03	2190.74
429.22	2108.82
429.40	2216.49
429.59	2202.44
429.78	2043.29
429.97	2223.51
430.16	2242.23
430.34	2230.53
430.53	2342.88
430.72	2349.90
430.91	2307.77
431.10	2282.02
431.28	2275.00
431.47	2349.90
431.66	2286.70
431.85	2352.24
432.03	2466.92
432.22	2541.82
432.41	2487.99
432.60	2396.71
432.79	2363.94
432.97	2420.11
433.16	2363.94
433.35	2476.29
433.54	2569.91
433.72	2464.58
433.91	2427.14
434.10	2387.35
434.28	2436.50
434.47	2417.77
434.66	2518.42
434.85	2558.21
435.03	2516.08
435.22	2520.76
435.41	2672.89
435.59	2579.27
435.78	2576.93
435.97	2640.12
436.16	2705.66
436.34	2588.63
436.53	2541.82
436.72	2576.93
436.90	2672.89
437.09	2717.36
437.28	2665.87
437.46	2654.17
437.65	2761.83
437.84	2825.03
438.02	2799.28
438.21	2700.98
438.40	2754.81
438.58	2810.98
438.77	2911.63
438.96	2876.52
439.14	2832.05
439.33	3042.70
439.52	3038.02
439.70	2942.05
439.89	2878.86
440.08	2949.08
440.26	2953.76
440.45	2916.31
440.63	3066.10
440.82	3063.76
441.01	3016.95
441.19	3000.57
441.38	3110.57
441.57	3155.04
441.75	3229.94
441.94	3187.81
442.12	3150.36
442.31	3281.43
442.50	3253.34
442.68	3316.54
442.87	3286.11
443.05	3351.65
443.24	3417.18
443.43	3438.25
443.61	3255.69
443.80	3447.61
443.98	3243.98
444.17	3225.26
444.35	3370.37
444.54	3262.71
444.73	3447.61
444.91	3398.46
445.10	3412.50
445.28	3449.95
445.47	3300.16
445.65	3503.78
445.84	3492.08
446.02	3393.78
446.21	3485.06
446.39	3363.35
446.58	3447.61
446.77	3599.74
446.95	3384.41
447.14	3520.17
447.32	3431.23
447.51	3398.46
447.69	3548.25
447.88	3468.67
448.06	3433.57
448.25	3463.99
448.43	3398.46
448.62	3468.67
448.80	3499.10
448.99	3499.10
449.17	3501.44
449.36	3396.12
449.54	3566.98
449.73	3747.20
449.91	3740.18
450.10	3562.30
450.28	3700.39
450.46	3590.38
450.65	3772.94
450.83	3641.87
451.02	3648.90
451.20	3843.16
451.39	3742.52
451.57	3761.24
451.76	3700.39
451.94	3803.37
452.13	3674.64
452.31	3639.53
452.49	3775.28
452.68	3747.20
452.86	3829.12
453.05	3904.01
453.23	4011.68
453.42	3887.63
453.60	3721.45
453.78	3756.56
453.97	3765.92
454.15	3960.19
454.34	3801.03
454.52	3950.82
454.70	4030.40
454.89	4044.45
455.07	3955.51
455.26	4042.11
455.44	3983.59
455.62	4056.15
455.81	4049.13
455.99	4100.62
456.17	4011.68
456.36	4166.15
456.54	4035.08
456.73	4236.37
456.91	4311.27
457.09	4147.43
457.28	4297.22
457.46	4175.52
457.64	4222.33
457.83	4332.33
458.01	4334.67
458.19	4465.74
458.38	4142.75
458.56	4252.75
458.74	4234.03
458.93	4425.95
459.11	4311.27
459.29	4390.84
459.48	4348.72
459.66	4423.61
459.84	4550.00
460.03	4493.83
460.21	4369.78
460.39	4540.64
460.57	4514.89
460.76	4514.89
460.94	4603.83
461.12	4510.21
461.31	4571.07
461.49	4688.09
461.67	4505.53
461.85	4521.92
462.04	4540.64
462.22	4720.86
462.40	4669.37
462.59	4615.54
462.77	4676.39
462.95	4819.16
463.13	4571.07
463.32	4678.73
463.50	4725.54
463.68	4704.48
463.86	4774.69
464.05	4830.87
464.23	4704.48
464.41	4795.76
464.59	4758.31
464.78	4936.19
464.96	4877.68
465.14	4746.61
465.32	4858.95
465.50	4919.81
465.69	4973.64
465.87	4950.23
466.05	4877.68
466.23	4847.25
466.41	5025.13
466.60	5174.92
466.78	4884.70
466.96	4964.28
467.14	5060.24
467.32	4933.85
467.51	5069.60
467.69	4819.16
467.87	5036.83
468.05	5032.15
468.23	5132.79
468.41	5174.92
468.60	4987.68
468.78	5076.62
468.96	5097.69
469.14	5214.71
469.32	5160.88
469.50	5114.07
469.69	5277.91
469.87	5238.12
470.05	5425.36
470.23	5486.22
470.41	5212.37
470.59	5252.16
470.77	5317.70
470.95	5268.55
471.14	5359.83
471.32	5390.25
471.50	5549.41
471.68	5547.07
471.86	5493.24
472.04	5420.68
472.22	5647.71
472.40	5495.58
472.58	5596.22
472.77	5636.01
472.95	5678.14
473.13	5963.68
473.31	5619.63
473.49	5689.84
473.67	5631.33
473.85	5671.12
474.03	5959.00
474.21	6038.58
474.39	5907.51
474.57	6019.86
474.75	5951.98
474.93	6092.41
475.12	6113.48
475.30	5970.71
475.48	6010.50
475.66	6092.41
475.84	6087.73
476.02	6001.13
476.20	6146.25
476.38	6415.41
476.56	6408.39
476.74	6431.79
476.92	6420.09
477.10	6537.12
477.28	6579.25
477.46	6457.54
477.64	6696.27
477.82	6857.77
478.00	6799.26
478.18	6710.32
478.36	6757.13
478.54	6967.77
478.72	6949.05
478.90	6909.26
479.08	7157.36
479.26	6991.18
479.44	7171.40
479.62	7337.58
479.80	7403.11
479.98	7248.64
480.16	7419.50
480.34	7314.17
480.52	7585.68
480.70	7349.28
480.88	7489.71
481.06	7688.66
481.24	7478.01
481.41	7747.17
481.59	7691.00
481.77	7894.63
481.95	7889.95
482.13	7948.46
482.31	7887.61
482.49	7941.44
482.67	8173.15
482.85	8208.26
483.03	8367.42
483.21	8428.27
483.39	8489.12
483.57	8491.46
483.74	8477.42
483.92	8404.86
484.10	8573.38
484.28	8823.82
484.46	8933.82
484.64	8943.19
484.82	8842.54
485.00	8901.06
485.18	9050.85
485.35	9312.99
485.53	9153.84
485.71	9413.63
485.89	9685.14
486.07	9455.76
486.25	9366.82
486.43	9331.72
486.61	9493.21
486.78	9708.54
486.96	9874.72
487.14	9909.83
487.32	9998.77
487.50	9820.89
487.68	9788.12
487.85	10157.92
488.03	10267.93
488.21	10452.83
488.39	10284.31
488.57	10602.63
488.75	10509.01
488.92	10754.76
489.10	10555.82
489.28	10707.95
489.46	10986.47
489.64	10906.90
489.81	11061.37
489.99	11140.95
490.17	11000.52
490.35	11229.89
490.53	11136.27
490.70	11379.68
490.88	11229.89
491.06	11632.46
491.24	11566.93
491.41	11517.78
491.59	11707.36
491.77	11632.46
491.95	11913.33
492.13	12070.14
492.30	12058.44
492.48	11810.34
492.66	12203.55
492.84	12072.48
493.01	12105.25
493.19	12140.36
493.37	12596.76
493.54	12329.94
493.72	12545.27
493.90	12798.05
494.08	12758.26
494.25	12879.97
494.43	12915.08
494.61	13188.92
494.79	13240.41
494.96	12858.90
495.14	12999.34
495.32	13055.51
495.49	13327.01
495.67	13469.78
495.85	13568.09
496.02	13490.85
496.20	13390.20
496.38	13703.84
496.55	13752.99
496.73	13980.02
496.91	13701.50
497.09	13785.76
497.26	13867.67
497.44	13987.04
497.62	13757.67
497.79	14333.44
497.97	14565.15
498.14	14331.10
498.32	14539.41
498.50	14759.42
498.67	14398.98
498.85	14609.62
499.03	14766.44
499.20	14682.18
499.38	14934.96
499.56	15105.82
499.73	15211.14
499.91	15070.71
500.08	15147.95
500.26	14902.19
500.44	15108.16
500.61	15335.19
500.79	15353.91
500.97	15447.54
501.14	15587.97
501.32	15384.34
501.49	15382.00
501.67	15737.76
501.84	15499.03
502.02	15782.23
502.20	15786.91
502.37	15695.63
502.55	15697.97
502.72	16156.72
502.90	15878.19
503.07	15655.84
503.25	15662.86
503.43	16152.04
503.60	16329.92
503.78	16362.69
503.95	16285.45
504.13	16393.11
504.30	16006.92
504.48	16449.28
504.65	16416.52
504.83	16531.20
505.01	16849.52
505.18	16683.34
505.36	16868.24
505.53	16533.54
505.71	16758.24
505.88	17198.26
506.06	16599.08
506.23	17099.95
506.41	16879.94
506.58	16938.46
506.76	16908.03
506.93	17032.08
507.11	17207.62
507.28	17411.25
507.46	17252.09
507.63	17289.54
507.81	17357.41
507.98	17303.58
508.16	17240.39
508.33	17586.79
508.50	17434.65
508.68	17385.50
508.85	17722.54
509.03	17537.63
509.20	17982.34
509.38	18036.17
509.55	17958.93
509.73	17762.33
509.90	18033.83
510.08	17900.42
510.25	18017.44
510.42	18216.39
510.60	18171.92
510.77	18101.70
510.95	18677.48
511.12	18134.47
511.30	18445.76
511.47	18478.53
511.64	18204.69
511.82	18977.06
511.99	18354.48
512.17	18731.31
512.34	18658.75
512.51	19014.51
512.69	18787.48
512.86	18654.07
513.04	19075.37
513.21	18860.04
513.38	18984.09
513.56	19190.05
513.73	18988.77
513.90	19126.86
514.08	18991.11
514.25	19555.18
514.43	19487.30
514.60	19700.29
514.77	19522.41
514.95	19157.28
515.12	19482.62
515.29	19480.28
515.47	19295.38
515.64	19740.08
515.81	19590.28
515.99	19693.27
516.16	20140.31
516.33	20065.41
516.51	19796.25
516.68	19850.08
516.85	20039.67
517.03	20105.20
517.20	19988.18
517.37	20240.95
517.54	20262.02
517.72	19850.08
517.89	20620.12
518.06	20212.87
518.24	20159.03
518.41	20233.93
518.58	20299.47
518.75	20271.38
518.93	20460.96
519.10	20215.21
519.27	20421.17
519.45	20577.99
519.62	20547.56
519.79	20812.04
519.96	20622.46
520.14	20664.59
520.31	20589.69
520.48	21139.72
520.65	20872.90
520.83	21116.31
521.00	20814.38
521.17	20844.81
521.34	21219.30
521.52	21474.42
521.69	21125.68
521.86	21425.26
522.03	21507.18
522.20	21493.14
522.38	21345.69
522.55	21453.35
522.72	21357.39
522.89	21458.03
523.07	21858.26
523.24	21731.87
523.41	21832.52
523.58	21610.17
523.75	21642.93
523.92	21848.90
524.10	22115.72
524.27	22106.36
524.44	22415.31
524.61	22438.72
524.78	21853.58
524.96	22246.79
525.13	21996.35
525.30	22256.15
525.47	22080.61
525.64	21914.44
525.81	22237.43
525.98	22249.13
526.16	22075.93
526.33	22141.47
526.50	22647.02
526.67	22005.72
526.84	22157.85
527.01	22534.68
527.18	22216.36
527.36	22569.79
527.53	22190.62
527.70	22855.33
527.87	22829.59
528.04	22927.89
528.21	22548.72
528.38	22726.60
528.55	23040.23
528.72	22632.98
528.89	22857.67
529.07	22874.06
529.24	22955.97
529.41	23084.70
529.58	22979.38
529.75	22904.48
529.92	22960.66
530.09	22820.22
530.26	23215.77
530.43	23288.33
530.60	22848.31
530.77	23260.24
530.94	23403.02
531.11	23281.31
531.28	23260.24
531.46	23056.62
531.63	23662.82
531.80	23580.90
531.97	23857.08
532.14	23686.22
532.31	23498.98
532.48	23321.10
532.65	23583.24
532.82	23562.17
532.99	23658.14
533.16	23672.18
533.33	23723.67
533.50	23997.51
533.67	23847.72
533.84	23639.41
534.01	23908.57
534.18	23726.01
534.35	23845.38
534.52	23805.59
534.69	24151.99
534.86	24018.58
535.03	24093.47
535.20	24254.97
535.37	24173.05
535.54	24325.19
535.71	24070.07
535.88	24002.19
536.05	24095.82
536.22	24790.95
536.38	24334.55
536.55	24264.33
536.72	24526.47
536.89	24519.45
537.06	24423.49
537.23	24318.17
537.40	24491.37
537.57	24528.81
537.74	24762.87
537.91	24975.86
538.08	24884.58
538.25	25090.54
538.42	24879.89
538.59	24854.15
538.75	24886.92
538.92	24968.84
539.09	24774.57
539.26	24912.66
539.43	24786.27
539.60	24875.21
539.77	24713.72
539.94	25046.07
540.11	24971.18
540.28	25186.50
540.44	25205.23
540.61	24985.22
540.78	25099.90
540.95	24957.13
541.12	24926.71
541.29	25266.08
541.46	25427.58
541.62	25055.43
541.79	25165.44
541.96	25142.03
542.13	25277.79
542.30	25458.01
542.47	25462.69
542.63	25497.80
542.80	25624.18
542.97	26054.84
543.14	25776.32
543.31	25963.56
543.48	25575.03
543.64	25986.97
543.81	25720.15
543.98	25846.54
544.15	25916.75
544.32	25909.73
544.48	26171.87
544.65	25968.24
544.82	26057.18
544.99	25715.47
545.16	25869.94
545.32	26108.68
545.49	25970.58
545.66	26546.36
545.83	26181.23
546.00	26515.93
546.16	26176.55
546.33	26356.77
546.50	25832.49
546.67	26160.17
546.83	26387.20
547.00	26298.26
547.17	26452.73
547.34	26333.37
547.50	26480.82
547.67	26223.36
547.84	26382.52
548.00	26642.32
548.17	26569.76
548.34	26471.46
548.51	26270.17
548.67	26628.27
548.84	26691.47
549.01	26628.27
549.18	26827.22
549.34	26625.93
549.51	26501.89
549.68	26459.76
549.84	26506.57
550.01	26757.00
550.18	26918.50
550.34	26796.79
550.51	27077.66
550.68	26745.30
550.84	26562.74
551.01	26745.30
551.18	26714.87
551.34	26663.38
551.51	27061.27
551.68	26426.99
551.84	26771.05
552.01	27002.76
552.18	27103.40
552.34	27072.98
552.51	27513.00
552.68	26932.54
552.84	27105.74
553.01	27241.50
553.18	27112.77
553.34	27599.60
553.51	27412.35
553.67	27372.57
553.84	27672.15
554.01	27445.12
554.17	27601.94
554.34	27632.36
554.51	27515.34
554.67	27536.40
554.84	27578.53
555.00	27164.26
555.17	27868.76
555.33	27505.98
555.50	27356.18
555.67	27606.62
555.83	27531.72
556.00	27655.77
556.16	27943.66
556.33	27690.88
556.50	28009.19
556.66	27473.21
556.83	27922.59
556.99	28173.03
557.16	28079.41
557.32	27931.95
557.49	27807.90
557.65	27672.15
557.82	27552.79
557.98	27686.20
558.15	27810.25
558.32	28109.83
558.48	27812.59
558.65	27971.74
558.81	27702.58
558.98	27791.52
559.14	27999.83
559.31	28133.24
559.47	27850.03
559.64	28264.31
559.80	28336.87
559.97	28147.28
560.13	27948.34
560.30	28393.04
560.46	27938.97
560.63	28402.40
560.79	28357.93
560.96	28109.83
561.12	27969.40
561.29	28278.35
561.45	28121.54
561.61	28472.62
561.78	28175.37
561.94	28465.60
562.11	28187.07
562.27	28531.13
562.44	28170.69
562.60	28355.59
562.77	28584.96
562.93	28121.54
563.10	28800.29
563.26	28496.02
563.42	28201.11
563.59	28261.97
563.75	28624.75
563.92	28407.08
564.08	28334.53
564.24	28231.54
564.41	28290.06
564.57	28231.54
564.74	28669.22
564.90	28566.24
565.07	28800.29
565.23	28416.44
565.39	28229.20
565.56	28507.72
565.72	28634.11
565.88	28369.63
566.05	28580.28
566.21	28552.20
566.38	28615.39
566.54	28638.80
566.70	28641.14
566.87	28617.73
567.03	28549.85
567.19	28713.69
567.36	28800.29
567.52	28589.64
567.68	29085.84
567.85	28582.62
568.01	28119.20
568.17	28554.54
568.34	28758.16
568.50	28540.49
568.66	28746.46
568.83	28496.02
568.99	28730.08
569.15	28744.12
569.32	28922.00
569.48	28730.08
569.64	28872.85
569.81	28772.21
569.97	28914.98
570.13	28673.90
570.30	28692.63
570.46	28907.96
570.62	28849.44
570.78	28666.88
570.95	28575.60
571.11	29008.60
571.27	29003.92
571.43	28421.13
571.60	28620.07
571.76	28884.55
571.92	28957.11
572.09	28980.51
572.25	29067.11
572.41	28835.40
572.57	29170.10
572.74	28957.11
572.90	28847.10
573.06	28697.31
573.22	28755.82
573.38	28737.10
573.55	28879.87
573.71	29282.44
573.87	29284.78
574.03	28701.99
574.20	28716.03
574.36	28538.15
574.52	29172.44
574.68	28830.72
574.84	28900.94
575.01	29296.49
575.17	28945.41
575.33	29078.82
575.49	28774.55
575.65	29142.01
575.82	29359.68
575.98	28540.49
576.14	29235.63
576.30	29240.31
576.46	28917.32
576.62	29039.03
576.79	28882.21
576.95	28924.34
577.11	28879.87
577.27	29120.95
577.43	29032.00
577.59	29523.52
577.75	29167.76
577.92	28938.38
578.08	28893.91
578.24	28819.02
578.40	29333.93
578.56	29448.62
578.72	29390.11
578.88	29537.56
579.04	29387.77
579.21	29060.09
579.37	29305.85
579.53	29308.19
579.69	29081.16
579.85	29036.69
580.01	29282.44
580.17	28961.79
580.33	29024.98
580.49	29142.01
580.65	29160.73
580.82	29027.32
580.98	29340.96
581.14	29132.65
581.30	29432.24
581.46	29116.26
581.62	29158.39
581.78	28914.98
581.94	29188.82
582.10	29287.12
582.26	28987.53
582.42	29123.29
582.58	29617.14
582.74	29324.57
582.90	29371.38
583.06	29055.41
583.22	29062.43
583.38	29209.89
583.54	29191.16
583.70	29216.91
583.86	28922.00
584.02	28896.25
584.18	29226.27
584.34	29280.10
584.50	29493.09
584.66	29132.65
584.82	29060.09
584.98	29317.55
585.14	29378.40
585.30	29205.20
585.46	28889.23
585.62	29001.58
585.78	29455.64
585.94	29165.42
586.10	29172.44
586.26	29235.63
586.42	29427.56
586.58	29706.08
586.74	29586.71
586.90	29111.58
587.06	28748.80
587.22	28889.23
587.38	29385.43
587.54	29450.96
587.70	29591.39
587.86	29469.69
588.02	29649.91
588.18	29301.17
588.34	29675.65
588.49	29497.77
588.65	29039.03
588.81	29198.18
588.97	29607.78
589.13	29134.99
589.29	29376.06
589.45	29635.86
589.61	29244.99
589.77	29759.91
589.93	29645.23
590.08	29677.99
590.24	29624.16
590.40	29565.65
590.56	30045.46
590.72	29296.49
590.88	29097.54
591.04	29661.61
591.20	29523.52
591.35	29584.37
591.51	29757.57
591.67	29837.15
591.83	29935.45
591.99	29750.55
