SpectraSuite Data File
++++++++++++++++++++++++++++++++++++
Date: Fri Oct 18 13:58:31 GMT-05:00 2013
User: bianchi
Dark Spectrum Present: No
Reference Spectrum Present: No
Number of Sampled Component Spectra: 1
Spectrometers: USB2+H05261
Integration Time (usec): 50000 (USB2+H05261)
Spectra Averaged: 1 (USB2+H05261)
Boxcar Smoothing: 0 (USB2+H05261)
Correct for Electrical Dark: No (USB2+H05261)
Strobe/Lamp Enabled: No (USB2+H05261)
Correct for Detector Non-linearity: No (USB2+H05261)
Correct for Stray Light: No (USB2+H05261)
Number of Pixels in Processed Spectrum: 2048
>>>>>Begin Processed Spectral Data<<<<<
365.73	0.00
365.92	0.00
366.12	0.00
366.32	0.00
366.52	0.00
366.72	0.00
366.91	0.00
367.11	0.00
367.31	0.00
367.51	0.00
367.70	0.00
367.90	0.00
368.10	0.00
368.30	0.00
368.49	0.00
368.69	0.00
368.89	0.00
369.09	0.00
369.28	0.00
369.48	0.00
369.68	0.00
369.87	0.00
370.07	0.00
370.27	0.00
370.47	0.00
370.66	93.62
370.86	107.66
371.06	124.05
371.25	180.22
371.45	140.43
371.65	107.66
371.84	93.62
372.04	117.03
372.24	128.73
372.44	201.29
372.63	166.18
372.83	236.39
373.03	191.92
373.22	154.48
373.42	184.90
373.62	215.33
373.81	224.69
374.01	203.63
374.21	245.76
374.40	205.97
374.60	175.54
374.79	170.86
374.99	182.56
375.19	128.73
375.38	259.80
375.58	255.12
375.78	262.14
375.97	269.16
376.17	259.80
376.37	236.39
376.56	273.84
376.76	271.50
376.95	212.99
377.15	231.71
377.35	231.71
377.54	294.91
377.74	266.82
377.93	243.42
378.13	262.14
378.33	266.82
378.52	278.52
378.72	224.69
378.91	313.63
379.11	266.82
379.31	250.44
379.50	290.23
379.70	252.78
379.89	252.78
380.09	278.52
380.28	257.46
380.48	259.80
380.68	208.31
380.87	283.20
381.07	341.72
381.26	264.48
381.46	362.78
381.65	334.70
381.85	257.46
382.04	222.35
382.24	287.89
382.43	376.83
382.63	341.72
382.83	327.68
383.02	313.63
383.22	269.16
383.41	337.04
383.61	306.61
383.80	372.15
384.00	332.36
384.19	367.46
384.39	348.74
384.58	369.80
384.78	278.52
384.97	308.95
385.17	404.91
385.36	346.40
385.56	400.23
385.75	332.36
385.95	447.04
386.14	416.62
386.34	344.06
386.53	360.44
386.72	334.70
386.92	411.93
387.11	442.36
387.31	374.49
387.50	418.96
387.70	468.11
387.89	433.00
388.09	428.32
388.28	351.08
388.48	484.49
388.67	444.70
388.86	404.91
389.06	433.00
389.25	369.80
389.45	416.62
389.64	512.58
389.84	449.38
390.03	402.57
390.22	503.22
390.42	540.66
390.61	489.17
390.81	355.76
391.00	397.89
391.19	503.22
391.39	528.96
391.58	477.47
391.78	552.37
391.97	489.17
392.16	486.83
392.36	461.09
392.55	535.98
392.75	458.74
392.94	545.34
393.13	557.05
393.33	528.96
393.52	543.00
393.71	557.05
393.91	638.97
394.10	510.24
394.29	510.24
394.49	545.34
394.68	575.77
394.88	531.30
395.07	550.03
395.26	587.47
395.46	550.03
395.65	655.35
395.84	603.86
396.04	636.63
396.23	702.16
396.42	655.35
396.62	566.41
396.81	627.26
397.00	643.65
397.19	681.10
397.39	517.26
397.58	624.92
397.77	622.58
397.97	638.97
398.16	578.11
398.35	753.65
398.55	758.33
398.74	688.12
398.93	746.63
399.12	706.84
399.32	699.82
399.51	734.93
399.70	753.65
399.90	706.84
400.09	788.76
400.28	697.48
400.47	784.08
400.67	732.59
400.86	842.59
401.05	767.70
401.24	802.80
401.44	812.17
401.63	737.27
401.82	898.77
402.01	786.42
402.21	851.96
402.40	751.31
402.59	809.83
402.78	835.57
402.97	849.61
403.17	823.87
403.36	861.32
403.55	903.45
403.74	854.30
403.93	833.23
404.13	828.55
404.32	875.36
404.51	835.57
404.70	809.83
404.89	840.25
405.09	861.32
405.28	901.11
405.47	898.77
405.66	964.30
405.85	994.73
406.05	833.23
406.24	959.62
406.43	1036.86
406.62	976.00
406.81	983.02
407.00	950.26
407.20	1046.22
407.39	990.05
407.58	1011.11
407.77	1020.47
407.96	1036.86
408.15	1081.33
408.34	1036.86
408.54	1029.84
408.73	1020.47
408.92	1025.15
409.11	1050.90
409.30	1104.73
409.49	1149.20
409.68	1188.99
409.87	1039.20
410.07	1200.69
410.26	1263.89
410.45	1205.38
410.64	1170.27
410.83	1238.14
411.02	1139.84
411.21	1146.86
411.40	1224.10
411.59	1287.29
411.78	1158.57
411.98	1212.40
412.17	1310.70
412.36	1249.85
412.55	1284.95
412.74	1350.49
412.93	1345.81
413.12	1247.51
413.31	1331.76
413.50	1324.74
413.69	1394.96
413.88	1341.13
414.07	1413.68
414.26	1462.83
414.45	1483.90
414.64	1385.60
414.83	1504.96
415.02	1605.61
415.22	1432.41
415.41	1629.01
415.60	1483.90
415.79	1551.78
415.98	1619.65
416.17	1511.99
416.36	1598.59
416.55	1661.78
416.74	1671.14
416.93	1563.48
417.12	1577.52
417.31	1746.04
417.50	1614.97
417.69	1671.14
417.88	1680.50
418.07	1769.44
418.26	1664.12
418.45	1722.63
418.64	1769.44
418.83	1776.47
419.02	1734.34
419.21	1743.70
419.39	1769.44
419.58	1734.34
419.77	1834.98
419.96	1874.77
420.15	1844.34
420.34	1865.41
420.53	1851.36
420.72	1842.00
420.91	1823.28
421.10	1893.49
421.29	1980.09
421.48	1909.88
421.67	1994.14
421.86	1849.02
422.05	1989.46
422.24	1804.55
422.43	1914.56
422.61	2029.24
422.80	1947.33
422.99	1989.46
423.18	2008.18
423.37	1851.36
423.56	1921.58
423.75	1956.69
423.94	1844.34
424.13	1788.17
424.32	1989.46
424.50	2003.50
424.69	2064.35
424.88	2038.61
425.07	1980.09
425.26	1912.22
425.45	1977.75
425.64	1959.03
425.83	1966.05
426.01	2136.91
426.20	2026.90
426.39	2069.03
426.58	2019.88
426.77	2022.22
426.96	2073.71
427.15	2064.35
427.33	1987.11
427.52	2136.91
427.71	2052.65
427.90	2132.23
428.09	2122.87
428.28	2193.08
428.46	2080.74
428.65	2083.08
428.84	2134.57
429.03	2260.96
429.22	2148.61
429.40	2118.18
429.59	2223.51
429.78	2207.13
429.97	1987.11
430.16	2169.68
430.34	2244.57
430.53	2368.62
430.72	2382.67
430.91	2267.98
431.10	2289.04
431.28	2338.20
431.47	2331.17
431.66	2338.20
431.85	2286.70
432.03	2352.24
432.22	2513.74
432.41	2312.45
432.60	2300.75
432.79	2373.30
432.97	2452.88
433.16	2394.37
433.35	2377.98
433.54	2457.56
433.72	2445.86
433.91	2396.71
434.10	2448.20
434.28	2516.08
434.47	2492.67
434.66	2551.18
434.85	2572.25
435.03	2555.86
435.22	2495.01
435.41	2686.94
435.59	2588.63
435.78	2588.63
435.97	2658.85
436.16	2630.76
436.34	2523.10
436.53	2635.44
436.72	2799.28
436.90	2537.14
437.09	2537.14
437.28	2562.89
437.46	2703.32
437.65	2656.51
437.84	2787.58
438.02	2696.30
438.21	2691.62
438.40	2722.04
438.58	2892.90
438.77	2818.00
438.96	2792.26
439.14	2874.18
439.33	2977.16
439.52	2951.42
439.70	2923.33
439.89	3108.23
440.08	2918.65
440.26	3000.57
440.45	2949.08
440.63	2988.86
440.82	3094.19
441.01	3229.94
441.19	3061.42
441.38	2988.86
441.57	3227.60
441.75	3204.19
441.94	3265.05
442.12	3126.96
442.31	3255.69
442.50	3297.81
442.68	3073.12
442.87	3323.56
443.05	3330.58
443.24	3471.01
443.43	3335.26
443.61	3255.69
443.80	3445.27
443.98	3251.00
444.17	3173.77
444.35	3316.54
444.54	3342.28
444.73	3248.66
444.91	3421.86
445.10	3456.97
445.28	3351.65
445.47	3342.28
445.65	3440.59
445.84	3382.07
446.02	3463.99
446.21	3325.90
446.39	3314.20
446.58	3492.08
446.77	3466.33
446.95	3344.63
447.14	3351.65
447.32	3466.33
447.51	3400.80
447.69	3449.95
447.88	3475.70
448.06	3499.10
448.25	3421.86
448.43	3417.18
448.62	3468.67
448.80	3496.76
448.99	3534.21
449.17	3651.24
449.36	3581.02
449.54	3531.87
449.73	3620.81
449.91	3613.79
450.10	3627.83
450.28	3576.34
450.46	3728.47
450.65	3733.15
450.83	3712.09
451.02	3730.81
451.20	3571.66
451.39	3595.06
451.57	3597.40
451.76	3742.52
451.94	3770.60
452.13	3915.72
452.31	3822.09
452.49	3728.47
452.68	3791.67
452.86	3754.22
453.05	3723.79
453.23	3908.69
453.42	3761.24
453.60	3789.33
453.78	3786.99
453.97	3714.43
454.15	3829.12
454.34	3840.82
454.52	3925.08
454.70	3896.99
454.89	3819.75
455.07	3981.25
455.26	4046.79
455.44	3983.59
455.62	4081.89
455.81	3955.51
455.99	3971.89
456.17	3978.91
456.36	4105.30
456.54	4002.32
456.73	4208.28
456.91	4264.46
457.09	4315.95
457.28	4231.69
457.46	4124.02
457.64	4306.59
457.83	4269.14
458.01	4133.39
458.19	4409.57
458.38	4236.37
458.56	4498.51
458.74	4360.42
458.93	4444.68
459.11	4376.80
459.29	4299.56
459.48	4468.08
459.66	4409.57
459.84	4482.13
460.03	4447.02
460.21	4442.34
460.39	4559.36
460.57	4484.47
460.76	4526.60
460.94	4521.92
461.12	4587.45
461.31	4575.75
461.49	4369.78
461.67	4472.76
461.85	4678.73
462.04	4545.32
462.22	4648.30
462.40	4643.62
462.59	4652.98
462.77	4812.14
462.95	4702.14
463.13	4636.60
463.32	4746.61
463.50	4685.75
463.68	4854.27
463.86	4636.60
464.05	4830.87
464.23	4716.18
464.41	4805.12
464.59	4711.50
464.78	5053.22
464.96	4821.50
465.14	4683.41
465.32	4868.31
465.50	4858.95
465.69	4898.74
465.87	5067.26
466.05	4875.34
466.23	4865.97
466.41	4980.66
466.60	5224.08
466.78	4896.40
466.96	4964.28
467.14	4926.83
467.32	4980.66
467.51	5111.73
467.69	5020.45
467.87	5055.56
468.05	5104.71
468.23	5053.22
468.41	4968.96
468.60	5179.61
468.78	5179.61
468.96	5144.50
469.14	5039.17
469.32	5275.57
469.50	5102.37
469.69	5076.62
469.87	5123.43
470.05	5324.72
470.23	5317.70
470.41	5280.25
470.59	5327.06
470.77	5352.81
470.95	5373.87
471.14	5497.92
471.32	5142.16
471.50	5427.70
471.68	5483.88
471.86	5540.05
472.04	5411.32
472.22	5535.37
472.40	5593.88
472.58	5650.05
472.77	5490.90
472.95	5710.91
473.13	5851.34
473.31	5738.99
473.49	5717.93
473.67	5678.14
473.85	5865.38
474.03	5797.51
474.21	5940.28
474.39	5991.77
474.57	6066.67
474.75	5954.32
474.93	5961.34
475.12	6197.74
475.30	6026.88
475.48	6090.07
475.66	6146.25
475.84	6167.31
476.02	6207.10
476.20	6242.21
476.38	6300.72
476.56	6558.18
476.74	6394.34
476.92	6387.32
477.10	6366.26
477.28	6565.20
477.46	6384.98
477.64	6492.65
477.82	6551.16
478.00	6700.95
478.18	6621.38
478.36	6897.56
478.54	7059.06
478.72	7012.24
478.90	6993.52
479.08	7077.78
479.26	7138.63
479.44	6927.99
479.62	7187.79
479.80	7234.60
479.98	7162.04
480.16	7368.01
480.34	7318.86
480.52	7489.71
480.70	7597.38
480.88	7424.18
481.06	7639.51
481.24	7466.31
481.41	7700.36
481.59	7712.07
481.77	7758.88
481.95	7859.52
482.13	7845.48
482.31	7929.74
482.49	8098.25
482.67	8201.24
482.85	8283.16
483.03	8456.36
483.21	8482.10
483.39	8528.91
483.57	8245.71
483.74	8472.74
483.92	8468.06
484.10	8489.12
484.28	8723.18
484.46	8716.16
484.64	8936.17
484.82	8924.46
485.00	8868.29
485.18	9207.67
485.35	9357.46
485.53	9195.96
485.71	9193.62
485.89	9364.48
486.07	9310.65
486.25	9327.03
486.43	9584.49
486.61	9479.17
486.78	9544.70
486.96	9867.70
487.14	9928.55
487.32	9991.75
487.50	9975.36
487.68	10019.83
487.85	10047.92
488.03	10415.38
488.21	10345.17
488.39	10523.05
488.57	10569.86
488.75	10492.62
488.92	10736.04
489.10	10651.78
489.28	10654.12
489.46	10878.81
489.64	10787.53
489.81	11049.67
489.99	10808.59
490.17	10911.58
490.35	11190.10
490.53	11550.54
490.70	11339.90
490.88	11211.17
491.06	11716.72
491.24	11405.43
491.41	11667.57
491.59	11789.28
491.77	11864.18
491.95	11868.86
492.13	12086.53
492.30	11936.73
492.48	12142.70
492.66	12241.00
492.84	12030.35
493.01	12198.87
493.19	12290.15
493.37	12388.46
493.54	12697.41
493.72	12716.13
493.90	12697.41
494.08	12695.07
494.25	12442.29
494.43	12896.35
494.61	12961.89
494.79	12959.55
494.96	13008.70
495.14	12964.23
495.32	13205.30
495.49	13439.36
495.67	13174.88
495.85	13380.84
496.02	13603.19
496.20	13642.98
496.38	13584.47
496.55	13771.71
496.73	13891.08
496.91	13799.80
497.09	14174.28
497.26	14083.00
497.44	13764.69
497.62	14064.28
497.79	14391.95
497.97	14181.31
498.14	14473.87
498.32	14551.11
498.50	14466.85
498.67	14576.86
498.85	14389.61
499.03	14546.43
499.20	14860.06
499.38	14553.45
499.56	14850.70
499.73	14967.73
499.91	14815.59
500.08	15250.93
500.26	14869.42
500.44	14986.45
500.61	15192.42
500.79	15157.31
500.97	15330.51
501.14	15583.29
501.32	15208.80
501.49	15424.13
501.67	15564.56
501.84	15573.92
502.02	15681.59
502.20	15740.10
502.37	15922.66
502.55	15868.83
502.72	15955.43
502.90	16063.10
503.07	15889.90
503.25	16123.95
503.43	15917.98
503.60	16259.70
503.78	16292.47
503.95	16114.59
504.13	16437.58
504.30	16084.16
504.48	16266.72
504.65	16360.34
504.83	16613.12
505.01	16744.19
505.18	16559.29
505.36	16704.40
505.53	16940.80
505.71	17062.51
505.88	17076.55
506.06	16484.39
506.23	16929.09
506.41	16877.60
506.58	17076.55
506.76	16950.16
506.93	17116.34
507.11	16844.84
507.28	17027.40
507.46	17254.43
507.63	17425.29
507.81	17298.90
507.98	17104.64
508.16	17408.90
508.33	17366.78
508.50	17479.12
508.68	17422.95
508.85	17951.91
509.03	17661.68
509.20	17713.17
509.38	18300.65
509.55	17884.03
509.73	18192.98
509.90	17998.72
510.08	17813.82
510.25	17958.93
510.42	18314.69
510.60	18169.58
510.77	18136.81
510.95	18527.68
511.12	18239.79
511.30	18113.41
511.47	18228.09
511.64	18637.69
511.82	18628.32
511.99	18497.25
512.17	18860.04
512.34	18913.87
512.51	18534.70
512.69	18796.84
512.86	18827.27
513.04	19159.63
513.21	19103.45
513.38	18988.77
513.56	19283.67
513.73	18841.31
513.90	19232.18
514.08	19103.45
514.25	19367.93
514.43	19243.88
514.60	19339.85
514.77	19515.39
514.95	19435.81
515.12	19412.40
515.29	19697.95
515.47	19606.67
515.64	20025.62
515.81	19763.48
515.99	19782.21
516.16	19852.42
516.33	19822.00
516.51	20086.48
516.68	19623.05
516.85	20049.03
517.03	20004.56
517.20	19889.87
517.37	19929.66
517.54	19976.47
517.72	20374.36
517.89	19992.86
518.06	20475.01
518.24	20189.46
518.41	20156.69
518.58	20304.15
518.75	20514.80
518.93	20816.72
519.10	20552.24
519.27	20507.77
519.45	20500.75
519.62	20755.87
519.79	20666.93
519.96	20739.49
520.14	21032.05
520.31	20805.02
520.48	21036.74
520.65	20725.44
520.83	20776.94
521.00	20870.56
521.17	20730.12
521.34	20905.66
521.52	21287.17
521.69	21036.74
521.86	20987.58
522.03	21394.84
522.20	20968.86
522.38	21451.01
522.55	21261.43
522.72	21460.37
522.89	21556.33
523.07	21584.42
523.24	21752.94
523.41	21455.69
523.58	21254.40
523.75	21715.49
523.92	21769.32
524.10	21879.33
524.27	21729.53
524.44	21902.73
524.61	22066.57
524.78	22085.30
524.96	22162.53
525.13	22192.96
525.30	22265.52
525.47	22164.87
525.64	22408.29
525.81	22078.27
525.98	22656.39
526.16	22441.06
526.33	22239.77
526.50	22469.14
526.67	22143.81
526.84	22544.04
527.01	22581.49
527.18	22398.93
527.36	22485.53
527.53	22618.94
527.70	23098.75
527.87	22618.94
528.04	22731.28
528.21	22876.40
528.38	22745.33
528.55	22930.23
528.72	22843.63
528.89	22698.52
529.07	22958.31
529.24	22991.08
529.41	22885.76
529.58	22885.76
529.75	22759.37
529.92	22838.95
530.09	22923.21
530.26	23002.78
530.43	23115.13
530.60	22920.87
530.77	23234.50
530.94	23288.33
531.11	23096.41
531.28	23143.22
531.46	23349.18
531.63	23335.14
531.80	23580.90
531.97	23695.58
532.14	23627.71
532.31	23618.35
532.48	23616.01
532.65	23733.03
532.82	23435.78
532.99	23330.46
533.16	23737.71
533.33	24044.32
533.50	23920.28
533.67	24191.78
533.84	23861.76
534.01	23885.17
534.18	23843.04
534.35	24018.58
534.52	23660.48
534.69	24215.18
534.86	24046.66
535.03	24072.41
535.20	24086.45
535.37	24161.35
535.54	24107.52
535.71	23864.10
535.88	24102.84
536.05	24402.43
536.22	24362.64
536.38	24208.16
536.55	24711.38
536.72	24416.47
536.89	24353.27
537.06	24697.33
537.23	24510.09
537.40	24355.61
537.57	24421.15
537.74	24650.52
537.91	24781.59
538.08	24610.73
538.25	24531.15
538.42	24676.27
538.59	24570.94
538.75	24615.41
538.92	24638.82
539.09	25032.03
539.26	24957.13
539.43	24812.02
539.60	24835.42
539.77	24783.93
539.94	24716.06
540.11	24929.05
540.28	24865.85
540.44	24947.77
540.61	25006.28
540.78	24814.36
540.95	25139.69
541.12	25294.17
541.29	25006.28
541.46	25167.78
541.62	25469.71
541.79	25240.34
541.96	25076.50
542.13	24910.32
542.30	25125.65
542.47	25469.71
542.63	25708.44
542.80	25827.81
542.97	25432.26
543.14	25645.25
543.31	25855.90
543.48	25692.06
543.64	26125.06
543.81	25825.47
543.98	26087.61
544.15	26134.42
544.32	26115.70
544.48	26178.89
544.65	25846.54
544.82	25659.29
544.99	25755.26
545.16	25757.60
545.32	26089.95
545.49	26391.88
545.66	26448.05
545.83	26239.75
546.00	26265.49
546.16	26230.38
546.33	26338.05
546.50	25891.01
546.67	26305.28
546.83	25986.97
547.00	26225.70
547.17	26473.80
547.34	26167.19
547.50	26682.11
547.67	26441.03
547.84	26338.05
548.00	26291.24
548.17	26394.22
548.34	26696.15
548.51	26408.26
548.67	27026.17
548.84	26799.13
549.01	26960.63
549.18	26518.27
549.34	26969.99
549.51	26731.26
549.68	26792.11
549.84	26434.01
550.01	26513.59
550.18	26405.92
550.34	26567.42
550.51	27180.64
550.68	26782.75
550.84	26714.87
551.01	27051.91
551.18	26792.11
551.34	26485.50
551.51	26864.67
551.68	27227.45
551.84	27197.02
552.01	26878.71
552.18	27318.73
552.34	26948.93
552.51	27543.42
552.68	26871.69
552.84	27407.67
553.01	27049.57
553.18	27190.00
553.34	27173.62
553.51	27335.12
553.67	27489.59
553.84	27449.80
554.01	27529.38
554.17	27206.39
554.34	27487.25
554.51	27510.66
554.67	27218.09
554.84	27765.78
555.00	27461.51
555.17	27690.88
555.33	27505.98
555.50	27311.71
555.67	27615.98
555.83	27927.27
556.00	27744.71
556.16	27648.75
556.33	27344.48
556.50	27510.66
556.66	27835.99
556.83	27653.43
556.99	28341.55
557.16	27786.84
557.32	27803.22
557.49	27971.74
557.65	27658.11
557.82	27309.37
557.98	27615.98
558.15	27566.83
558.32	28011.53
558.48	27665.13
558.65	28112.17
558.81	28037.28
558.98	27807.90
559.14	27843.01
559.31	28037.28
559.47	27782.16
559.64	28161.33
559.80	28020.89
559.97	28135.58
560.13	28198.77
560.30	27983.44
560.46	28020.89
560.63	28203.46
560.79	28306.44
560.96	28294.74
561.12	28215.16
561.29	27920.25
561.45	28114.52
561.61	28254.95
561.78	28308.78
561.94	28203.46
562.11	28112.17
562.27	28449.21
562.44	28205.80
562.60	27976.42
562.77	28404.74
562.93	28044.30
563.10	28561.56
563.26	28100.47
563.42	28641.14
563.59	28517.09
563.75	28407.08
563.92	28643.48
564.08	28273.67
564.24	28276.01
564.41	28526.45
564.57	28460.91
564.74	28409.42
564.90	28313.46
565.07	28481.98
565.23	28540.49
565.39	28664.54
565.56	28737.10
565.72	28554.54
565.88	28287.71
566.05	28271.33
566.21	28620.07
566.38	28376.66
566.54	28606.03
566.70	28549.85
566.87	28676.24
567.03	28701.99
567.19	28765.18
567.36	28767.52
567.52	28589.64
567.68	28884.55
567.85	28563.90
568.01	28819.02
568.17	28819.02
568.34	29076.48
568.50	28732.42
568.66	28678.58
568.83	28802.63
568.99	28566.24
569.15	28559.22
569.32	28659.86
569.48	28549.85
569.64	28945.41
569.81	28704.33
569.97	28538.15
570.13	28491.34
570.30	28627.09
570.46	28643.48
570.62	28898.59
570.78	28697.31
570.95	28664.54
571.11	28804.97
571.27	28903.28
571.43	28390.70
571.60	28793.27
571.76	28608.37
571.92	28727.74
572.09	29149.03
572.25	29032.00
572.41	29060.09
572.57	29050.73
572.74	28741.78
572.90	28477.30
573.06	28950.09
573.22	29017.96
573.38	28893.91
573.55	28739.44
573.71	29387.77
573.87	29219.25
574.03	28884.55
574.20	28650.50
574.36	28898.59
574.52	28816.68
574.68	28940.72
574.84	28615.39
575.01	29055.41
575.17	29015.62
575.33	29352.66
575.49	29083.50
575.65	29125.63
575.82	29230.95
575.98	29385.43
576.14	29099.88
576.30	29074.13
576.46	28966.47
576.62	29163.08
576.79	29053.07
576.95	28842.42
577.11	29071.79
577.27	28994.56
577.43	28875.19
577.59	29179.46
577.75	29090.52
577.92	28968.81
578.08	28957.11
578.24	28643.48
578.40	29006.26
578.56	28802.63
578.72	29144.35
578.88	29448.62
579.04	29303.51
579.21	29029.66
579.37	29230.95
579.53	28957.11
579.69	28701.99
579.85	28938.38
580.01	28769.86
580.17	28973.49
580.33	29301.17
580.49	28961.79
580.65	29256.70
580.82	29132.65
580.98	29273.08
581.14	28996.90
581.30	29109.24
581.46	28917.32
581.62	29053.07
581.78	29254.36
581.94	29151.37
582.10	29305.85
582.26	29123.29
582.42	29186.48
582.58	29378.40
582.74	29214.57
582.90	29266.06
583.06	29319.89
583.22	29469.69
583.38	29490.75
583.54	29184.14
583.70	29165.42
583.86	29310.53
584.02	29088.18
584.18	29308.19
584.34	29291.80
584.50	29514.16
584.66	29055.41
584.82	29041.37
584.98	28947.75
585.14	29252.02
585.30	29186.48
585.46	28987.53
585.62	29046.05
585.78	29633.52
585.94	29078.82
586.10	29010.94
586.26	29296.49
586.42	29504.79
586.58	29219.25
586.74	29130.31
586.90	28938.38
587.06	29179.46
587.22	29006.26
587.38	29209.89
587.54	29605.44
587.70	29621.82
587.86	29411.17
588.02	29638.20
588.18	29825.45
588.34	29156.05
588.49	29427.56
588.65	29338.62
588.81	29415.85
588.97	29523.52
589.13	29104.56
589.29	29376.06
589.45	29881.62
589.61	29809.06
589.77	29673.31
589.93	29567.99
590.08	29668.63
590.24	29586.71
590.40	29621.82
590.56	29982.26
590.72	29270.74
590.88	29153.71
591.04	29579.69
591.20	29759.91
591.35	29530.54
591.51	29687.36
591.67	29579.69
591.83	29638.20
591.99	29661.61
