SpectraSuite Data File
++++++++++++++++++++++++++++++++++++
Date: Fri Oct 18 13:58:06 GMT-05:00 2013
User: bianchi
Dark Spectrum Present: No
Reference Spectrum Present: No
Number of Sampled Component Spectra: 1
Spectrometers: USB2+H05261
Integration Time (usec): 50000 (USB2+H05261)
Spectra Averaged: 1 (USB2+H05261)
Boxcar Smoothing: 0 (USB2+H05261)
Correct for Electrical Dark: No (USB2+H05261)
Strobe/Lamp Enabled: No (USB2+H05261)
Correct for Detector Non-linearity: No (USB2+H05261)
Correct for Stray Light: No (USB2+H05261)
Number of Pixels in Processed Spectrum: 2048
>>>>>Begin Processed Spectral Data<<<<<
365.73	0.00
365.92	0.00
366.12	0.00
366.32	0.00
366.52	0.00
366.72	0.00
366.91	0.00
367.11	0.00
367.31	0.00
367.51	0.00
367.70	0.00
367.90	0.00
368.10	0.00
368.30	0.00
368.49	0.00
368.69	0.00
368.89	0.00
369.09	0.00
369.28	0.00
369.48	0.00
369.68	0.00
369.87	0.00
370.07	0.00
370.27	0.00
370.47	0.00
370.66	107.66
370.86	201.29
371.06	145.11
371.25	159.16
371.45	170.86
371.65	252.78
371.84	217.67
372.04	177.88
372.24	159.16
372.44	119.37
372.63	210.65
372.83	220.01
373.03	191.92
373.22	161.50
373.42	159.16
373.62	149.79
373.81	124.05
374.01	327.68
374.21	117.03
374.40	259.80
374.60	177.88
374.79	255.12
374.99	222.35
375.19	266.82
375.38	269.16
375.58	189.58
375.78	184.90
375.97	203.63
376.17	252.78
376.37	283.20
376.56	283.20
376.76	304.27
376.95	327.68
377.15	287.89
377.35	322.99
377.54	208.31
377.74	231.71
377.93	217.67
378.13	297.25
378.33	337.04
378.52	301.93
378.72	325.33
378.91	278.52
379.11	299.59
379.31	299.59
379.50	311.29
379.70	365.12
379.89	297.25
380.09	283.20
380.28	334.70
380.48	248.10
380.68	278.52
380.87	330.02
381.07	299.59
381.26	299.59
381.46	341.72
381.65	306.61
381.85	299.59
382.04	231.71
382.24	301.93
382.43	332.36
382.63	339.38
382.83	355.76
383.02	346.40
383.22	383.85
383.41	337.04
383.61	276.18
383.80	355.76
384.00	351.08
384.19	428.32
384.39	397.89
384.58	383.85
384.78	369.80
384.97	400.23
385.17	390.87
385.36	360.44
385.56	393.21
385.75	386.19
385.95	365.12
386.14	496.19
386.34	442.36
386.53	395.55
386.72	386.19
386.92	458.74
387.11	512.58
387.31	510.24
387.50	386.19
387.70	423.64
387.89	400.23
388.09	451.72
388.28	456.40
388.48	505.56
388.67	540.66
388.86	486.83
389.06	505.56
389.25	500.87
389.45	498.53
389.64	437.68
389.84	545.34
390.03	498.53
390.22	543.00
390.42	468.11
390.61	547.69
390.81	505.56
391.00	456.40
391.19	503.22
391.39	543.00
391.58	512.58
391.78	540.66
391.97	543.00
392.16	557.05
392.36	575.77
392.55	589.82
392.75	552.37
392.94	594.50
393.13	582.79
393.33	493.85
393.52	512.58
393.71	578.11
393.91	589.82
394.10	557.05
394.29	557.05
394.49	582.79
394.68	594.50
394.88	641.31
395.07	624.92
395.26	531.30
395.46	615.56
395.65	688.12
395.84	650.67
396.04	645.99
396.23	636.63
396.42	692.80
396.62	713.86
396.81	732.59
397.00	692.80
397.19	674.07
397.39	638.97
397.58	695.14
397.77	683.44
397.97	716.20
398.16	753.65
398.35	779.40
398.55	667.05
398.74	748.97
398.93	807.48
399.12	739.61
399.32	739.61
399.51	727.91
399.70	795.78
399.90	814.51
400.09	786.42
400.28	744.29
400.47	819.19
400.67	868.34
400.86	821.53
401.05	798.12
401.24	777.06
401.44	821.53
401.63	826.21
401.82	805.14
402.01	784.08
402.21	912.81
402.40	851.96
402.59	912.81
402.78	887.06
402.97	795.78
403.17	844.93
403.36	828.55
403.55	936.21
403.74	924.51
403.93	957.28
404.13	957.28
404.32	940.90
404.51	894.08
404.70	912.81
404.89	826.21
405.09	861.32
405.28	957.28
405.47	931.53
405.66	971.32
405.85	1057.92
406.05	1041.54
406.24	1107.07
406.43	926.85
406.62	1020.47
406.81	1043.88
407.00	1149.20
407.20	1027.50
407.39	1046.22
407.58	1074.31
407.77	1137.50
407.96	1013.45
408.15	1123.46
408.34	1111.75
408.54	1097.71
408.73	1104.73
408.92	1158.57
409.11	1184.31
409.30	1165.59
409.49	1163.25
409.68	1100.05
409.87	1132.82
410.07	1207.72
410.26	1200.69
410.45	1151.54
410.64	1238.14
410.83	1212.40
411.02	1245.16
411.21	1270.91
411.40	1317.72
411.59	1320.06
411.78	1224.10
411.98	1282.61
412.17	1320.06
412.36	1315.38
412.55	1352.83
412.74	1373.89
412.93	1397.30
413.12	1369.21
413.31	1493.26
413.50	1392.62
413.69	1474.54
413.88	1486.24
414.07	1462.83
414.26	1380.92
414.45	1444.11
414.64	1504.96
414.83	1397.30
415.02	1516.67
415.22	1652.42
415.41	1572.84
415.60	1610.29
415.79	1577.52
415.98	1638.38
416.17	1572.84
416.36	1605.61
416.55	1633.69
416.74	1666.46
416.93	1633.69
417.12	1633.69
417.31	1607.95
417.50	1743.70
417.69	1813.92
417.88	1806.89
418.07	1767.10
418.26	1776.47
418.45	1624.33
418.64	1879.45
418.83	1874.77
419.02	1902.86
419.21	1870.09
419.39	1825.62
419.58	1961.37
419.77	1858.39
419.96	1916.90
420.15	2064.35
420.34	1900.52
420.53	1902.86
420.72	2050.31
420.91	1898.17
421.10	1886.47
421.29	2024.56
421.48	1912.22
421.67	1937.96
421.86	1947.33
422.05	1998.82
422.24	2001.16
422.43	1968.39
422.61	2012.86
422.80	2143.93
422.99	2094.78
423.18	2038.61
423.37	2064.35
423.56	2029.24
423.75	2024.56
423.94	2090.10
424.13	1926.26
424.32	2026.90
424.50	2132.23
424.69	2001.16
424.88	2174.36
425.07	2045.63
425.26	1998.82
425.45	2019.88
425.64	2069.03
425.83	2078.40
426.01	2136.91
426.20	2134.57
426.39	2076.06
426.58	2083.08
426.77	2129.89
426.96	2118.18
427.15	2069.03
427.33	2045.63
427.52	2202.44
427.71	2134.57
427.90	2148.61
428.09	2174.36
428.28	2176.70
428.46	2146.27
428.65	2204.78
428.84	2417.77
429.03	2258.62
429.22	2181.38
429.40	2275.00
429.59	2340.54
429.78	2242.23
429.97	2282.02
430.16	2160.31
430.34	2291.38
430.53	2293.72
430.72	2392.03
430.91	2258.62
431.10	2310.11
431.28	2401.39
431.47	2385.01
431.66	2509.05
431.85	2326.49
432.03	2452.88
432.22	2558.21
432.41	2445.86
432.60	2530.12
432.79	2361.60
432.97	2562.89
433.16	2612.04
433.35	2553.52
433.54	2605.02
433.72	2583.95
433.91	2576.93
434.10	2476.29
434.28	2555.86
434.47	2600.34
434.66	2736.09
434.85	2644.81
435.03	2672.89
435.22	2717.36
435.41	2733.75
435.59	2583.95
435.78	2644.81
435.97	2803.96
436.16	2733.75
436.34	2766.51
436.53	2864.82
436.72	2803.96
436.90	2708.00
437.09	2818.00
437.28	2689.28
437.46	2715.02
437.65	2820.35
437.84	2995.89
438.02	2885.88
438.21	2792.26
438.40	2700.98
438.58	2881.20
438.77	2958.44
438.96	2855.45
439.14	3084.83
439.33	3129.30
439.52	3061.42
439.70	3009.93
439.89	3028.65
440.08	3080.14
440.26	3253.34
440.45	3136.32
440.63	3143.34
440.82	3234.62
441.01	3197.17
441.19	3201.85
441.38	3229.94
441.57	3321.22
441.75	3220.58
441.94	3323.56
442.12	3323.56
442.31	3353.99
442.50	3407.82
442.68	3412.50
442.87	3473.36
443.05	3501.44
443.24	3433.57
443.43	3494.42
443.61	3548.25
443.80	3595.06
443.98	3398.46
444.17	3311.86
444.35	3524.85
444.54	3581.02
444.73	3503.78
444.91	3494.42
445.10	3562.30
445.28	3368.03
445.47	3412.50
445.65	3480.38
445.84	3562.30
446.02	3471.01
446.21	3487.40
446.39	3473.36
446.58	3548.25
446.77	3667.62
446.95	3473.36
447.14	3492.08
447.32	3648.90
447.51	3712.09
447.69	3541.23
447.88	3674.64
448.06	3499.10
448.25	3569.32
448.43	3639.53
448.62	3686.34
448.80	3655.92
448.99	3754.22
449.17	3623.15
449.36	3597.40
449.54	3749.54
449.73	3775.28
449.91	3866.56
450.10	3826.78
450.28	3779.97
450.46	3723.79
450.65	3880.61
450.83	3908.69
451.02	3744.86
451.20	3892.31
451.39	3889.97
451.57	3861.88
451.76	3880.61
451.94	3936.78
452.13	3901.67
452.31	3939.12
452.49	3789.33
452.68	4095.94
452.86	3962.53
453.05	4016.36
453.23	4194.24
453.42	3999.98
453.60	4166.15
453.78	4032.74
453.97	4004.66
454.15	3918.06
454.34	4009.34
454.52	4060.83
454.70	4035.08
454.89	4177.86
455.07	4042.11
455.26	4189.56
455.44	4180.20
455.62	4152.11
455.81	4180.20
455.99	4131.05
456.17	4168.49
456.36	4191.90
456.54	4294.88
456.73	4311.27
456.91	4423.61
457.09	4320.63
457.28	4454.04
457.46	4250.41
457.64	4503.19
457.83	4411.91
458.01	4395.53
458.19	4552.34
458.38	4432.97
458.56	4521.92
458.74	4561.70
458.93	4613.20
459.11	4489.15
459.29	4561.70
459.48	4692.77
459.66	4566.39
459.84	4641.28
460.03	4566.39
460.21	4617.88
460.39	4547.66
460.57	4657.67
460.76	4678.73
460.94	4765.33
461.12	4767.67
461.31	4777.03
461.49	4833.21
461.67	4685.75
461.85	4837.89
462.04	4844.91
462.22	5109.39
462.40	4889.38
462.59	4903.42
462.77	4945.55
462.95	4891.72
463.13	4826.18
463.32	4847.25
463.50	4985.34
463.68	4933.85
463.86	4887.04
464.05	4910.44
464.23	4990.02
464.41	5083.64
464.59	4833.21
464.78	5118.75
464.96	5085.98
465.14	4983.00
465.32	5146.84
465.50	5153.86
465.69	5006.41
465.87	5081.30
466.05	5032.15
466.23	5032.15
466.41	5109.39
466.60	5287.27
466.78	5036.83
466.96	5177.26
467.14	5121.09
467.32	5083.64
467.51	5238.12
467.69	5172.58
467.87	5235.78
468.05	5359.83
468.23	5135.14
468.41	5198.33
468.60	5193.65
468.78	5383.23
468.96	5294.29
469.14	5411.32
469.32	5275.57
469.50	5280.25
469.69	5579.84
469.87	5533.03
470.05	5593.88
470.23	5596.22
470.41	5369.19
470.59	5671.12
470.77	5483.88
470.95	5626.65
471.14	5760.06
471.32	5556.43
471.50	5827.93
471.68	5811.55
471.86	5809.21
472.04	5832.62
472.22	5841.98
472.40	5764.74
472.58	5870.06
472.77	5783.46
472.95	5867.72
473.13	6237.53
473.31	5905.17
473.49	5970.71
473.67	5975.39
473.85	5968.37
474.03	6244.55
474.21	6230.51
474.39	6216.46
474.57	6314.77
474.75	6169.65
474.93	6370.94
475.12	6150.93
475.30	6298.38
475.48	6368.60
475.66	6560.52
475.84	6466.90
476.02	6455.20
476.20	6452.86
476.38	6724.36
476.56	6752.45
476.74	6628.40
476.92	6792.23
477.10	6654.14
477.28	6974.80
477.46	6733.72
477.64	6916.28
477.82	7089.48
478.00	7052.03
478.18	7145.66
478.36	6981.82
478.54	7138.63
478.72	7211.19
478.90	7328.22
479.08	7353.96
479.26	7173.74
479.44	7531.84
479.62	7478.01
479.80	7543.55
479.98	7506.10
480.16	7667.60
480.34	7721.43
480.52	7751.85
480.70	7791.64
480.88	7702.70
481.06	8056.12
481.24	7880.58
481.41	7964.84
481.59	8112.30
481.77	8107.62
481.95	8212.94
482.13	8418.91
482.31	8135.70
482.49	8432.95
482.67	8578.06
482.85	8667.00
483.03	8882.33
483.21	8699.77
483.39	8821.48
483.57	8912.76
483.74	8847.22
483.92	8931.48
484.10	8915.10
484.28	9088.30
484.46	9322.35
484.64	9392.57
484.82	9320.01
485.00	9174.90
485.18	9387.89
485.35	9584.49
485.53	9781.10
485.71	9839.61
485.89	9806.84
486.07	9621.94
486.25	9767.06
486.43	10097.07
486.61	10001.11
486.78	10038.56
486.96	10455.17
487.14	10427.09
487.32	10490.28
487.50	10527.73
487.68	10534.75
487.85	10569.86
488.03	10949.03
488.21	10892.85
488.39	10736.04
488.57	10970.09
488.75	10986.47
488.92	11176.06
489.10	11337.56
489.28	11288.40
489.46	11449.90
489.64	11192.44
489.81	11569.27
489.99	11459.26
490.17	11651.19
490.35	11829.07
490.53	11875.88
490.70	11819.71
490.88	12030.35
491.06	12140.36
491.24	11929.71
491.41	12341.64
491.59	12058.44
491.77	12358.03
491.95	12360.37
492.13	12416.54
492.30	12643.57
492.48	12615.49
492.66	12739.54
492.84	12528.89
493.01	12985.29
493.19	13036.78
493.37	12868.27
493.54	13057.85
493.72	13298.92
493.90	13174.88
494.08	13146.79
494.25	13635.96
494.43	13467.44
494.61	13280.20
494.79	13624.26
494.96	13706.18
495.14	13767.03
495.32	13806.82
495.49	13916.83
495.67	14108.75
495.85	14148.54
496.02	14153.22
496.20	14167.26
496.38	14216.41
496.55	14265.57
496.73	14623.67
496.91	14525.36
497.09	14707.93
497.26	14684.52
497.44	14705.59
497.62	14661.12
497.79	15026.24
497.97	14829.63
498.14	15028.58
498.32	15260.29
498.50	15321.15
498.67	15073.05
498.85	15260.29
499.03	15318.81
499.20	15386.68
499.38	15531.80
499.56	15857.13
499.73	15896.92
499.91	15822.02
500.08	15833.72
500.26	15882.88
500.44	15889.90
500.61	15955.43
500.79	15772.87
500.97	16072.46
501.14	16243.32
501.32	16451.63
501.49	16283.11
501.67	16236.30
501.84	16325.24
502.02	16343.96
502.20	16655.25
502.37	16540.57
502.55	16563.97
502.72	16758.24
502.90	16507.80
503.07	16730.15
503.25	16760.58
503.43	16702.06
503.60	16898.67
503.78	17156.13
503.95	17121.02
504.13	16744.19
504.30	17022.72
504.48	17034.42
504.65	17235.70
504.83	17378.48
505.01	17685.09
505.18	17350.39
505.36	17738.92
505.53	17490.82
505.71	17488.48
505.88	17266.13
506.06	17355.07
506.23	17783.39
506.41	17825.52
506.58	17809.14
506.76	17734.24
506.93	17937.87
507.11	17771.69
507.28	17598.49
507.46	17631.26
507.63	18061.91
507.81	18267.88
507.98	18054.89
508.16	18134.47
508.33	18317.03
508.50	18455.12
508.68	18462.15
508.85	18527.68
509.03	18335.76
509.20	18663.43
509.38	18616.62
509.55	18909.19
509.73	18789.82
509.90	18838.97
510.08	18789.82
510.25	18958.34
510.42	18956.00
510.60	19131.54
510.77	19286.01
510.95	19300.06
511.12	19257.93
511.30	19077.71
511.47	19447.51
511.64	19246.23
511.82	19562.20
511.99	19562.20
512.17	19585.60
512.34	19470.92
512.51	19953.07
512.69	20044.35
512.86	19894.55
513.04	20058.39
513.21	19833.70
513.38	19950.73
513.56	19983.49
513.73	19822.00
513.90	20060.73
514.08	19875.83
514.25	20182.44
514.43	20217.55
514.60	20711.40
514.77	20556.93
514.95	20182.44
515.12	20182.44
515.29	20329.89
515.47	20278.40
515.64	20978.22
515.81	20734.81
515.99	20652.89
516.16	20730.12
516.33	20807.36
516.51	20954.82
516.68	20451.60
516.85	20816.72
517.03	20980.56
517.20	21158.44
517.37	20807.36
517.54	21308.24
517.72	21268.45
517.89	21113.97
518.06	20961.84
518.24	21439.31
518.41	21422.92
518.58	21434.63
518.75	21418.24
518.93	21734.21
519.10	21458.03
519.27	21425.26
519.45	21734.21
519.62	21565.70
519.79	21458.03
519.96	21551.65
520.14	21865.28
520.31	21788.05
520.48	21968.27
520.65	21830.18
520.83	21905.07
521.00	22148.49
521.17	21748.26
521.34	22003.38
521.52	22057.21
521.69	22064.23
521.86	22466.80
522.03	22412.97
522.20	22544.04
522.38	22326.37
522.55	22335.73
522.72	22136.79
522.89	22527.66
523.07	22686.81
523.24	22478.50
523.41	22974.70
523.58	22611.92
523.75	22838.95
523.92	22490.21
524.10	22937.25
524.27	22860.01
524.44	22979.38
524.61	23264.92
524.78	23192.37
524.96	22867.03
525.13	23211.09
525.30	22986.40
525.47	23271.95
525.64	23339.82
525.81	23070.66
525.98	23468.55
526.16	23365.57
526.33	23594.94
526.50	23379.61
526.67	23192.37
526.84	23550.47
527.01	23349.18
527.18	23768.14
527.36	23651.11
527.53	23957.72
527.70	24027.94
527.87	23805.59
528.04	23613.66
528.21	23873.46
528.38	23981.13
528.55	24198.80
528.72	23943.68
528.89	23960.06
529.07	23709.63
529.24	24023.26
529.41	24058.37
529.58	24259.65
529.75	24060.71
529.92	24004.53
530.09	24245.61
530.26	24376.68
530.43	24271.36
530.60	24458.60
530.77	24182.42
530.94	24573.28
531.11	24346.25
531.28	24535.84
531.46	24528.81
531.63	24547.54
531.80	24603.71
531.97	25097.56
532.14	25062.46
532.31	24755.85
532.48	24727.76
532.65	24741.80
532.82	24847.13
532.99	24807.34
533.16	24907.98
533.33	25378.43
533.50	25233.32
533.67	25144.38
533.84	24926.71
534.01	25013.31
534.18	25071.82
534.35	25535.24
534.52	25113.95
534.69	25610.14
534.86	25624.18
535.03	25436.94
535.20	25221.61
535.37	25319.92
535.54	25343.32
535.71	25467.37
535.88	25317.57
536.05	25312.89
536.22	25614.82
536.38	25656.95
536.55	25710.78
536.72	25996.33
536.89	25729.51
537.06	25542.27
537.23	25933.14
537.40	25773.98
537.57	25837.17
537.74	25825.47
537.91	26089.95
538.08	25991.65
538.25	25479.07
538.42	26052.50
538.59	26012.71
538.75	25649.93
538.92	26089.95
539.09	25926.11
539.26	25972.92
539.43	26300.60
539.60	26342.73
539.77	26155.49
539.94	26197.62
540.11	26085.27
540.28	26328.69
540.44	26511.25
540.61	26302.94
540.78	26457.42
540.95	26536.99
541.12	26515.93
541.29	26394.22
541.46	26560.40
541.62	26366.13
541.79	26822.54
541.96	26036.12
542.13	26525.29
542.30	26888.07
542.47	26700.83
542.63	26876.37
542.80	26874.03
542.97	27255.54
543.14	27218.09
543.31	26909.14
543.48	26689.13
543.64	27522.36
543.81	27295.33
543.98	27042.55
544.15	27295.33
544.32	27105.74
544.48	27601.94
544.65	26995.74
544.82	27211.07
544.99	27171.28
545.16	27351.50
545.32	27346.82
545.49	27410.01
545.66	27763.43
545.83	27845.35
546.00	27763.43
546.16	27513.00
546.33	27419.38
546.50	27159.58
546.67	27857.06
546.83	27510.66
547.00	27646.41
547.17	27931.95
547.34	27707.26
547.50	27861.74
547.67	28006.85
547.84	27627.68
548.00	28044.30
548.17	27953.02
548.34	27960.04
548.51	28261.97
548.67	28308.78
548.84	28044.30
549.01	27938.97
549.18	27840.67
549.34	27957.70
549.51	28196.43
549.68	28350.91
549.84	27896.85
550.01	28037.28
550.18	28364.95
550.34	28285.37
550.51	28477.30
550.68	28442.19
550.84	28140.26
551.01	28383.68
551.18	28107.49
551.34	28397.72
551.51	28591.98
551.68	28694.97
551.84	28528.79
552.01	28652.84
552.18	28355.59
552.34	28395.38
552.51	28594.32
552.68	28507.72
552.84	28177.71
553.01	28790.93
553.18	28428.15
553.34	28811.99
553.51	28903.28
553.67	28828.38
553.84	29191.16
554.01	29085.84
554.17	28690.29
554.34	28861.15
554.51	28938.38
554.67	28854.12
554.84	28826.04
555.00	29186.48
555.17	28851.78
555.33	28919.66
555.50	28931.36
555.67	29394.79
555.83	28973.49
556.00	28943.06
556.16	29467.34
556.33	29209.89
556.50	28975.83
556.66	29146.69
556.83	28954.77
556.99	29230.95
557.16	29551.60
557.32	29195.84
557.49	29544.58
557.65	29062.43
557.82	28889.23
557.98	29319.89
558.15	29202.86
558.32	29560.97
558.48	29125.63
558.65	29638.20
558.81	29631.18
558.98	29198.18
559.14	29340.96
559.31	29469.69
559.47	29153.71
559.64	29713.10
559.80	29802.04
559.97	29919.07
560.13	29570.33
560.30	29970.56
560.46	29619.48
560.63	29811.40
560.79	29923.75
560.96	29621.82
561.12	29532.88
561.29	29666.29
561.45	29689.70
561.61	29731.83
561.78	29610.12
561.94	30073.54
562.11	29659.27
562.27	29790.34
562.44	29560.97
562.60	29890.98
562.77	29706.08
562.93	30075.88
563.10	29715.44
563.26	29921.41
563.42	30377.81
563.59	30309.94
563.75	30036.09
563.92	30092.27
564.08	29860.55
564.24	30127.38
564.41	30073.54
564.57	29909.71
564.74	30401.22
564.90	30148.44
565.07	30150.78
565.23	29909.71
565.39	30110.99
565.56	30590.80
565.72	29853.53
565.88	30359.09
566.05	29979.92
566.21	30047.80
566.38	30132.06
566.54	29778.64
566.70	30485.48
566.87	30637.61
567.03	30228.02
567.19	30490.16
567.36	30218.66
567.52	30073.54
567.68	30401.22
567.85	30401.22
568.01	30417.60
568.17	30340.36
568.34	30106.31
568.50	30426.96
568.66	30401.22
568.83	30398.88
568.99	30412.92
569.15	30305.26
569.32	30136.74
569.48	30064.18
569.64	30384.83
569.81	30108.65
569.97	30443.35
570.13	30490.16
570.30	29972.90
570.46	30462.07
570.62	30237.38
570.78	30265.47
570.95	30391.86
571.11	30618.89
571.27	30394.20
571.43	30316.96
571.60	30543.99
571.76	30373.13
571.92	30759.32
572.09	30541.65
572.25	30490.16
572.41	30323.98
572.57	30656.34
572.74	30555.69
572.90	30635.27
573.06	30469.09
573.22	30740.60
573.38	30597.82
573.55	30473.78
573.71	30656.34
573.87	30672.72
574.03	30635.27
574.20	30391.86
574.36	30597.82
574.52	30616.55
574.68	30586.12
574.84	30300.58
575.01	30864.64
575.17	30742.94
575.33	30635.27
575.49	30438.67
575.65	30518.25
575.82	30923.16
575.98	30597.82
576.14	30494.84
576.30	30752.30
576.46	30567.40
576.62	30593.14
576.79	30876.35
576.95	30644.63
577.11	31299.98
577.27	30965.29
577.43	30773.36
577.59	30581.44
577.75	30803.79
577.92	30335.68
578.08	30754.64
578.24	30464.41
578.40	30567.40
578.56	30635.27
578.72	30838.90
578.88	30874.01
579.04	30700.81
579.21	31051.89
579.37	30682.08
579.53	30857.62
579.69	30888.05
579.85	30628.25
580.01	30487.82
580.17	30700.81
580.33	30927.84
580.49	30682.08
580.65	30448.03
580.82	30843.58
580.98	31072.95
581.14	30710.17
581.30	30869.33
581.46	30881.03
581.62	31063.59
581.78	30756.98
581.94	30965.29
582.10	30555.69
582.26	31007.42
582.42	30803.79
582.58	30855.28
582.74	30909.11
582.90	31197.00
583.06	30597.82
583.22	30749.96
583.38	30567.40
583.54	30885.71
583.70	30878.69
583.86	30813.15
584.02	30705.49
584.18	31264.88
584.34	30703.15
584.50	31152.53
584.66	30939.54
584.82	31014.44
584.98	31447.44
585.14	31138.49
585.30	30658.68
585.46	30773.36
585.62	30831.88
585.78	31543.40
585.94	30852.94
586.10	31047.21
586.26	30616.55
586.42	30927.84
586.58	31009.76
586.74	31110.40
586.90	31000.40
587.06	30817.83
587.22	31454.46
587.38	30958.27
587.54	31042.53
587.70	31433.39
587.86	31047.21
588.02	31065.93
588.18	31452.12
588.34	31559.78
588.49	30988.69
588.65	30646.97
588.81	30923.16
588.97	31328.07
589.13	31101.04
589.29	31030.82
589.45	31384.24
589.61	31447.44
589.77	31929.59
589.93	31318.71
590.08	31412.33
590.24	31290.62
590.40	31269.56
590.56	31637.02
590.72	31131.47
590.88	31180.62
591.04	31405.31
591.20	31442.76
591.35	31424.03
591.51	31569.15
591.67	31496.59
591.83	31325.73
