SpectraSuite Data File
++++++++++++++++++++++++++++++++++++
Date: Fri Oct 18 13:58:43 GMT-05:00 2013
User: bianchi
Dark Spectrum Present: No
Reference Spectrum Present: No
Number of Sampled Component Spectra: 1
Spectrometers: USB2+H05261
Integration Time (usec): 50000 (USB2+H05261)
Spectra Averaged: 1 (USB2+H05261)
Boxcar Smoothing: 0 (USB2+H05261)
Correct for Electrical Dark: No (USB2+H05261)
Strobe/Lamp Enabled: No (USB2+H05261)
Correct for Detector Non-linearity: No (USB2+H05261)
Correct for Stray Light: No (USB2+H05261)
Number of Pixels in Processed Spectrum: 2048
>>>>>Begin Processed Spectral Data<<<<<
365.73	0.00
365.92	0.00
366.12	0.00
366.32	0.00
366.52	0.00
366.72	0.00
366.91	0.00
367.11	0.00
367.31	0.00
367.51	0.00
367.70	0.00
367.90	0.00
368.10	0.00
368.30	0.00
368.49	0.00
368.69	0.00
368.89	0.00
369.09	0.00
369.28	0.00
369.48	0.00
369.68	0.00
369.87	0.00
370.07	0.00
370.27	0.00
370.47	0.00
370.66	112.35
370.86	119.37
371.06	105.32
371.25	117.03
371.45	102.98
371.65	191.92
371.84	140.43
372.04	107.66
372.24	147.45
372.44	114.69
372.63	191.92
372.83	208.31
373.03	227.03
373.22	180.22
373.42	191.92
373.62	177.88
373.81	222.35
374.01	311.29
374.21	299.59
374.40	212.99
374.60	299.59
374.79	273.84
374.99	250.44
375.19	280.86
375.38	278.52
375.58	297.25
375.78	264.48
375.97	334.70
376.17	252.78
376.37	222.35
376.56	276.18
376.76	234.05
376.95	236.39
377.15	294.91
377.35	374.49
377.54	313.63
377.74	276.18
377.93	266.82
378.13	264.48
378.33	294.91
378.52	227.03
378.72	344.06
378.91	255.12
379.11	313.63
379.31	294.91
379.50	269.16
379.70	409.59
379.89	285.55
380.09	318.31
380.28	236.39
380.48	315.97
380.68	278.52
380.87	351.08
381.07	292.57
381.26	280.86
381.46	306.61
381.65	339.38
381.85	372.15
382.04	315.97
382.24	332.36
382.43	341.72
382.63	367.46
382.83	379.17
383.02	400.23
383.22	332.36
383.41	311.29
383.61	379.17
383.80	393.21
384.00	402.57
384.19	390.87
384.39	287.89
384.58	341.72
384.78	386.19
384.97	421.30
385.17	395.55
385.36	327.68
385.56	388.53
385.75	353.42
385.95	337.04
386.14	390.87
386.34	383.85
386.53	411.93
386.72	334.70
386.92	423.64
387.11	379.17
387.31	397.89
387.50	423.64
387.70	411.93
387.89	533.64
388.09	393.21
388.28	449.38
388.48	423.64
388.67	454.06
388.86	390.87
389.06	479.81
389.25	472.79
389.45	475.13
389.64	463.43
389.84	486.83
390.03	535.98
390.22	531.30
390.42	486.83
390.61	517.26
390.81	507.90
391.00	444.70
391.19	397.89
391.39	482.15
391.58	503.22
391.78	587.47
391.97	580.45
392.16	477.47
392.36	472.79
392.55	573.43
392.75	571.09
392.94	578.11
393.13	479.81
393.33	503.22
393.52	505.56
393.71	594.50
393.91	613.22
394.10	475.13
394.29	678.76
394.49	566.41
394.68	566.41
394.88	580.45
395.07	606.20
395.26	660.03
395.46	573.43
395.65	606.20
395.84	685.78
396.04	667.05
396.23	653.01
396.42	716.20
396.62	655.35
396.81	702.16
397.00	615.56
397.19	683.44
397.39	669.39
397.58	660.03
397.77	650.67
397.97	657.69
398.16	636.63
398.35	730.25
398.55	631.94
398.74	720.88
398.93	713.86
399.12	704.50
399.32	716.20
399.51	685.78
399.70	725.57
399.90	695.14
400.09	730.25
400.28	737.27
400.47	779.40
400.67	713.86
400.86	765.36
401.05	835.57
401.24	847.27
401.44	786.42
401.63	739.61
401.82	795.78
402.01	830.89
402.21	800.46
402.40	720.88
402.59	779.40
402.78	786.42
402.97	807.48
403.17	828.55
403.36	933.87
403.55	854.30
403.74	910.47
403.93	870.68
404.13	924.51
404.32	833.23
404.51	816.85
404.70	1006.43
404.89	929.19
405.09	912.81
405.28	910.47
405.47	917.49
405.66	912.81
405.85	971.32
406.05	894.08
406.24	931.53
406.43	924.51
406.62	1020.47
406.81	1041.54
407.00	940.90
407.20	915.15
407.39	1013.45
407.58	1090.69
407.77	1062.60
407.96	1069.62
408.15	1018.13
408.34	1097.71
408.54	1093.03
408.73	1046.22
408.92	1144.52
409.11	1088.35
409.30	1100.05
409.49	1076.65
409.68	1074.31
409.87	1146.86
410.07	1167.93
410.26	1100.05
410.45	1125.80
410.64	1163.25
410.83	1259.21
411.02	1238.14
411.21	1249.85
411.40	1235.80
411.59	1224.10
411.78	1299.00
411.98	1170.27
412.17	1306.02
412.36	1341.13
412.55	1313.04
412.74	1266.23
412.93	1345.81
413.12	1303.68
413.31	1427.73
413.50	1284.95
413.69	1439.43
413.88	1420.71
414.07	1432.41
414.26	1481.56
414.45	1488.58
414.64	1507.30
414.83	1591.56
415.02	1420.71
415.22	1554.12
415.41	1586.88
415.60	1500.28
415.79	1427.73
415.98	1519.01
416.17	1554.12
416.36	1511.99
416.55	1511.99
416.74	1640.72
416.93	1701.57
417.12	1589.22
417.31	1598.59
417.50	1685.19
417.69	1703.91
417.88	1619.65
418.07	1666.46
418.26	1797.53
418.45	1774.13
418.64	1834.98
418.83	1727.32
419.02	1713.27
419.21	1856.04
419.39	1811.57
419.58	1818.60
419.77	1767.10
419.96	1888.81
420.15	1837.32
420.34	1837.32
420.53	1715.61
420.72	1893.49
420.91	1788.17
421.10	1914.56
421.29	1886.47
421.48	1919.24
421.67	2071.37
421.86	1895.83
422.05	2038.61
422.24	1959.03
422.43	1909.88
422.61	1942.64
422.80	1966.05
422.99	2005.84
423.18	2024.56
423.37	2043.29
423.56	2040.95
423.75	2003.50
423.94	1872.43
424.13	1844.34
424.32	1809.23
424.50	2090.10
424.69	2050.31
424.88	2019.88
425.07	1982.43
425.26	1919.24
425.45	1952.01
425.64	1956.69
425.83	2054.99
426.01	2052.65
426.20	1944.99
426.39	2083.08
426.58	1991.80
426.77	2071.37
426.96	2122.87
427.15	2043.29
427.33	2097.12
427.52	2057.33
427.71	2101.80
427.90	2108.82
428.09	2200.10
428.28	2211.81
428.46	2181.38
428.65	2242.23
428.84	2251.60
429.03	2356.92
429.22	2125.21
429.40	2235.21
429.59	2260.96
429.78	2249.25
429.97	2057.33
430.16	2242.23
430.34	2237.55
430.53	2303.09
430.72	2251.60
430.91	2239.89
431.10	2172.02
431.28	2492.67
431.47	2335.85
431.66	2438.84
431.85	2427.14
432.03	2443.52
432.22	2427.14
432.41	2483.31
432.60	2394.37
432.79	2392.03
432.97	2417.77
433.16	2485.65
433.35	2471.61
433.54	2448.20
433.72	2434.16
433.91	2471.61
434.10	2483.31
434.28	2525.44
434.47	2562.89
434.66	2553.52
434.85	2516.08
435.03	2525.44
435.22	2572.25
435.41	2605.02
435.59	2583.95
435.78	2621.40
435.97	2750.13
436.16	2567.57
436.34	2672.89
436.53	2616.72
436.72	2686.94
436.90	2668.21
437.09	2780.56
437.28	2684.59
437.46	2693.96
437.65	2778.22
437.84	2766.51
438.02	2850.77
438.21	2803.96
438.40	2768.85
438.58	2855.45
438.77	2885.88
438.96	2782.90
439.14	2909.29
439.33	2902.26
439.52	2930.35
439.70	2949.08
439.89	3033.33
440.08	2979.50
440.26	3007.59
440.45	3094.19
440.63	3056.74
440.82	3063.76
441.01	3159.72
441.19	3026.31
441.38	3180.79
441.57	3171.43
441.75	3279.09
441.94	3166.74
442.12	3243.98
442.31	3293.13
442.50	3314.20
442.68	3173.77
442.87	3225.26
443.05	3433.57
443.24	3461.65
443.43	3400.80
443.61	3428.88
443.80	3414.84
443.98	3248.66
444.17	3063.76
444.35	3358.67
444.54	3471.01
444.73	3321.22
444.91	3363.35
445.10	3534.21
445.28	3501.44
445.47	3349.31
445.65	3480.38
445.84	3456.97
446.02	3501.44
446.21	3337.60
446.39	3510.80
446.58	3316.54
446.77	3543.57
446.95	3403.14
447.14	3398.46
447.32	3590.38
447.51	3412.50
447.69	3473.36
447.88	3492.08
448.06	3358.67
448.25	3625.49
448.43	3548.25
448.62	3569.32
448.80	3555.27
448.99	3627.83
449.17	3559.95
449.36	3571.66
449.54	3707.41
449.73	3705.07
449.91	3646.55
450.10	3805.71
450.28	3705.07
450.46	3625.49
450.65	3779.97
450.83	3756.56
451.02	3803.37
451.20	3742.52
451.39	3634.85
451.57	3786.99
451.76	3761.24
451.94	3796.35
452.13	3826.78
452.31	3833.80
452.49	3894.65
452.68	3864.22
452.86	3763.58
453.05	3913.38
453.23	3957.85
453.42	3854.86
453.60	3922.74
453.78	3906.35
453.97	3850.18
454.15	3911.04
454.34	3880.61
454.52	3911.04
454.70	3976.57
454.89	3969.55
455.07	3971.89
455.26	4095.94
455.44	4198.92
455.62	4131.05
455.81	4093.60
455.99	4128.70
456.17	4058.49
456.36	4081.89
456.54	4128.70
456.73	4147.43
456.91	4306.59
457.09	4243.39
457.28	4301.90
457.46	4234.03
457.64	4341.69
457.83	4236.37
458.01	4159.13
458.19	4533.62
458.38	4369.78
458.56	4369.78
458.74	4353.40
458.93	4301.90
459.11	4521.92
459.29	4521.92
459.48	4554.68
459.66	4606.17
459.84	4521.92
460.03	4514.89
460.21	4652.98
460.39	4610.86
460.57	4435.32
460.76	4477.44
460.94	4622.56
461.12	4730.22
461.31	4493.83
461.49	4561.70
461.67	4486.81
461.85	4905.76
462.04	4723.20
462.22	4833.21
462.40	4704.48
462.59	4657.67
462.77	4807.46
462.95	4781.71
463.13	4807.46
463.32	4814.48
463.50	4730.22
463.68	4957.25
463.86	4805.12
464.05	4835.55
464.23	4807.46
464.41	4800.44
464.59	4798.10
464.78	4856.61
464.96	4854.27
465.14	4795.76
465.32	4844.91
465.50	5022.79
465.69	5116.41
465.87	5015.77
466.05	4741.93
466.23	4938.53
466.41	5128.11
466.60	5205.35
466.78	4990.02
466.96	4990.02
467.14	5156.20
467.32	4947.89
467.51	5177.26
467.69	4971.30
467.87	4990.02
468.05	5177.26
468.23	5053.22
468.41	5174.92
468.60	5083.64
468.78	5261.52
468.96	5027.47
469.14	5334.08
469.32	5350.46
469.50	5071.94
469.69	5451.11
469.87	5296.63
470.05	5369.19
470.23	5327.06
470.41	5348.12
470.59	5523.66
470.77	5408.98
470.95	5467.49
471.14	5533.03
471.32	5404.30
471.50	5554.09
471.68	5633.67
471.86	5547.07
472.04	5708.57
472.22	5673.46
472.40	5589.20
472.58	5701.54
472.77	5783.46
472.95	5722.61
473.13	5944.96
473.31	5767.08
473.49	5731.97
473.67	5874.74
473.85	5867.72
474.03	5991.77
474.21	5820.91
474.39	5940.28
474.57	6118.16
474.75	5991.77
474.93	6111.14
475.12	6043.26
475.30	6052.63
475.48	6064.33
475.66	6200.08
475.84	6228.17
476.02	6518.39
476.20	6249.23
476.38	6422.43
476.56	6487.96
476.74	6565.20
476.92	6476.26
477.10	6532.44
477.28	6490.31
477.46	6551.16
477.64	6640.10
477.82	6888.20
478.00	6843.73
478.18	6846.07
478.36	6923.30
478.54	6932.67
478.72	6944.37
478.90	7028.63
479.08	7197.15
479.26	7143.32
479.44	7241.62
479.62	7386.73
479.80	7414.82
479.98	7339.92
480.16	7435.88
480.34	7300.13
480.52	7644.19
480.70	7632.49
480.88	7784.62
481.06	7730.79
481.24	7669.94
481.41	7772.92
481.59	7793.98
481.77	8053.78
481.95	7957.82
482.13	8159.11
482.31	7831.43
482.49	8276.13
482.67	8119.32
482.85	8341.67
483.03	8540.61
483.21	8486.78
483.39	8472.74
483.57	8367.42
483.74	8629.56
483.92	8657.64
484.10	8685.73
484.28	8905.74
484.46	8945.53
484.64	9111.71
484.82	8835.52
485.00	9020.42
485.18	9249.80
485.35	9322.35
485.53	9345.76
485.71	9357.46
485.89	9511.94
486.07	9479.17
486.25	9451.08
486.43	9757.69
486.61	9724.93
486.78	9767.06
486.96	9776.42
487.14	9928.55
487.32	9795.14
487.50	10136.86
487.68	10251.55
487.85	10303.04
488.03	10572.20
488.21	10647.10
488.39	10640.08
488.57	10420.06
488.75	10600.29
488.92	10754.76
489.10	10974.77
489.28	10768.80
489.46	11136.27
489.64	10953.71
489.81	11360.96
489.99	11091.80
490.17	11119.89
490.35	11480.33
490.53	11384.37
490.70	11520.12
490.88	11721.40
491.06	11702.68
491.24	11864.18
491.41	11868.86
491.59	11894.60
491.77	11882.90
491.95	11988.22
492.13	12187.17
492.30	12121.63
492.48	12264.41
492.66	12208.23
492.84	12067.80
493.01	12524.21
493.19	12671.66
493.37	12622.51
493.54	12676.34
493.72	12849.54
493.90	12695.07
494.08	12924.44
494.25	12975.93
494.43	13231.05
494.61	13200.62
494.79	13202.96
494.96	13334.03
495.14	13235.73
495.32	13453.40
495.49	13378.50
495.67	13584.47
495.85	13799.80
496.02	13657.03
496.20	13858.31
496.38	13954.27
496.55	13701.50
496.73	14153.22
496.91	14066.62
497.09	14167.26
497.26	14420.04
497.44	14157.90
497.62	14209.39
497.79	14656.43
497.97	14251.52
498.14	14501.96
498.32	14532.39
498.50	14750.06
498.67	14654.09
498.85	14745.38
499.03	14932.62
499.20	14867.08
499.38	14745.38
499.56	15225.18
499.73	15494.35
499.91	15173.69
500.08	15185.40
500.26	15119.86
500.44	15300.08
500.61	15351.57
500.79	15276.68
500.97	15749.46
501.14	15641.80
501.32	15840.75
501.49	15744.78
501.67	15735.42
501.84	15765.85
502.02	16065.44
502.20	16060.76
502.37	16177.78
502.55	16020.97
502.72	15957.77
502.90	16222.25
503.07	15803.30
503.25	16435.24
503.43	16397.79
503.60	16477.37
503.78	16622.48
503.95	16400.13
504.13	16437.58
504.30	16945.48
504.48	16634.19
504.65	16734.83
504.83	16664.61
505.01	17088.25
505.18	16762.92
505.36	17125.70
505.53	16819.09
505.71	16908.03
505.88	17106.98
506.06	16842.50
506.23	17043.78
506.41	17174.85
506.58	17177.19
506.76	17156.13
506.93	17240.39
507.11	17268.47
507.28	17216.98
507.46	17444.01
507.63	17729.56
507.81	17795.09
507.98	17486.14
508.16	17619.55
508.33	17837.22
508.50	17869.99
508.68	18019.78
508.85	18078.30
509.03	17867.65
509.20	17926.16
509.38	18237.45
509.55	18099.36
509.73	18171.92
509.90	18298.31
510.08	18174.26
510.25	18204.69
510.42	18523.00
510.60	18567.47
510.77	18644.71
510.95	18546.40
511.12	18403.63
511.30	18537.04
511.47	18951.32
511.64	18572.15
511.82	18787.48
511.99	19243.88
512.17	18944.30
512.34	18981.74
512.51	19030.90
512.69	19276.65
512.86	19208.78
513.04	19262.61
513.21	19398.36
513.38	19372.61
513.56	19421.77
513.73	19374.95
513.90	19271.97
514.08	19194.73
514.25	19527.09
514.43	19630.07
514.60	19445.17
514.77	19569.22
514.95	19796.25
515.12	19838.38
515.29	19721.35
515.47	19747.10
515.64	20119.24
515.81	19826.68
515.99	19873.49
516.16	19906.26
516.33	20030.30
516.51	20463.30
516.68	19969.45
516.85	20226.91
517.03	20444.58
517.20	20393.09
517.37	20603.74
517.54	20507.77
517.72	20383.73
517.89	20402.45
518.06	20528.84
518.24	20467.98
518.41	20444.58
518.58	20439.90
518.75	20709.06
518.93	20886.94
519.10	20809.70
519.27	20898.64
519.45	21074.18
519.62	20863.54
519.79	20709.06
519.96	21027.37
520.14	21085.89
520.31	20891.62
520.48	21064.82
520.65	20954.82
520.83	21167.80
521.00	21319.94
521.17	21310.58
521.34	21516.54
521.52	21453.35
521.69	21195.89
521.86	21736.56
522.03	21755.28
522.20	21493.14
522.38	21727.19
522.55	21493.14
522.72	21706.13
522.89	21937.84
523.07	21991.67
523.24	22143.81
523.41	22314.67
523.58	21715.49
523.75	21916.78
523.92	21961.25
524.10	22214.02
524.27	22129.77
524.44	22207.00
524.61	22497.23
524.78	21986.99
524.96	22153.17
525.13	22492.55
525.30	22190.62
525.47	22192.96
525.64	22560.42
525.81	22712.56
525.98	22792.14
526.16	22684.47
526.33	22909.16
526.50	22876.40
526.67	22654.05
526.84	22955.97
527.01	22817.88
527.18	22890.44
527.36	22995.76
527.53	23136.20
527.70	23098.75
527.87	23241.52
528.04	23091.73
528.21	23058.96
528.38	22958.31
528.55	23316.42
528.72	23424.08
528.89	23269.61
529.07	23475.57
529.24	23164.28
529.41	23506.00
529.58	23201.73
529.75	23304.71
529.92	23304.71
530.09	23419.40
530.26	23379.61
530.43	23662.82
530.60	23381.95
530.77	23744.73
530.94	23770.48
531.11	23403.02
531.28	23538.77
531.46	23744.73
531.63	23805.59
531.80	23751.76
531.97	24084.11
532.14	24276.04
532.31	23641.75
532.48	24093.47
532.65	24112.20
532.82	23765.80
532.99	23931.98
533.16	24304.12
533.33	24222.20
533.50	24130.92
533.67	24285.40
533.84	24030.28
534.01	24271.36
534.18	24161.35
534.35	24437.53
534.52	24297.10
534.69	24533.50
534.86	24521.79
535.03	24610.73
535.20	24587.33
535.37	24493.71
535.54	24755.85
535.71	24254.97
535.88	24723.08
536.05	24531.15
536.22	24886.92
536.38	24849.47
536.55	24741.80
536.72	25228.63
536.89	24592.01
537.06	24720.74
537.23	24903.30
537.40	24652.86
537.57	24961.81
537.74	25097.56
537.91	24968.84
538.08	25429.92
538.25	25022.67
538.42	25132.67
538.59	25486.09
538.75	24802.66
538.92	24886.92
539.09	25125.65
539.26	25158.42
539.43	25198.21
539.60	25741.21
539.77	25177.14
539.94	25715.47
540.11	25645.25
540.28	25366.73
540.44	25378.43
540.61	25273.10
540.78	25507.16
540.95	25752.91
541.12	25453.33
541.29	25245.02
541.46	25483.75
541.62	25654.61
541.79	25745.89
541.96	25163.10
542.13	25518.86
542.30	25844.20
542.47	25972.92
542.63	26029.10
542.80	25979.95
542.97	26384.86
543.14	26319.32
543.31	26085.27
543.48	25905.05
543.64	26375.50
543.81	26382.52
543.98	26314.64
544.15	26429.33
544.32	26445.71
544.48	26672.74
544.65	26647.00
544.82	26520.61
544.99	26225.70
545.16	26586.15
545.32	25986.97
545.49	26771.05
545.66	26719.56
545.83	26939.57
546.00	26878.71
546.16	26490.18
546.33	26551.04
546.50	26305.28
546.67	26714.87
546.83	26335.71
547.00	26979.36
547.17	26951.27
547.34	26490.18
547.50	27065.96
547.67	26899.78
547.84	27108.08
548.00	26757.00
548.17	27199.37
548.34	27007.44
548.51	27154.90
548.67	27248.52
548.84	26895.10
549.01	27271.92
549.18	27002.76
549.34	27185.32
549.51	26888.07
549.68	27056.59
549.84	27206.39
550.01	27229.79
550.18	26981.70
550.34	27417.04
550.51	27281.28
550.68	27639.39
550.84	27239.15
551.01	27400.65
551.18	27377.25
551.34	26888.07
551.51	27489.59
551.68	27304.69
551.84	27456.82
552.01	27426.40
552.18	27796.20
552.34	27559.81
552.51	27545.76
552.68	27594.92
552.84	27541.08
553.01	27943.66
553.18	27824.29
553.34	27559.81
553.51	28123.88
553.67	27810.25
553.84	27903.87
554.01	27999.83
554.17	27711.94
554.34	27798.54
554.51	27913.23
554.67	27831.31
554.84	27777.48
555.00	27819.61
555.17	27718.96
555.33	28151.96
555.50	28002.17
555.67	28376.66
555.83	27992.81
556.00	28091.11
556.16	28315.80
556.33	27744.71
556.50	28037.28
556.66	28299.42
556.83	28453.89
556.99	28175.37
557.16	28257.29
557.32	28285.37
557.49	28435.17
557.65	28123.88
557.82	28521.77
557.98	28353.25
558.15	28105.15
558.32	28659.86
558.48	28257.29
558.65	28954.77
558.81	28400.06
558.98	28744.12
559.14	28404.74
559.31	28224.52
559.47	28758.16
559.64	28566.24
559.80	28341.55
559.97	28765.18
560.13	28533.47
560.30	28587.30
560.46	28563.90
560.63	28641.14
560.79	28573.26
560.96	28489.00
561.12	28940.72
561.29	28779.23
561.45	28596.67
561.61	28444.53
561.78	28472.62
561.94	28903.28
562.11	28723.05
562.27	28472.62
562.44	28676.24
562.60	28261.97
562.77	28472.62
562.93	28746.46
563.10	28547.51
563.26	28739.44
563.42	28966.47
563.59	28884.55
563.75	29060.09
563.92	28760.50
564.08	28819.02
564.24	28760.50
564.41	28676.24
564.57	28912.64
564.74	28919.66
564.90	28978.17
565.07	29088.18
565.23	28917.32
565.39	29263.72
565.56	29027.32
565.72	28929.02
565.88	28872.85
566.05	28814.34
566.21	28713.69
566.38	29134.99
566.54	29125.63
566.70	28947.75
566.87	29347.98
567.03	29298.83
567.19	29413.51
567.36	29055.41
567.52	29067.11
567.68	29177.12
567.85	29006.26
568.01	29331.59
568.17	29291.80
568.34	29415.85
568.50	29322.23
568.66	29446.28
568.83	29411.17
568.99	29647.57
569.15	29029.66
569.32	29174.78
569.48	29244.99
569.64	28994.56
569.81	28947.75
569.97	29139.67
570.13	29277.76
570.30	29132.65
570.46	29376.06
570.62	28924.34
570.78	29142.01
570.95	29294.14
571.11	29441.60
571.27	28919.66
571.43	28924.34
571.60	29191.16
571.76	29352.66
571.92	29640.54
572.09	29443.94
572.25	29083.50
572.41	29467.34
572.57	29479.05
572.74	29570.33
572.90	29160.73
573.06	29261.38
573.22	29221.59
573.38	29249.67
573.55	29612.46
573.71	29560.97
573.87	29429.90
574.03	29317.55
574.20	29333.93
574.36	29865.24
574.52	29605.44
574.68	29301.17
574.84	29582.03
575.01	29776.30
575.17	29797.36
575.33	29593.73
575.49	29469.69
575.65	29530.54
575.82	29607.78
575.98	29298.83
576.14	29874.60
576.30	29507.13
576.46	29420.53
576.62	29333.93
576.79	29427.56
576.95	29371.38
577.11	29535.22
577.27	29780.98
577.43	29778.64
577.59	29408.83
577.75	29546.92
577.92	29589.05
578.08	29469.69
578.24	29125.63
578.40	29745.87
578.56	29521.18
578.72	29820.77
578.88	29900.34
579.04	29708.42
579.21	29647.57
579.37	29694.38
579.53	29677.99
579.69	29287.12
579.85	29315.21
580.01	29378.40
580.17	29558.63
580.33	29701.40
580.49	29544.58
580.65	29797.36
580.82	29970.56
580.98	29785.66
581.14	29745.87
581.30	30087.59
581.46	30019.71
581.62	29652.25
581.78	29741.19
581.94	29479.05
582.10	29376.06
582.26	29256.70
582.42	29469.69
582.58	29713.10
582.74	29677.99
582.90	29797.36
583.06	29635.86
583.22	29755.23
583.38	29762.25
583.54	29701.40
583.70	29708.42
583.86	29731.83
584.02	29839.49
584.18	29736.51
584.34	30029.07
584.50	29663.95
584.66	29661.61
584.82	29883.96
584.98	29694.38
585.14	29771.61
585.30	29237.97
585.46	29612.46
585.62	29717.78
585.78	29729.48
585.94	29359.68
586.10	29846.51
586.26	30143.76
586.42	29673.31
586.58	30169.51
586.74	29542.24
586.90	29589.05
587.06	29535.22
587.22	29811.40
587.38	29631.18
587.54	29722.46
587.70	30078.22
587.86	30024.39
588.02	29521.18
588.18	30359.09
588.34	29834.81
588.49	29846.51
588.65	29930.77
588.81	29509.47
588.97	30036.09
589.13	29780.98
589.29	29661.61
589.45	29853.53
589.61	29991.62
589.77	30209.29
589.93	30188.23
590.08	30483.14
590.24	29942.47
590.40	30206.95
590.56	30426.96
590.72	30190.57
590.88	29844.17
591.04	29560.97
591.20	30232.70
591.35	30059.50
591.51	30150.78
591.67	30176.53
591.83	30033.75
591.99	30370.79
