SpectraSuite Data File
++++++++++++++++++++++++++++++++++++
Date: Fri Oct 18 13:58:34 GMT-05:00 2013
User: bianchi
Dark Spectrum Present: No
Reference Spectrum Present: No
Number of Sampled Component Spectra: 1
Spectrometers: USB2+H05261
Integration Time (usec): 50000 (USB2+H05261)
Spectra Averaged: 1 (USB2+H05261)
Boxcar Smoothing: 0 (USB2+H05261)
Correct for Electrical Dark: No (USB2+H05261)
Strobe/Lamp Enabled: No (USB2+H05261)
Correct for Detector Non-linearity: No (USB2+H05261)
Correct for Stray Light: No (USB2+H05261)
Number of Pixels in Processed Spectrum: 2048
>>>>>Begin Processed Spectral Data<<<<<
365.73	0.00
365.92	0.00
366.12	0.00
366.32	0.00
366.52	0.00
366.72	0.00
366.91	0.00
367.11	0.00
367.31	0.00
367.51	0.00
367.70	0.00
367.90	0.00
368.10	0.00
368.30	0.00
368.49	0.00
368.69	0.00
368.89	0.00
369.09	0.00
369.28	0.00
369.48	0.00
369.68	0.00
369.87	0.00
370.07	0.00
370.27	0.00
370.47	0.00
370.66	102.98
370.86	117.03
371.06	67.88
371.25	14.04
371.45	133.41
371.65	107.66
371.84	201.29
372.04	140.43
372.24	215.33
372.44	255.12
372.63	170.86
372.83	255.12
373.03	138.09
373.22	205.97
373.42	243.42
373.62	262.14
373.81	220.01
374.01	215.33
374.21	262.14
374.40	217.67
374.60	285.55
374.79	273.84
374.99	168.52
375.19	194.26
375.38	142.77
375.58	182.56
375.78	255.12
375.97	208.31
376.17	208.31
376.37	245.76
376.56	341.72
376.76	362.78
376.95	248.10
377.15	325.33
377.35	266.82
377.54	238.73
377.74	236.39
377.93	231.71
378.13	287.89
378.33	276.18
378.52	252.78
378.72	311.29
378.91	276.18
379.11	299.59
379.31	304.27
379.50	231.71
379.70	306.61
379.89	255.12
380.09	266.82
380.28	337.04
380.48	255.12
380.68	273.84
380.87	332.36
381.07	285.55
381.26	334.70
381.46	259.80
381.65	278.52
381.85	325.33
382.04	276.18
382.24	318.31
382.43	346.40
382.63	358.10
382.83	287.89
383.02	407.25
383.22	451.72
383.41	348.74
383.61	344.06
383.80	390.87
384.00	322.99
384.19	379.17
384.39	386.19
384.58	318.31
384.78	395.55
384.97	360.44
385.17	493.85
385.36	353.42
385.56	400.23
385.75	346.40
385.95	411.93
386.14	353.42
386.34	430.66
386.53	353.42
386.72	407.25
386.92	418.96
387.11	332.36
387.31	386.19
387.50	379.17
387.70	393.21
387.89	477.47
388.09	355.76
388.28	442.36
388.48	458.74
388.67	500.87
388.86	433.00
389.06	475.13
389.25	435.34
389.45	500.87
389.64	402.57
389.84	449.38
390.03	500.87
390.22	507.90
390.42	477.47
390.61	470.45
390.81	486.83
391.00	463.43
391.19	461.09
391.39	397.89
391.58	528.96
391.78	451.72
391.97	585.13
392.16	496.19
392.36	524.28
392.55	545.34
392.75	571.09
392.94	554.71
393.13	507.90
393.33	557.05
393.52	554.71
393.71	538.32
393.91	648.33
394.10	545.34
394.29	624.92
394.49	627.26
394.68	587.47
394.88	573.43
395.07	568.75
395.26	573.43
395.46	582.79
395.65	627.26
395.84	594.50
396.04	709.18
396.23	638.97
396.42	629.60
396.62	643.65
396.81	596.84
397.00	634.29
397.19	615.56
397.39	559.39
397.58	702.16
397.77	683.44
397.97	676.41
398.16	697.48
398.35	760.67
398.55	713.86
398.74	812.17
398.93	716.20
399.12	748.97
399.32	720.88
399.51	770.04
399.70	748.97
399.90	786.42
400.09	791.10
400.28	753.65
400.47	681.10
400.67	765.36
400.86	657.69
401.05	767.70
401.24	793.44
401.44	866.00
401.63	795.78
401.82	791.10
402.01	821.53
402.21	884.72
402.40	894.08
402.59	896.43
402.78	828.55
402.97	755.99
403.17	866.00
403.36	863.66
403.55	840.25
403.74	924.51
403.93	851.96
404.13	947.92
404.32	763.01
404.51	964.30
404.70	929.19
404.89	866.00
405.09	964.30
405.28	894.08
405.47	971.32
405.66	1060.26
405.85	926.85
406.05	1034.52
406.24	1008.77
406.43	1008.77
406.62	931.53
406.81	945.58
407.00	1090.69
407.20	1020.47
407.39	978.34
407.58	950.26
407.77	1130.48
407.96	1046.22
408.15	1067.28
408.34	968.98
408.54	1048.56
408.73	1046.22
408.92	1163.25
409.11	1158.57
409.30	1142.18
409.49	1088.35
409.68	1123.46
409.87	1090.69
410.07	1254.53
410.26	1200.69
410.45	1137.50
410.64	1104.73
410.83	1151.54
411.02	1214.74
411.21	1200.69
411.40	1259.21
411.59	1322.40
411.78	1315.38
411.98	1301.34
412.17	1242.82
412.36	1331.76
412.55	1331.76
412.74	1387.94
412.93	1409.00
413.12	1334.11
413.31	1437.09
413.50	1355.17
413.69	1359.85
413.88	1441.77
414.07	1437.09
414.26	1371.55
414.45	1540.07
414.64	1500.28
414.83	1528.37
415.02	1488.58
415.22	1565.82
415.41	1547.09
415.60	1474.54
415.79	1507.30
415.98	1570.50
416.17	1633.69
416.36	1668.80
416.55	1687.53
416.74	1629.01
416.93	1652.42
417.12	1593.90
417.31	1732.00
417.50	1685.19
417.69	1788.17
417.88	1783.49
418.07	1767.10
418.26	1717.95
418.45	1879.45
418.64	1923.92
418.83	1762.42
419.02	1748.38
419.21	1781.15
419.39	1783.49
419.58	1813.92
419.77	1774.13
419.96	1860.73
420.15	1923.92
420.34	1905.20
420.53	1827.96
420.72	1933.28
420.91	1914.56
421.10	1895.83
421.29	1888.81
421.48	1952.01
421.67	1902.86
421.86	2026.90
422.05	2019.88
422.24	1881.79
422.43	2015.20
422.61	1952.01
422.80	2038.61
422.99	2106.48
423.18	1921.58
423.37	2094.78
423.56	2071.37
423.75	1996.48
423.94	2010.52
424.13	1858.39
424.32	1949.67
424.50	2052.65
424.69	2059.67
424.88	2045.63
425.07	1947.33
425.26	1977.75
425.45	2076.06
425.64	1975.41
425.83	2040.95
426.01	2136.91
426.20	2057.33
426.39	1940.30
426.58	2139.25
426.77	2157.97
426.96	2008.18
427.15	1970.73
427.33	2174.36
427.52	2207.13
427.71	2172.02
427.90	2228.19
428.09	2129.89
428.28	2122.87
428.46	2321.81
428.65	2167.34
428.84	2265.64
429.03	2394.37
429.22	2258.62
429.40	2242.23
429.59	2225.85
429.78	2265.64
429.97	2232.87
430.16	2118.18
430.34	2270.32
430.53	2263.30
430.72	2307.77
430.91	2267.98
431.10	2347.56
431.28	2459.90
431.47	2370.96
431.66	2457.56
431.85	2352.24
432.03	2422.45
432.22	2366.28
432.41	2473.95
432.60	2406.07
432.79	2424.80
432.97	2424.80
433.16	2452.88
433.35	2443.52
433.54	2492.67
433.72	2396.71
433.91	2499.69
434.10	2443.52
434.28	2495.01
434.47	2518.42
434.66	2487.99
434.85	2745.45
435.03	2576.93
435.22	2532.46
435.41	2843.75
435.59	2644.81
435.78	2698.64
435.97	2581.61
436.16	2656.51
436.34	2649.49
436.53	2679.91
436.72	2775.88
436.90	2579.27
437.09	2708.00
437.28	2710.34
437.46	2677.57
437.65	2729.06
437.84	2869.50
438.02	2785.24
438.21	2841.41
438.40	2736.09
438.58	2897.58
438.77	2822.69
438.96	2771.19
439.14	2815.66
439.33	2820.35
439.52	2890.56
439.70	3028.65
439.89	2953.76
440.08	3028.65
440.26	3063.76
440.45	3115.25
440.63	3038.02
440.82	3183.13
441.01	3169.09
441.19	3133.98
441.38	3185.47
441.57	3211.22
441.75	3232.28
441.94	3311.86
442.12	3251.00
442.31	3262.71
442.50	3251.00
442.68	3173.77
442.87	3433.57
443.05	3377.39
443.24	3384.41
443.43	3314.20
443.61	3370.37
443.80	3480.38
443.98	3407.82
444.17	3243.98
444.35	3478.04
444.54	3466.33
444.73	3473.36
444.91	3417.18
445.10	3440.59
445.28	3424.20
445.47	3503.78
445.65	3335.26
445.84	3424.20
446.02	3569.32
446.21	3435.91
446.39	3379.73
446.58	3513.14
446.77	3557.61
446.95	3267.39
447.14	3377.39
447.32	3449.95
447.51	3623.15
447.69	3410.16
447.88	3637.19
448.06	3606.77
448.25	3550.59
448.43	3510.80
448.62	3566.98
448.80	3562.30
448.99	3534.21
449.17	3574.00
449.36	3545.91
449.54	3634.85
449.73	3716.77
449.91	3618.47
450.10	3761.24
450.28	3726.13
450.46	3751.88
450.65	3702.73
450.83	3798.69
451.02	3847.84
451.20	3861.88
451.39	3754.22
451.57	3639.53
451.76	3709.75
451.94	3847.84
452.13	4004.66
452.31	3955.51
452.49	3707.41
452.68	3836.14
452.86	3817.41
453.05	3815.07
453.23	3829.12
453.42	3786.99
453.60	3922.74
453.78	3985.93
453.97	3824.44
454.15	3920.40
454.34	3920.40
454.52	4004.66
454.70	3908.69
454.89	3995.29
455.07	4032.74
455.26	4109.98
455.44	4070.19
455.62	4102.96
455.81	4056.15
455.99	4011.68
456.17	4219.99
456.36	4100.62
456.54	4098.28
456.73	4257.43
456.91	4329.99
457.09	4208.28
457.28	4278.50
457.46	4301.90
457.64	4388.50
457.83	4376.80
458.01	4353.40
458.19	4250.41
458.38	4201.26
458.56	4432.97
458.74	4421.27
458.93	4512.55
459.11	4430.63
459.29	4451.70
459.48	4578.09
459.66	4528.94
459.84	4568.73
460.03	4521.92
460.21	4557.02
460.39	4692.77
460.57	4610.86
460.76	4681.07
460.94	4592.13
461.12	4507.87
461.31	4685.75
461.49	4491.49
461.67	4524.26
461.85	4699.80
462.04	4674.05
462.22	4807.46
462.40	4704.48
462.59	4802.78
462.77	4823.84
462.95	4777.03
463.13	4762.99
463.32	4762.99
463.50	4903.42
463.68	4695.11
463.86	4821.50
464.05	4758.31
464.23	4798.10
464.41	4877.68
464.59	4755.97
464.78	4882.36
464.96	5093.01
465.14	4774.69
465.32	4964.28
465.50	4924.49
465.69	5053.22
465.87	4844.91
466.05	4851.93
466.23	4964.28
466.41	5069.60
466.60	5144.50
466.78	5095.35
466.96	5050.88
467.14	5107.05
467.32	5130.45
467.51	5151.52
467.69	4938.53
467.87	4952.57
468.05	5142.16
468.23	5102.37
468.41	5085.98
468.60	5109.39
468.78	5418.34
468.96	5151.52
469.14	5224.08
469.32	5352.81
469.50	5022.79
469.69	5273.23
469.87	5298.97
470.05	5378.55
470.23	5268.55
470.41	5495.58
470.59	5455.79
470.77	5476.85
470.95	5439.40
471.14	5385.57
471.32	5488.56
471.50	5593.88
471.68	5502.60
471.86	5664.10
472.04	5563.45
472.22	5783.46
472.40	5724.95
472.58	5666.44
472.77	5767.08
472.95	5846.66
473.13	5769.42
473.31	5682.82
473.49	5696.86
473.67	5783.46
473.85	5799.85
474.03	5963.68
474.21	6080.71
474.39	6061.99
474.57	6092.41
474.75	6106.46
474.93	6216.46
475.12	6097.10
475.30	6186.04
475.48	6150.93
475.66	6179.01
475.84	6101.78
476.02	6384.98
476.20	6363.92
476.38	6499.67
476.56	6560.52
476.74	6555.84
476.92	6513.71
477.10	6476.26
477.28	6649.46
477.46	6600.31
477.64	6719.68
477.82	6733.72
478.00	6953.73
478.18	6808.62
478.36	7009.90
478.54	7173.74
478.72	7112.89
478.90	7185.44
479.08	7201.83
479.26	7246.30
479.44	7323.54
479.62	7234.60
479.80	7492.05
479.98	7506.10
480.16	7482.69
480.34	7531.84
480.52	7524.82
480.70	7536.52
480.88	7531.84
481.06	7513.12
481.24	7747.17
481.41	7838.45
481.59	7737.81
481.77	8124.00
481.95	7978.89
482.13	7918.03
482.31	8180.17
482.49	8236.35
482.67	8339.33
482.85	8163.79
483.03	8437.63
483.21	8416.57
483.39	8683.39
483.57	8456.36
483.74	8636.58
483.92	8664.66
484.10	8713.81
484.28	8760.63
484.46	8961.91
484.64	9114.05
484.82	8945.53
485.00	9137.45
485.18	9174.90
485.35	9364.48
485.53	9268.52
485.71	9430.02
485.89	9753.01
486.07	9694.50
486.25	9605.56
486.43	9760.03
486.61	9874.72
486.78	9682.80
486.96	9944.94
487.14	10038.56
487.32	10068.98
487.50	10237.50
487.68	10225.80
487.85	10347.51
488.03	10483.26
488.21	10626.03
488.39	10506.66
488.57	10588.58
488.75	10471.56
488.92	10930.30
489.10	10700.93
489.28	10881.15
489.46	11007.54
489.64	11056.69
489.81	11204.14
489.99	11108.18
490.17	11494.37
490.35	11529.48
490.53	11398.41
490.70	11606.72
490.88	11440.54
491.06	11606.72
491.24	11782.26
491.41	11845.45
491.59	11950.78
491.77	11864.18
491.95	12098.23
492.13	12020.99
492.30	12280.79
492.48	12212.92
492.66	12154.40
492.84	12290.15
493.01	12388.46
493.19	12617.83
493.37	12664.64
493.54	12709.11
493.72	12769.96
493.90	12868.27
494.08	13090.62
494.25	12894.01
494.43	12898.69
494.61	13212.32
494.79	13298.92
494.96	13221.69
495.14	13547.02
495.32	13350.42
495.49	13502.55
495.67	13645.32
495.85	13722.56
496.02	13989.38
496.20	13757.67
496.38	14083.00
496.55	13720.22
496.73	14040.87
496.91	14160.24
497.09	14193.01
497.26	14136.84
497.44	14183.65
497.62	14347.48
497.79	14731.33
497.97	14630.69
498.14	14518.34
498.32	14951.34
498.50	14745.38
498.67	14778.14
498.85	14764.10
499.03	14757.08
499.20	14946.66
499.38	15197.10
499.56	15264.97
499.73	15176.03
499.91	15337.53
500.08	15178.37
500.26	15391.36
500.44	15344.55
500.61	15349.23
500.79	15379.66
500.97	15531.80
501.14	15585.63
501.32	15817.34
501.49	15770.53
501.67	15648.82
501.84	15978.84
502.02	15964.79
502.20	16121.61
502.37	15957.77
502.55	15999.90
502.72	16358.00
502.90	16051.39
503.07	15913.30
503.25	16182.46
503.43	16297.15
503.60	16393.11
503.78	16601.42
503.95	16369.71
504.13	16346.30
504.30	16547.59
504.48	16627.17
504.65	16751.21
504.83	16861.22
505.01	17041.44
505.18	16809.73
505.36	16875.26
505.53	16688.02
505.71	16865.90
505.88	17130.38
506.06	16826.11
506.23	17341.03
506.41	16985.27
506.58	17418.27
506.76	17420.61
506.93	17102.29
507.11	17270.81
507.28	17640.62
507.46	17645.30
507.63	17472.10
507.81	17970.63
507.98	17528.27
508.16	17727.22
508.33	17596.15
508.50	17830.20
508.68	17741.26
508.85	18085.32
509.03	17788.07
509.20	18251.50
509.38	18377.89
509.55	18286.61
509.73	18310.01
509.90	18249.16
510.08	18029.15
510.25	18139.15
510.42	18298.31
510.60	18483.21
510.77	18801.52
510.95	18492.57
511.12	18735.99
511.30	18424.70
511.47	18775.78
511.64	18707.90
511.82	18766.42
511.99	18789.82
512.17	19449.85
512.34	19119.84
512.51	19096.43
512.69	18993.45
512.86	19136.22
513.04	19307.08
513.21	19066.00
513.38	19433.47
513.56	19613.69
513.73	19222.82
513.90	19190.05
514.08	19208.78
514.25	19389.00
514.43	19585.60
514.60	19433.47
514.77	19985.83
514.95	19697.95
515.12	19955.41
515.29	19847.74
515.47	19922.64
515.64	20102.86
515.81	19740.08
515.99	20109.88
516.16	20451.60
516.33	20156.69
516.51	20383.73
516.68	20126.27
516.85	20306.49
517.03	20215.21
517.20	20173.08
517.37	20304.15
517.54	20290.10
517.72	20482.03
517.89	20407.13
518.06	20484.37
518.24	20535.86
518.41	20648.21
518.58	20685.65
518.75	20580.33
518.93	20917.37
519.10	20725.44
519.27	21116.31
519.45	20470.33
519.62	21090.57
519.79	21221.64
519.96	21001.63
520.14	21120.99
520.31	21067.16
520.48	21408.88
520.65	21010.99
520.83	21341.00
521.00	21326.96
521.17	21151.42
521.34	21429.94
521.52	21074.18
521.69	21252.06
521.86	21638.25
522.03	21776.34
522.20	21687.40
522.38	21542.29
522.55	21619.53
522.72	21713.15
522.89	21820.81
523.07	21914.44
523.24	22008.06
523.41	21818.47
523.58	21724.85
523.75	22157.85
523.92	22059.55
524.10	22040.82
524.27	21848.90
524.44	22174.24
524.61	22459.78
524.78	22286.58
524.96	22010.40
525.13	22176.58
525.30	22450.42
525.47	22483.19
525.64	22328.71
525.81	22338.07
525.98	22656.39
526.16	22726.60
526.33	22445.74
526.50	22494.89
526.67	22391.91
526.84	22668.09
527.01	22803.84
527.18	23147.90
527.36	22747.67
527.53	23328.12
527.70	23094.07
527.87	23061.30
528.04	23164.28
528.21	23124.49
528.38	23098.75
528.55	23246.20
528.72	23314.08
528.89	23157.26
529.07	23335.14
529.24	23253.22
529.41	23480.25
529.58	23058.96
529.75	23229.82
529.92	23435.78
530.09	23604.30
530.26	23660.48
530.43	23374.93
530.60	23124.49
530.77	23433.44
530.94	23782.18
531.11	23571.54
531.28	23330.46
531.46	23529.41
531.63	23768.14
531.80	23733.03
531.97	24002.19
532.14	24107.52
532.31	23817.29
532.48	23653.45
532.65	24215.18
532.82	23810.27
532.99	24343.91
533.16	23796.23
533.33	23969.43
533.50	24290.08
533.67	24311.14
533.84	23658.14
534.01	24451.58
534.18	24159.01
534.35	24180.07
534.52	24484.34
534.69	24372.00
534.86	24783.93
535.03	24421.15
535.20	24521.79
535.37	24477.32
535.54	24734.78
535.71	24329.87
535.88	24678.61
536.05	24732.44
536.22	24711.38
536.38	24812.02
536.55	24826.06
536.72	25020.33
536.89	24470.30
537.06	24720.74
537.23	25240.34
537.40	24779.25
537.57	24620.10
537.74	25043.73
537.91	25364.39
538.08	25158.42
538.25	24964.15
538.42	24922.02
538.59	25081.18
538.75	25401.83
538.92	25202.89
539.09	25242.68
539.26	25214.59
539.43	25493.12
539.60	25317.57
539.77	25493.12
539.94	25720.15
540.11	25130.33
540.28	25312.89
540.44	25535.24
540.61	25617.16
540.78	25558.65
540.95	25605.46
541.12	25600.78
541.29	25109.27
541.46	25862.92
541.62	25509.50
541.79	25666.31
541.96	25586.74
542.13	25694.40
542.30	25806.75
542.47	25930.80
542.63	26026.76
542.80	26300.60
542.97	25954.20
543.14	26436.35
543.31	26031.44
543.48	26085.27
543.64	26333.37
543.81	26246.77
543.98	26424.65
544.15	26417.63
544.32	26412.95
544.48	26457.42
544.65	26080.59
544.82	26300.60
544.99	26176.55
545.16	26506.57
545.32	26347.41
545.49	26618.91
545.66	26733.60
545.83	26857.65
546.00	27094.04
546.16	26684.45
546.33	26305.28
546.50	26473.80
546.67	26300.60
546.83	26134.42
547.00	26967.65
547.17	26815.52
547.34	26457.42
547.50	27047.23
547.67	27026.17
547.84	26735.94
548.00	26904.46
548.17	27143.19
548.34	26827.22
548.51	26904.46
548.67	27124.47
548.84	27171.28
549.01	26778.07
549.18	27072.98
549.34	26913.82
549.51	27122.13
549.68	26895.10
549.84	27168.94
550.01	26810.84
550.18	27227.45
550.34	27356.18
550.51	27133.83
550.68	27295.33
550.84	26979.36
551.01	27861.74
551.18	27105.74
551.34	27503.64
551.51	27459.16
551.68	27482.57
551.84	27187.66
552.01	27651.09
552.18	27924.93
552.34	27384.27
552.51	27484.91
552.68	27599.60
552.84	27412.35
553.01	27541.08
553.18	27716.62
553.34	28126.22
553.51	27990.47
553.67	28006.85
553.84	28133.24
554.01	27915.57
554.17	27810.25
554.34	27805.56
554.51	27641.73
554.67	27917.91
554.84	28053.66
555.00	27826.63
555.17	28304.10
555.33	28067.70
555.50	28135.58
555.67	27997.49
555.83	27798.54
556.00	28116.86
556.16	28428.15
556.33	28105.15
556.50	27922.59
556.66	28304.10
556.83	28180.05
556.99	28535.81
557.16	28489.00
557.32	28615.39
557.49	28741.78
557.65	28252.61
557.82	28128.56
557.98	28048.98
558.15	28336.87
558.32	28357.93
558.48	28545.17
558.65	28428.15
558.81	28198.77
558.98	28496.02
559.14	28486.66
559.31	28484.32
559.47	28175.37
559.64	28460.91
559.80	28664.54
559.97	28360.27
560.13	28268.99
560.30	28418.78
560.46	28655.18
560.63	28615.39
560.79	28168.35
560.96	28706.67
561.12	28472.62
561.29	28613.05
561.45	28559.22
561.61	28528.79
561.78	28594.32
561.94	28568.58
562.11	28842.42
562.27	28664.54
562.44	28851.78
562.60	28662.20
562.77	28533.47
562.93	28641.14
563.10	28823.70
563.26	28652.84
563.42	28961.79
563.59	28989.88
563.75	28844.76
563.92	28863.49
564.08	28842.42
564.24	28758.16
564.41	28467.94
564.57	28732.42
564.74	28744.12
564.90	29113.92
565.07	29029.66
565.23	28840.08
565.39	28863.49
565.56	28917.32
565.72	28863.49
565.88	28968.81
566.05	28905.62
566.21	28964.13
566.38	28889.23
566.54	29104.56
566.70	29362.02
566.87	29528.20
567.03	29460.32
567.19	29305.85
567.36	29221.59
567.52	28992.22
567.68	29088.18
567.85	29013.28
568.01	29336.27
568.17	29308.19
568.34	29362.02
568.50	29151.37
568.66	29340.96
568.83	29502.45
568.99	29170.10
569.15	29380.74
569.32	28903.28
569.48	29076.48
569.64	29612.46
569.81	29343.30
569.97	29149.03
570.13	29340.96
570.30	29146.69
570.46	29340.96
570.62	29575.01
570.78	29081.16
570.95	29343.30
571.11	29394.79
571.27	29165.42
571.43	28959.45
571.60	29495.43
571.76	29001.58
571.92	29284.78
572.09	29170.10
572.25	29289.46
572.41	29841.83
572.57	29518.84
572.74	29415.85
572.90	29362.02
573.06	29214.57
573.22	29240.31
573.38	29455.64
573.55	29670.97
573.71	29528.20
573.87	29640.54
574.03	29130.31
574.20	29490.75
574.36	29008.60
574.52	29731.83
574.68	29167.76
574.84	29605.44
575.01	29598.41
575.17	29556.28
575.33	29523.52
575.49	29420.53
575.65	29465.00
575.82	29635.86
575.98	29542.24
576.14	29336.27
576.30	29661.61
576.46	29539.90
576.62	29570.33
576.79	29575.01
576.95	29408.83
577.11	29247.33
577.27	29422.87
577.43	29890.98
577.59	29729.48
577.75	29605.44
577.92	29303.51
578.08	29221.59
578.24	29331.59
578.40	29563.31
578.56	29113.92
578.72	29598.41
578.88	29324.57
579.04	29846.51
579.21	29500.11
579.37	29666.29
579.53	29734.17
579.69	29195.84
579.85	29378.40
580.01	29509.47
580.17	29596.07
580.33	29677.99
580.49	29493.09
580.65	30106.31
580.82	29872.26
580.98	29443.94
581.14	29593.73
581.30	29862.90
581.46	29640.54
581.62	29853.53
581.78	29446.28
581.94	29469.69
582.10	29462.66
582.26	29219.25
582.42	29661.61
582.58	29773.95
582.74	30082.91
582.90	29975.24
583.06	29441.60
583.22	29502.45
583.38	29813.74
583.54	29596.07
583.70	29411.17
583.86	30127.38
584.02	29919.07
584.18	29638.20
584.34	29722.46
584.50	29582.03
584.66	29575.01
584.82	30054.82
584.98	29486.07
585.14	29771.61
585.30	29565.65
585.46	29645.23
585.62	29556.28
585.78	30185.89
585.94	30080.56
586.10	29642.88
586.26	29795.02
586.42	30265.47
586.58	30047.80
586.74	29703.74
586.90	29694.38
587.06	29668.63
587.22	29715.44
587.38	29600.76
587.54	29696.72
587.70	30141.42
587.86	29745.87
588.02	30199.93
588.18	30118.01
588.34	29893.32
588.49	30022.05
588.65	29780.98
588.81	29481.39
588.97	30096.95
589.13	29846.51
589.29	29720.12
589.45	30127.38
589.61	29865.24
589.77	29921.41
589.93	30118.01
590.08	30295.89
590.24	30000.99
590.40	30008.01
590.56	30000.99
590.72	29853.53
590.88	29837.15
591.04	29727.14
591.20	29968.22
591.35	30401.22
591.51	30469.09
591.67	30321.64
591.83	30321.64
591.99	30347.39
