SpectraSuite Data File
++++++++++++++++++++++++++++++++++++
Date: Fri Oct 18 13:57:58 GMT-05:00 2013
User: bianchi
Dark Spectrum Present: No
Reference Spectrum Present: No
Number of Sampled Component Spectra: 1
Spectrometers: USB2+H05261
Integration Time (usec): 50000 (USB2+H05261)
Spectra Averaged: 1 (USB2+H05261)
Boxcar Smoothing: 0 (USB2+H05261)
Correct for Electrical Dark: No (USB2+H05261)
Strobe/Lamp Enabled: No (USB2+H05261)
Correct for Detector Non-linearity: No (USB2+H05261)
Correct for Stray Light: No (USB2+H05261)
Number of Pixels in Processed Spectrum: 2048
>>>>>Begin Processed Spectral Data<<<<<
365.73	0.00
365.92	0.00
366.12	0.00
366.32	0.00
366.52	0.00
366.72	0.00
366.91	0.00
367.11	0.00
367.31	0.00
367.51	0.00
367.70	0.00
367.90	0.00
368.10	0.00
368.30	0.00
368.49	0.00
368.69	0.00
368.89	0.00
369.09	0.00
369.28	0.00
369.48	0.00
369.68	0.00
369.87	0.00
370.07	0.00
370.27	0.00
370.47	0.00
370.66	126.39
370.86	128.73
371.06	128.73
371.25	131.07
371.45	156.82
371.65	18.72
371.84	84.26
372.04	189.58
372.24	194.26
372.44	187.24
372.63	163.84
372.83	212.99
373.03	205.97
373.22	248.10
373.42	177.88
373.62	191.92
373.81	217.67
374.01	241.08
374.21	236.39
374.40	224.69
374.60	236.39
374.79	320.65
374.99	210.65
375.19	278.52
375.38	238.73
375.58	250.44
375.78	248.10
375.97	299.59
376.17	330.02
376.37	285.55
376.56	308.95
376.76	250.44
376.95	250.44
377.15	285.55
377.35	374.49
377.54	252.78
377.74	294.91
377.93	212.99
378.13	283.20
378.33	315.97
378.52	273.84
378.72	306.61
378.91	222.35
379.11	280.86
379.31	264.48
379.50	248.10
379.70	386.19
379.89	311.29
380.09	243.42
380.28	264.48
380.48	292.57
380.68	414.27
380.87	220.01
381.07	301.93
381.26	351.08
381.46	210.65
381.65	285.55
381.85	290.23
382.04	252.78
382.24	444.70
382.43	351.08
382.63	355.76
382.83	337.04
383.02	435.34
383.22	379.17
383.41	428.32
383.61	376.83
383.80	311.29
384.00	421.30
384.19	388.53
384.39	353.42
384.58	353.42
384.78	395.55
384.97	393.21
385.17	444.70
385.36	346.40
385.56	322.99
385.75	358.10
385.95	470.45
386.14	395.55
386.34	372.15
386.53	381.51
386.72	465.77
386.92	444.70
387.11	437.68
387.31	351.08
387.50	393.21
387.70	421.30
387.89	470.45
388.09	416.62
388.28	505.56
388.48	463.43
388.67	538.32
388.86	416.62
389.06	433.00
389.25	456.40
389.45	411.93
389.64	475.13
389.84	437.68
390.03	468.11
390.22	489.17
390.42	538.32
390.61	449.38
390.81	472.79
391.00	465.77
391.19	444.70
391.39	580.45
391.58	566.41
391.78	461.09
391.97	552.37
392.16	543.00
392.36	550.03
392.55	578.11
392.75	573.43
392.94	587.47
393.13	554.71
393.33	514.92
393.52	596.84
393.71	629.60
393.91	636.63
394.10	472.79
394.29	580.45
394.49	650.67
394.68	587.47
394.88	627.26
395.07	589.82
395.26	608.54
395.46	585.13
395.65	578.11
395.84	610.88
396.04	697.48
396.23	641.31
396.42	601.52
396.62	737.27
396.81	674.07
397.00	692.80
397.19	685.78
397.39	664.71
397.58	692.80
397.77	685.78
397.97	706.84
398.16	669.39
398.35	751.31
398.55	755.99
398.74	816.85
398.93	751.31
399.12	734.93
399.32	746.63
399.51	734.93
399.70	781.74
399.90	786.42
400.09	695.14
400.28	840.25
400.47	786.42
400.67	828.55
400.86	758.33
401.05	816.85
401.24	863.66
401.44	870.68
401.63	763.01
401.82	910.47
402.01	875.36
402.21	840.25
402.40	830.89
402.59	901.11
402.78	854.30
402.97	837.91
403.17	755.99
403.36	877.70
403.55	870.68
403.74	903.45
403.93	964.30
404.13	971.32
404.32	997.07
404.51	887.06
404.70	1004.09
404.89	983.02
405.09	973.66
405.28	973.66
405.47	877.70
405.66	1081.33
405.85	1004.09
406.05	978.34
406.24	1013.45
406.43	1062.60
406.62	980.68
406.81	1111.75
407.00	1001.75
407.20	1029.84
407.39	1060.26
407.58	1125.80
407.77	1071.97
407.96	1111.75
408.15	1153.88
408.34	1086.01
408.54	1172.61
408.73	1090.69
408.92	1191.33
409.11	1151.54
409.30	1160.91
409.49	1067.28
409.68	1177.29
409.87	1256.87
410.07	1167.93
410.26	1160.91
410.45	1247.51
410.64	1277.93
410.83	1221.76
411.02	1151.54
411.21	1341.13
411.40	1287.29
411.59	1219.42
411.78	1203.04
411.98	1296.66
412.17	1308.36
412.36	1282.61
412.55	1320.06
412.74	1409.00
412.93	1476.88
413.12	1373.89
413.31	1502.62
413.50	1315.38
413.69	1345.81
413.88	1540.07
414.07	1397.30
414.26	1568.16
414.45	1481.56
414.64	1401.98
414.83	1600.93
415.02	1556.46
415.22	1661.78
415.41	1570.50
415.60	1483.90
415.79	1582.20
415.98	1607.95
416.17	1619.65
416.36	1652.42
416.55	1607.95
416.74	1621.99
416.93	1636.03
417.12	1706.25
417.31	1778.81
417.50	1774.13
417.69	1795.19
417.88	1898.17
418.07	1720.29
418.26	1774.13
418.45	1806.89
418.64	1893.49
418.83	1804.55
419.02	1823.28
419.21	1813.92
419.39	1884.13
419.58	1849.02
419.77	1865.41
419.96	1947.33
420.15	1900.52
420.34	1832.64
420.53	1977.75
420.72	1872.43
420.91	1928.60
421.10	2019.88
421.29	2080.74
421.48	2022.22
421.67	1987.11
421.86	1952.01
422.05	2017.54
422.24	1991.80
422.43	2033.93
422.61	2019.88
422.80	2005.84
422.99	2036.27
423.18	2143.93
423.37	2036.27
423.56	2054.99
423.75	2059.67
423.94	2001.16
424.13	1963.71
424.32	1954.35
424.50	1984.77
424.69	2202.44
424.88	2134.57
425.07	2024.56
425.26	2139.25
425.45	2057.33
425.64	2153.29
425.83	2066.69
426.01	2190.74
426.20	2200.10
426.39	2036.27
426.58	2036.27
426.77	2106.48
426.96	2188.40
427.15	2036.27
427.33	2120.53
427.52	2179.04
427.71	2202.44
427.90	2188.40
428.09	2186.06
428.28	2108.82
428.46	2267.98
428.65	2150.95
428.84	2289.04
429.03	2279.68
429.22	2211.81
429.40	2293.72
429.59	2253.94
429.78	2216.49
429.97	2200.10
430.16	2307.77
430.34	2363.94
430.53	2487.99
430.72	2326.49
430.91	2359.26
431.10	2298.41
431.28	2282.02
431.47	2403.73
431.66	2345.22
431.85	2284.36
432.03	2499.69
432.22	2530.12
432.41	2396.71
432.60	2562.89
432.79	2499.69
432.97	2560.55
433.16	2511.39
433.35	2335.85
433.54	2565.23
433.72	2633.10
433.91	2520.76
434.10	2581.61
434.28	2569.91
434.47	2569.91
434.66	2628.42
434.85	2649.49
435.03	2722.04
435.22	2553.52
435.41	2705.66
435.59	2630.76
435.78	2708.00
435.97	2623.74
436.16	2609.70
436.34	2565.23
436.53	2626.08
436.72	2827.37
436.90	2733.75
437.09	2848.43
437.28	2736.09
437.46	2700.98
437.65	2853.11
437.84	2794.60
438.02	2745.45
438.21	2862.48
438.40	2768.85
438.58	2923.33
438.77	2775.88
438.96	2984.18
439.14	3021.63
439.33	3028.65
439.52	3103.55
439.70	3063.76
439.89	3075.46
440.08	3026.31
440.26	3101.21
440.45	3215.90
440.63	3077.80
440.82	3126.96
441.01	3052.06
441.19	3269.73
441.38	3297.81
441.57	3208.87
441.75	3290.79
441.94	3279.09
442.12	3265.05
442.31	3459.31
442.50	3344.63
442.68	3480.38
442.87	3316.54
443.05	3541.23
443.24	3482.72
443.43	3412.50
443.61	3501.44
443.80	3463.99
443.98	3419.52
444.17	3414.84
444.35	3452.29
444.54	3559.95
444.73	3552.93
444.91	3595.06
445.10	3499.10
445.28	3529.53
445.47	3379.73
445.65	3541.23
445.84	3620.81
446.02	3712.09
446.21	3487.40
446.39	3482.72
446.58	3503.78
446.77	3564.64
446.95	3581.02
447.14	3501.44
447.32	3695.71
447.51	3709.75
447.69	3679.32
447.88	3634.85
448.06	3644.21
448.25	3648.90
448.43	3595.06
448.62	3630.17
448.80	3435.91
448.99	3639.53
449.17	3742.52
449.36	3679.32
449.54	3777.62
449.73	3772.94
449.91	3798.69
450.10	3763.58
450.28	3899.33
450.46	3613.79
450.65	3805.71
450.83	3824.44
451.02	3789.33
451.20	3761.24
451.39	3749.54
451.57	3747.20
451.76	3791.67
451.94	3779.97
452.13	3971.89
452.31	3850.18
452.49	3836.14
452.68	3861.88
452.86	4023.38
453.05	4100.62
453.23	3906.35
453.42	3925.08
453.60	3896.99
453.78	3957.85
453.97	3999.98
454.15	4060.83
454.34	3974.23
454.52	4028.06
454.70	4074.87
454.89	4039.76
455.07	4182.54
455.26	4168.49
455.44	4231.69
455.62	4201.26
455.81	4009.34
455.99	4175.52
456.17	4208.28
456.36	4311.27
456.54	4315.95
456.73	4135.73
456.91	4358.08
457.09	4304.25
457.28	4269.14
457.46	4362.76
457.64	4486.81
457.83	4407.23
458.01	4491.49
458.19	4573.41
458.38	4603.83
458.56	4606.17
458.74	4636.60
458.93	4425.95
459.11	4559.36
459.29	4372.12
459.48	4503.19
459.66	4620.22
459.84	4540.64
460.03	4685.75
460.21	4657.67
460.39	4760.65
460.57	4648.30
460.76	4772.35
460.94	4812.14
461.12	4807.46
461.31	4657.67
461.49	4847.25
461.67	4702.14
461.85	4744.27
462.04	4734.90
462.22	5153.86
462.40	4905.76
462.59	4786.40
462.77	4945.55
462.95	4753.63
463.13	4849.59
463.32	4917.47
463.50	4938.53
463.68	5013.43
463.86	4999.38
464.05	4912.78
464.23	4931.51
464.41	4938.53
464.59	5006.41
464.78	4985.34
464.96	4961.94
465.14	5078.96
465.32	4917.47
465.50	5081.30
465.69	5123.43
465.87	5074.28
466.05	5172.58
466.23	5055.56
466.41	5266.21
466.60	5135.14
466.78	5142.16
466.96	5146.84
467.14	5111.73
467.32	5160.88
467.51	5195.99
467.69	5125.77
467.87	5177.26
468.05	5444.09
468.23	5093.01
468.41	5170.24
468.60	5343.44
468.78	5413.66
468.96	5270.89
469.14	5500.26
469.32	5500.26
469.50	5418.34
469.69	5418.34
469.87	5549.41
470.05	5645.37
470.23	5509.62
470.41	5493.24
470.59	5483.88
470.77	5533.03
470.95	5687.50
471.14	5717.93
471.32	5558.77
471.50	5888.79
471.68	5764.74
471.86	5724.95
472.04	5701.54
472.22	5942.62
472.40	5804.53
472.58	5867.72
472.77	5750.70
472.95	5898.15
473.13	5900.49
473.31	5977.73
473.49	5998.79
473.67	5982.41
473.85	6017.52
474.03	6214.12
474.21	6190.72
474.39	6090.07
474.57	6104.12
474.75	6427.11
474.93	6277.32
475.12	6349.87
475.30	6296.04
475.48	6328.81
475.66	6434.13
475.84	6473.92
476.02	6335.83
476.20	6569.88
476.38	6581.59
476.56	6672.87
476.74	6682.23
476.92	6654.14
477.10	6633.08
477.28	6878.83
477.46	6813.30
477.64	6946.71
477.82	6801.60
478.00	6923.30
478.18	7129.27
478.36	7152.68
478.54	7276.73
478.72	7342.26
478.90	7349.28
479.08	7258.00
479.26	7330.56
479.44	7419.50
479.62	7740.15
479.80	7566.95
479.98	7707.38
480.16	7836.11
480.34	7431.20
480.52	7810.37
480.70	7819.73
480.88	7880.58
481.06	7920.37
481.24	7943.78
481.41	7868.88
481.59	8159.11
481.77	8056.12
481.95	8498.49
482.13	8334.65
482.31	8489.12
482.49	8404.86
482.67	8430.61
482.85	8461.04
483.03	8645.94
483.21	8657.64
483.39	8711.47
483.57	8695.09
483.74	8840.20
483.92	9041.49
484.10	8791.05
484.28	9069.58
484.46	9277.88
484.64	9404.27
484.82	9350.44
485.00	9282.56
485.18	9682.80
485.35	9790.46
485.53	9696.84
485.71	9640.67
485.89	10108.77
486.07	9795.14
486.25	9806.84
486.43	9975.36
486.61	10036.22
486.78	10061.96
486.96	10424.75
487.14	10389.64
487.32	10406.02
487.50	10448.15
487.68	10466.88
487.85	10431.77
488.03	10670.50
488.21	11059.03
488.39	10808.59
488.57	10892.85
488.75	10991.16
488.92	10965.41
489.10	11147.97
489.28	11159.67
489.46	11267.34
489.64	11288.40
489.81	11499.05
489.99	11648.85
490.17	11632.46
490.35	11723.74
490.53	11875.88
490.70	11967.16
490.88	11737.79
491.06	12109.93
491.24	11903.96
491.41	12175.47
491.59	12201.21
491.77	12222.28
491.95	12507.82
492.13	12182.49
492.30	12713.79
492.48	12613.15
492.66	12601.44
492.84	12507.82
493.01	12788.69
493.19	12865.92
493.37	13074.23
493.54	13116.36
493.72	13408.93
493.90	13139.77
494.08	13263.82
494.25	13488.51
494.43	13727.24
494.61	13610.22
494.79	13635.96
494.96	13783.41
495.14	13624.26
495.32	13764.69
495.49	13884.06
495.67	13799.80
495.85	13982.36
496.02	14291.31
496.20	14113.43
496.38	14352.16
496.55	14214.07
496.73	14672.82
496.91	14525.36
497.09	14609.62
497.26	14623.67
497.44	14792.19
497.62	14705.59
497.79	15077.73
497.97	15047.30
498.14	15105.82
498.32	15239.23
498.50	15295.40
498.67	15255.61
498.85	14956.02
499.03	15353.91
499.20	15407.75
499.38	15414.77
499.56	15639.46
499.73	15517.75
499.91	15777.55
500.08	15733.08
500.26	15798.62
500.44	15824.36
500.61	15983.52
500.79	15782.23
500.97	15957.77
501.14	16301.83
501.32	16255.02
501.49	16126.29
501.67	16217.57
501.84	16266.72
502.02	16496.10
502.20	16329.92
502.37	16823.77
502.55	16610.78
502.72	16657.59
502.90	16732.49
503.07	16669.30
503.25	16800.37
503.43	16826.11
503.60	16760.58
503.78	17011.01
503.95	16844.84
504.13	17050.80
504.30	16788.66
504.48	16847.18
504.65	17174.85
504.83	17090.59
505.01	17352.73
505.18	17432.31
505.36	17542.32
505.53	17530.61
505.71	17549.34
505.88	17572.74
506.06	17422.95
506.23	17783.39
506.41	17612.53
506.58	17788.07
506.76	17912.12
506.93	17404.22
507.11	17776.37
507.28	17703.81
507.46	18260.86
507.63	18169.58
507.81	18310.01
507.98	18340.44
508.16	18394.27
508.33	18075.96
508.50	18466.83
508.68	18450.44
508.85	18661.09
509.03	18551.09
509.20	18469.17
509.38	18888.12
509.55	18977.06
509.73	19000.47
509.90	18745.35
510.08	18796.84
510.25	18761.73
510.42	18684.50
510.60	19073.03
510.77	19089.41
510.95	18944.30
511.12	19157.28
511.30	18817.91
511.47	19311.76
511.64	19236.86
511.82	19407.72
511.99	19126.86
512.17	19468.58
512.34	19431.13
512.51	19690.93
512.69	19669.86
512.86	19726.04
513.04	19922.64
513.21	19992.86
513.38	20049.03
513.56	19917.96
513.73	20046.69
513.90	20063.07
514.08	19934.34
514.25	20044.35
514.43	19878.17
514.60	19922.64
514.77	20414.15
514.95	20226.91
515.12	20292.44
515.29	20245.63
515.47	20430.54
515.64	20475.01
515.81	20650.55
515.99	20482.03
516.16	20730.12
516.33	21060.14
516.51	20917.37
516.68	20650.55
516.85	20664.59
517.03	20725.44
517.20	21057.80
517.37	21329.30
517.54	21048.44
517.72	20905.66
517.89	21083.55
518.06	21376.11
518.24	21137.38
518.41	21432.29
518.58	21188.87
518.75	21209.93
518.93	21706.13
519.10	21488.46
519.27	21556.33
519.45	21467.39
519.62	21666.34
519.79	21504.84
519.96	21958.91
520.14	21886.35
520.31	21876.99
520.48	22080.61
520.65	21755.28
520.83	21809.11
521.00	21900.39
521.17	22101.68
521.34	21806.77
521.52	22157.85
521.69	22354.46
521.86	22101.68
522.03	22199.98
522.20	22499.57
522.38	22338.07
522.55	22658.73
522.72	22288.92
522.89	22441.06
523.07	22438.72
523.24	22628.30
523.41	22764.05
523.58	22721.92
523.75	22600.21
523.92	22754.69
524.10	22874.06
524.27	23007.47
524.44	22897.46
524.61	22852.99
524.78	23171.30
524.96	23215.77
525.13	23307.05
525.30	22815.54
525.47	23271.95
525.64	23161.94
525.81	23164.28
525.98	23440.47
526.16	23154.92
526.33	23510.68
526.50	23527.06
526.67	23381.95
526.84	23459.19
527.01	23309.40
527.18	23255.56
527.36	23740.05
527.53	23604.30
527.70	23988.15
527.87	24182.42
528.04	23564.51
528.21	23749.42
528.38	23995.17
528.55	23843.04
528.72	23908.57
528.89	23620.69
529.07	23955.38
529.24	23859.42
529.41	23939.00
529.58	24423.49
529.75	24224.54
529.92	23702.61
530.09	24060.71
530.26	24252.63
530.43	24465.62
530.60	23992.83
530.77	24629.46
530.94	24514.77
531.11	24474.98
531.28	24407.11
531.46	24479.66
531.63	24463.28
531.80	24423.49
531.97	24741.80
532.14	24823.72
532.31	24828.40
532.48	24870.53
532.65	24915.00
532.82	24753.51
532.99	24737.12
533.16	24797.98
533.33	24819.04
533.50	25280.13
533.67	25291.83
533.84	25092.88
534.01	25116.29
534.18	24795.64
534.35	24933.73
534.52	25165.44
534.69	25317.57
534.86	25413.54
535.03	25062.46
535.20	25516.52
535.37	25303.53
535.54	25268.42
535.71	25308.21
535.88	25619.50
536.05	25202.89
536.22	25546.95
536.38	25926.11
536.55	25518.86
536.72	25511.84
536.89	25521.20
537.06	25298.85
537.23	25565.67
537.40	25713.13
537.57	25378.43
537.74	25692.06
537.91	26108.68
538.08	26349.75
538.25	25614.82
538.42	26052.50
538.59	25666.31
538.75	25764.62
538.92	25935.48
539.09	25923.77
539.26	26181.23
539.43	25879.30
539.60	26068.89
539.77	26410.60
539.94	26174.21
540.11	26462.10
540.28	26223.36
540.44	26293.58
540.61	26115.70
540.78	25750.57
540.95	26792.11
541.12	25891.01
541.29	26586.15
541.46	26588.49
541.62	26696.15
541.79	26597.85
541.96	26146.12
542.13	26541.68
542.30	26450.39
542.47	26857.65
542.63	26611.89
542.80	26658.70
542.97	27232.13
543.14	27204.05
543.31	26993.40
543.48	26544.02
543.64	27367.88
543.81	27288.31
543.98	27218.09
544.15	27063.61
544.32	27747.05
544.48	27721.30
544.65	26969.99
544.82	27412.35
544.99	27061.27
545.16	27140.85
545.32	27068.30
545.49	27379.59
545.66	27381.93
545.83	27655.77
546.00	27803.22
546.16	27873.44
546.33	27161.92
546.50	27108.08
546.67	27686.20
546.83	27482.57
547.00	27653.43
547.17	27414.69
547.34	27534.06
547.50	28088.77
547.67	27679.18
547.84	27709.60
548.00	27686.20
548.17	27814.93
548.34	27988.13
548.51	28032.60
548.67	28025.57
548.84	27938.97
549.01	27910.89
549.18	27536.40
549.34	28093.45
549.51	28238.56
549.68	28219.84
549.84	28315.80
550.01	28180.05
550.18	28264.31
550.34	28514.75
550.51	28355.59
550.68	28570.92
550.84	28318.14
551.01	28538.15
551.18	28119.20
551.34	28123.88
551.51	28105.15
551.68	28327.50
551.84	28500.70
552.01	28591.98
552.18	28545.17
552.34	28458.57
552.51	28570.92
552.68	28568.58
552.84	28542.83
553.01	28613.05
553.18	28472.62
553.34	28790.93
553.51	28685.61
553.67	28514.75
553.84	28847.10
554.01	28664.54
554.17	28945.41
554.34	28753.48
554.51	28776.89
554.67	28870.51
554.84	28716.03
555.00	28882.21
555.17	29076.48
555.33	28650.50
555.50	28900.94
555.67	28947.75
555.83	28863.49
556.00	28982.85
556.16	29067.11
556.33	28861.15
556.50	29207.55
556.66	29462.66
556.83	29078.82
556.99	29364.36
557.16	29399.47
557.32	29446.28
557.49	29298.83
557.65	28781.57
557.82	28907.96
557.98	29291.80
558.15	29261.38
558.32	29603.10
558.48	29385.43
558.65	29795.02
558.81	29390.11
558.98	29670.97
559.14	29331.59
559.31	28933.70
559.47	29235.63
559.64	29418.19
559.80	29083.50
559.97	29539.90
560.13	29460.32
560.30	29528.20
560.46	29741.19
560.63	29404.15
560.79	29502.45
560.96	29371.38
561.12	29689.70
561.29	29560.97
561.45	29472.03
561.61	29844.17
561.78	29785.66
561.94	29855.87
562.11	30059.50
562.27	29645.23
562.44	30359.09
562.60	29755.23
562.77	29535.22
562.93	29380.74
563.10	30232.70
563.26	29930.77
563.42	29991.62
563.59	29535.22
563.75	29759.91
563.92	29907.37
564.08	29965.88
564.24	29600.76
564.41	29841.83
564.57	29708.42
564.74	29729.48
564.90	30225.68
565.07	30092.27
565.23	30052.48
565.39	30022.05
565.56	29991.62
565.72	30178.87
565.88	30015.03
566.05	29809.06
566.21	29851.19
566.38	30136.74
566.54	29720.12
566.70	30164.82
566.87	30621.23
567.03	30139.08
567.19	30600.16
567.36	30410.58
567.52	30277.17
567.68	30455.05
567.85	30047.80
568.01	30408.24
568.17	30237.38
568.34	30691.44
568.50	30307.60
568.66	30410.58
568.83	30473.78
568.99	30305.26
569.15	30043.12
569.32	30352.07
569.48	30134.40
569.64	30408.24
569.81	30052.48
569.97	30010.35
570.13	30356.75
570.30	30232.70
570.46	30331.00
570.62	30705.49
570.78	30031.41
570.95	30012.69
571.11	30471.43
571.27	30169.51
571.43	29951.84
571.60	30188.23
571.76	30064.18
571.92	30415.26
572.09	30520.59
572.25	30363.77
572.41	30235.04
572.57	30064.18
572.74	30218.66
572.90	30162.48
573.06	30588.46
573.22	30464.41
573.38	30469.09
573.55	30504.20
573.71	30632.93
573.87	30405.90
574.03	30551.01
574.20	30888.05
574.36	30529.95
574.52	30756.98
574.68	30567.40
574.84	30639.95
575.01	30438.67
575.17	30480.80
575.33	30780.39
575.49	30504.20
575.65	30820.17
575.82	30405.90
575.98	30965.29
576.14	30738.26
576.30	30122.69
576.46	30445.69
576.62	30326.32
576.79	30548.67
576.95	30492.50
577.11	30682.08
577.27	30492.50
577.43	31042.53
577.59	30298.23
577.75	30635.27
577.92	30354.41
578.08	30714.85
578.24	30204.61
578.40	30450.37
578.56	31023.80
578.72	30658.68
578.88	31136.15
579.04	30768.68
579.21	30686.76
579.37	30761.66
579.53	30876.35
579.69	30520.59
579.85	30712.51
580.01	30551.01
580.17	30574.42
580.33	30553.35
580.49	30494.84
580.65	30480.80
580.82	31072.95
580.98	30761.66
581.14	30885.71
581.30	30742.94
581.46	30789.75
581.62	30703.15
581.78	30553.35
581.94	30532.29
582.10	30497.18
582.26	30572.08
582.42	30831.88
582.58	30988.69
582.74	30464.41
582.90	31084.65
583.06	30890.39
583.22	30485.48
583.38	31002.74
583.54	30801.45
583.70	30747.62
583.86	30789.75
584.02	30752.30
584.18	30937.20
584.34	31002.74
584.50	31236.79
584.66	30462.07
584.82	30871.67
584.98	31028.48
585.14	30494.84
585.30	30658.68
585.46	30562.72
585.62	30532.29
585.78	30953.58
585.94	30696.13
586.10	31065.93
586.26	30588.46
586.42	30892.73
586.58	31154.87
586.74	30918.48
586.90	30991.03
587.06	30909.11
587.22	30892.73
587.38	30485.48
587.54	30618.89
587.70	31349.14
587.86	31131.47
588.02	31096.36
588.18	31187.64
588.34	31136.15
588.49	30897.41
588.65	31037.84
588.81	30897.41
588.97	31101.04
589.13	30644.63
589.29	30342.70
589.45	30794.43
589.61	31388.92
589.77	31363.18
589.93	31330.41
590.08	31016.78
590.24	31077.63
590.40	31222.75
590.56	31440.42
590.72	31019.12
590.88	31000.40
591.04	30906.77
591.20	31482.55
591.35	31232.11
591.51	31641.70
591.67	31536.38
591.83	31770.43
