SpectraSuite Data File
++++++++++++++++++++++++++++++++++++
Date: Fri Oct 18 13:57:59 GMT-05:00 2013
User: bianchi
Dark Spectrum Present: No
Reference Spectrum Present: No
Number of Sampled Component Spectra: 1
Spectrometers: USB2+H05261
Integration Time (usec): 50000 (USB2+H05261)
Spectra Averaged: 1 (USB2+H05261)
Boxcar Smoothing: 0 (USB2+H05261)
Correct for Electrical Dark: No (USB2+H05261)
Strobe/Lamp Enabled: No (USB2+H05261)
Correct for Detector Non-linearity: No (USB2+H05261)
Correct for Stray Light: No (USB2+H05261)
Number of Pixels in Processed Spectrum: 2048
>>>>>Begin Processed Spectral Data<<<<<
365.73	0.00
365.92	0.00
366.12	0.00
366.32	0.00
366.52	0.00
366.72	0.00
366.91	0.00
367.11	0.00
367.31	0.00
367.51	0.00
367.70	0.00
367.90	0.00
368.10	0.00
368.30	0.00
368.49	0.00
368.69	0.00
368.89	0.00
369.09	0.00
369.28	0.00
369.48	0.00
369.68	0.00
369.87	0.00
370.07	0.00
370.27	0.00
370.47	0.00
370.66	28.09
370.86	147.45
371.06	163.84
371.25	145.11
371.45	147.45
371.65	166.18
371.84	93.62
372.04	159.16
372.24	245.76
372.44	238.73
372.63	215.33
372.83	262.14
373.03	285.55
373.22	175.54
373.42	189.58
373.62	191.92
373.81	301.93
374.01	276.18
374.21	161.50
374.40	297.25
374.60	224.69
374.79	126.39
374.99	299.59
375.19	175.54
375.38	290.23
375.58	264.48
375.78	278.52
375.97	311.29
376.17	313.63
376.37	257.46
376.56	285.55
376.76	285.55
376.95	250.44
377.15	297.25
377.35	217.67
377.54	248.10
377.74	315.97
377.93	255.12
378.13	257.46
378.33	266.82
378.52	327.68
378.72	320.65
378.91	304.27
379.11	276.18
379.31	224.69
379.50	311.29
379.70	297.25
379.89	290.23
380.09	299.59
380.28	278.52
380.48	294.91
380.68	304.27
380.87	224.69
381.07	386.19
381.26	358.10
381.46	262.14
381.65	372.15
381.85	393.21
382.04	383.85
382.24	351.08
382.43	369.80
382.63	341.72
382.83	397.89
383.02	472.79
383.22	358.10
383.41	379.17
383.61	362.78
383.80	332.36
384.00	376.83
384.19	369.80
384.39	393.21
384.58	437.68
384.78	374.49
384.97	393.21
385.17	395.55
385.36	280.86
385.56	400.23
385.75	390.87
385.95	414.27
386.14	442.36
386.34	407.25
386.53	404.91
386.72	397.89
386.92	447.04
387.11	416.62
387.31	500.87
387.50	416.62
387.70	482.15
387.89	421.30
388.09	393.21
388.28	442.36
388.48	463.43
388.67	505.56
388.86	477.47
389.06	421.30
389.25	456.40
389.45	472.79
389.64	449.38
389.84	538.32
390.03	421.30
390.22	514.92
390.42	538.32
390.61	468.11
390.81	486.83
391.00	505.56
391.19	538.32
391.39	622.58
391.58	447.04
391.78	543.00
391.97	498.53
392.16	491.51
392.36	561.73
392.55	564.07
392.75	524.28
392.94	561.73
393.13	552.37
393.33	533.64
393.52	571.09
393.71	599.18
393.91	599.18
394.10	517.26
394.29	547.69
394.49	575.77
394.68	678.76
394.88	636.63
395.07	636.63
395.26	601.52
395.46	697.48
395.65	683.44
395.84	669.39
396.04	725.57
396.23	711.52
396.42	674.07
396.62	688.12
396.81	704.50
397.00	664.71
397.19	667.05
397.39	727.91
397.58	674.07
397.77	685.78
397.97	730.25
398.16	720.88
398.35	739.61
398.55	744.29
398.74	770.04
398.93	767.70
399.12	791.10
399.32	730.25
399.51	772.38
399.70	758.33
399.90	748.97
400.09	837.91
400.28	823.87
400.47	819.19
400.67	748.97
400.86	755.99
401.05	844.93
401.24	938.55
401.44	863.66
401.63	767.70
401.82	704.50
402.01	830.89
402.21	943.24
402.40	912.81
402.59	875.36
402.78	800.46
402.97	851.96
403.17	861.32
403.36	863.66
403.55	807.48
403.74	903.45
403.93	929.19
404.13	978.34
404.32	938.55
404.51	905.79
404.70	912.81
404.89	926.85
405.09	971.32
405.28	884.72
405.47	1004.09
405.66	947.92
405.85	1006.43
406.05	1048.56
406.24	1034.52
406.43	985.37
406.62	1060.26
406.81	1062.60
407.00	980.68
407.20	999.41
407.39	1102.39
407.58	1109.41
407.77	1034.52
407.96	1062.60
408.15	1188.99
408.34	1149.20
408.54	1086.01
408.73	1146.86
408.92	1219.42
409.11	1064.94
409.30	1107.07
409.49	1212.40
409.68	1137.50
409.87	1071.97
410.07	1249.85
410.26	1193.67
410.45	1228.78
410.64	1184.31
410.83	1217.08
411.02	1135.16
411.21	1376.24
411.40	1299.00
411.59	1193.67
411.78	1287.29
411.98	1261.55
412.17	1254.53
412.36	1313.04
412.55	1357.51
412.74	1369.21
412.93	1378.58
413.12	1409.00
413.31	1418.36
413.50	1383.26
413.69	1380.92
413.88	1420.71
414.07	1413.68
414.26	1483.90
414.45	1437.09
414.64	1540.07
414.83	1526.03
415.02	1582.20
415.22	1568.16
415.41	1561.14
415.60	1584.54
415.79	1547.09
415.98	1659.44
416.17	1617.31
416.36	1713.27
416.55	1626.67
416.74	1593.90
416.93	1645.40
417.12	1727.32
417.31	1619.65
417.50	1652.42
417.69	1797.53
417.88	1603.27
418.07	1802.21
418.26	1722.63
418.45	1764.76
418.64	1863.07
418.83	1820.94
419.02	1872.43
419.21	1874.77
419.39	1811.57
419.58	1844.34
419.77	1797.53
419.96	1907.54
420.15	1984.77
420.34	1930.94
420.53	2017.54
420.72	2015.20
420.91	1921.58
421.10	1991.80
421.29	2073.71
421.48	1989.46
421.67	2015.20
421.86	2012.86
422.05	2101.80
422.24	1937.96
422.43	1989.46
422.61	2059.67
422.80	2090.10
422.99	1949.67
423.18	2080.74
423.37	1980.09
423.56	2073.71
423.75	2040.95
423.94	1998.82
424.13	1963.71
424.32	1856.04
424.50	2101.80
424.69	2050.31
424.88	2153.29
425.07	2033.93
425.26	2083.08
425.45	2099.46
425.64	2101.80
425.83	2050.31
426.01	2134.57
426.20	2085.42
426.39	1961.37
426.58	2076.06
426.77	2019.88
426.96	2118.18
427.15	2078.40
427.33	2122.87
427.52	2193.08
427.71	2183.72
427.90	2216.49
428.09	2256.28
428.28	2267.98
428.46	2253.94
428.65	2310.11
428.84	2331.17
429.03	2380.32
429.22	2256.28
429.40	2272.66
429.59	2300.75
429.78	2200.10
429.97	2125.21
430.16	2167.34
430.34	2361.60
430.53	2370.96
430.72	2513.74
430.91	2373.30
431.10	2354.58
431.28	2328.83
431.47	2527.78
431.66	2485.65
431.85	2431.82
432.03	2485.65
432.22	2492.67
432.41	2459.90
432.60	2443.52
432.79	2335.85
432.97	2413.09
433.16	2464.58
433.35	2445.86
433.54	2616.72
433.72	2640.12
433.91	2527.78
434.10	2532.46
434.28	2497.35
434.47	2523.10
434.66	2686.94
434.85	2761.83
435.03	2569.91
435.22	2715.02
435.41	2752.47
435.59	2827.37
435.78	2761.83
435.97	2661.19
436.16	2703.32
436.34	2700.98
436.53	2691.62
436.72	2745.45
436.90	2740.77
437.09	2806.30
437.28	2614.38
437.46	2745.45
437.65	2736.09
437.84	2796.94
438.02	2876.52
438.21	2899.92
438.40	2902.26
438.58	3098.87
438.77	2841.41
438.96	2836.73
439.14	3049.72
439.33	3056.74
439.52	3115.25
439.70	3033.33
439.89	3063.76
440.08	3117.59
440.26	3108.23
440.45	3157.38
440.63	3110.57
440.82	3129.30
441.01	3159.72
441.19	3112.91
441.38	3246.32
441.57	3236.96
441.75	3248.66
441.94	3382.07
442.12	3318.88
442.31	3358.67
442.50	3384.41
442.68	3279.09
442.87	3396.12
443.05	3377.39
443.24	3475.70
443.43	3471.01
443.61	3496.76
443.80	3543.57
443.98	3421.86
444.17	3197.17
444.35	3576.34
444.54	3527.19
444.73	3492.08
444.91	3562.30
445.10	3524.85
445.28	3442.93
445.47	3435.91
445.65	3534.21
445.84	3506.12
446.02	3513.14
446.21	3606.77
446.39	3501.44
446.58	3503.78
446.77	3536.55
446.95	3510.80
447.14	3590.38
447.32	3637.19
447.51	3641.87
447.69	3438.25
447.88	3684.00
448.06	3618.47
448.25	3672.30
448.43	3562.30
448.62	3581.02
448.80	3634.85
448.99	3667.62
449.17	3672.30
449.36	3590.38
449.54	3758.90
449.73	3599.74
449.91	3838.48
450.10	3803.37
450.28	3756.56
450.46	3941.46
450.65	3660.60
450.83	3794.01
451.02	3871.25
451.20	3845.50
451.39	3838.48
451.57	3885.29
451.76	3918.06
451.94	3878.27
452.13	3896.99
452.31	3999.98
452.49	3840.82
452.68	4021.04
452.86	3882.95
453.05	4058.49
453.23	4042.11
453.42	4037.42
453.60	4025.72
453.78	4098.28
453.97	4042.11
454.15	4070.19
454.34	4035.08
454.52	4133.39
454.70	4126.36
454.89	4126.36
455.07	4053.81
455.26	4173.18
455.44	4224.67
455.62	4128.70
455.81	4166.15
455.99	4184.88
456.17	4358.08
456.36	4278.50
456.54	4229.35
456.73	4269.14
456.91	4411.91
457.09	4325.31
457.28	4486.81
457.46	4383.82
457.64	4535.96
457.83	4496.17
458.01	4245.73
458.19	4475.10
458.38	4526.60
458.56	4521.92
458.74	4423.61
458.93	4472.76
459.11	4554.68
459.29	4521.92
459.48	4477.44
459.66	4315.95
459.84	4741.93
460.03	4657.67
460.21	4671.71
460.39	4688.09
460.57	4645.96
460.76	4669.37
460.94	4865.97
461.12	4702.14
461.31	4774.69
461.49	4812.14
461.67	4809.80
461.85	4940.87
462.04	4830.87
462.22	5102.37
462.40	4929.17
462.59	4877.68
462.77	4795.76
462.95	4901.08
463.13	4938.53
463.32	4894.06
463.50	4901.08
463.68	4929.17
463.86	5036.83
464.05	4912.78
464.23	4863.63
464.41	5109.39
464.59	4905.76
464.78	4875.34
464.96	5195.99
465.14	4964.28
465.32	4964.28
465.50	5224.08
465.69	5111.73
465.87	4971.30
466.05	5184.29
466.23	5074.28
466.41	5205.35
466.60	5231.10
466.78	5057.90
466.96	5027.47
467.14	5210.03
467.32	5191.31
467.51	5221.74
467.69	5114.07
467.87	5378.55
468.05	5263.86
468.23	5179.61
468.41	5224.08
468.60	5266.21
468.78	5165.56
468.96	5156.20
469.14	5540.05
469.32	5547.07
469.50	5256.84
469.69	5329.40
469.87	5460.47
470.05	5465.15
470.23	5467.49
470.41	5460.47
470.59	5682.82
470.77	5523.66
470.95	5675.80
471.14	5542.39
471.32	5593.88
471.50	5776.44
471.68	5547.07
471.86	5628.99
472.04	5851.34
472.22	5984.75
472.40	5699.20
472.58	5699.20
472.77	5919.21
472.95	5977.73
473.13	6186.04
473.31	6108.80
473.49	6026.88
473.67	5998.79
473.85	5980.07
474.03	5968.37
474.21	6010.50
474.39	6230.51
474.57	6141.57
474.75	6200.08
474.93	6410.73
475.12	6277.32
475.30	6314.77
475.48	6389.66
475.66	6389.66
475.84	6438.81
476.02	6546.48
476.20	6534.78
476.38	6569.88
476.56	6820.32
476.74	6691.59
476.92	6754.79
477.10	6665.85
477.28	6806.28
477.46	6726.70
477.64	6892.88
477.82	7087.14
478.00	7117.57
478.18	7145.66
478.36	7215.87
478.54	7049.69
478.72	7194.81
478.90	7293.11
479.08	7157.36
479.26	7492.05
479.44	7529.50
479.62	7365.67
479.80	7611.42
479.98	7618.44
480.16	7691.00
480.34	7826.75
480.52	7672.28
480.70	7859.52
480.88	7674.62
481.06	7950.80
481.24	7857.18
481.41	7988.25
481.59	8025.70
481.77	8299.54
481.95	8074.85
482.13	8215.28
482.31	8241.03
482.49	8369.76
482.67	8542.96
482.85	8505.51
483.03	8821.48
483.21	8695.09
483.39	8854.25
483.57	8877.65
483.74	8971.27
483.92	8964.25
484.10	8884.67
484.28	9013.40
484.46	9174.90
484.64	9542.36
484.82	9177.24
485.00	9390.23
485.18	9565.77
485.35	9666.41
485.53	9483.85
485.71	9678.12
485.89	9874.72
486.07	9790.46
486.25	9848.97
486.43	9874.72
486.61	9961.32
486.78	10078.35
486.96	10101.75
487.14	10310.06
487.32	10239.84
487.50	10328.78
487.68	10548.79
487.85	10537.09
488.03	10707.95
488.21	10775.83
488.39	10902.22
488.57	10909.24
488.75	11197.12
488.92	11225.21
489.10	11176.06
489.28	11005.20
489.46	11215.85
489.64	11229.89
489.81	11531.82
489.99	11545.86
490.17	11786.94
490.35	11662.89
490.53	11805.66
490.70	12081.85
490.88	12159.08
491.06	12161.42
491.24	12095.89
491.41	12088.87
491.59	12114.61
491.77	12482.08
491.95	12554.63
492.13	12470.37
492.30	12772.30
492.48	12713.79
492.66	12784.01
492.84	12517.18
493.01	12805.07
493.19	12936.14
493.37	13132.75
493.54	12957.21
493.72	13249.77
493.90	13177.22
494.08	13266.16
494.25	13327.01
494.43	13427.65
494.61	13554.04
494.79	13689.79
494.96	13469.78
495.14	13642.98
495.32	13923.85
495.49	14115.77
495.67	13942.57
495.85	14141.52
496.02	14293.65
496.20	14237.48
496.38	14223.44
496.55	13977.68
496.73	14736.01
496.91	14335.78
497.09	14626.01
497.26	14862.40
497.44	14658.78
497.62	14670.48
497.79	14930.28
497.97	14637.71
498.14	14927.94
498.32	15260.29
498.50	15206.46
498.67	15225.18
498.85	15152.63
499.03	15344.55
499.20	15396.04
499.38	15513.07
499.56	15594.99
499.73	15669.89
499.91	15777.55
500.08	15768.19
500.26	15541.16
500.44	15929.69
500.61	15976.50
500.79	15955.43
500.97	15978.84
501.14	16149.70
501.32	15985.86
501.49	16175.44
501.67	16037.35
501.84	16372.05
502.02	16009.26
502.20	16416.52
502.37	16641.21
502.55	16842.50
502.72	16575.67
502.90	16645.89
503.07	16552.27
503.25	16706.74
503.43	17043.78
503.60	16985.27
503.78	16835.47
503.95	17081.23
504.13	16978.25
504.30	17146.76
504.48	17018.04
504.65	16828.45
504.83	17111.66
505.01	17591.47
505.18	17507.21
505.36	17350.39
505.53	17291.88
505.71	17579.76
505.88	17469.76
506.06	17331.67
506.23	17877.01
506.41	17633.60
506.58	17755.30
506.76	17738.92
506.93	17865.31
507.11	18050.21
507.28	18127.45
507.46	18291.29
507.63	17923.82
507.81	18352.14
507.98	18176.60
508.16	18230.43
508.33	18438.74
508.50	18281.92
508.68	18040.85
508.85	18438.74
509.03	18485.55
509.20	18710.24
509.38	18927.91
509.55	18803.86
509.73	18625.98
509.90	18761.73
510.08	18651.73
510.25	18867.06
510.42	18829.61
510.60	19098.77
510.77	18705.56
510.95	19098.77
511.12	19190.05
511.30	19131.54
511.47	19491.98
511.64	19183.03
511.82	19426.45
511.99	19503.68
512.17	19606.67
512.34	19611.35
512.51	19730.72
512.69	19803.27
512.86	19690.93
513.04	19906.26
513.21	19730.72
513.38	19971.79
513.56	19733.06
513.73	19651.14
513.90	20243.29
514.08	20123.93
514.25	20042.01
514.43	20297.13
514.60	20339.26
514.77	20325.21
514.95	20393.09
515.12	20271.38
515.29	19922.64
515.47	20367.34
515.64	20599.05
515.81	20636.50
515.99	20407.13
516.16	20521.82
516.33	20589.69
516.51	20872.90
516.68	20688.00
516.85	20760.55
517.03	20709.06
517.20	21053.12
517.37	20762.89
517.54	21090.57
517.72	20943.11
517.89	20779.28
518.06	21209.93
518.24	21348.03
518.41	21060.14
518.58	21553.99
518.75	21242.70
518.93	21586.76
519.10	21593.78
519.27	21460.37
519.45	21350.37
519.62	21572.72
519.79	21722.51
519.96	21874.65
520.14	21661.66
520.31	22045.51
520.48	21795.07
520.65	21619.53
520.83	22022.10
521.00	21888.69
521.17	22094.66
521.34	21907.41
521.52	22139.13
521.69	21928.48
521.86	22012.74
522.03	22572.13
522.20	22174.24
522.38	22291.26
522.55	22595.53
522.72	22267.86
522.89	22321.69
523.07	22567.45
523.24	22583.83
523.41	22960.66
523.58	22668.09
523.75	22693.83
523.92	22848.31
524.10	22955.97
524.27	22883.42
524.44	23126.83
524.61	22841.29
524.78	23147.90
524.96	23068.32
525.13	23337.48
525.30	22984.06
525.47	23229.82
525.64	23129.17
525.81	23049.60
525.98	23522.38
526.16	23501.32
526.33	23470.89
526.50	23124.49
526.67	23201.73
526.84	23246.20
527.01	23129.17
527.18	23608.98
527.36	23695.58
527.53	23866.44
527.70	24137.94
527.87	23861.76
528.04	23723.67
528.21	23644.09
528.38	23779.84
528.55	23910.91
528.72	23693.24
528.89	23831.33
529.07	24320.51
529.24	24077.09
529.41	24173.05
529.58	24175.39
529.75	24170.71
529.92	24025.60
530.09	24112.20
530.26	24313.48
530.43	24238.59
530.60	23983.47
530.77	24184.76
530.94	24425.83
531.11	24266.67
531.28	24297.10
531.46	24343.91
531.63	24428.17
531.80	24711.38
531.97	24961.81
532.14	24655.20
532.31	24596.69
532.48	24746.48
532.65	24542.86
532.82	24739.46
532.99	24800.32
533.16	24999.26
533.33	25078.84
533.50	24987.56
533.67	24849.47
533.84	24826.06
534.01	25397.15
534.18	24821.38
534.35	24999.26
534.52	25006.28
534.69	25692.06
534.86	25289.49
535.03	25071.82
535.20	25193.53
535.37	25418.22
535.54	25539.93
535.71	25214.59
535.88	25678.02
536.05	25460.35
536.22	25666.31
536.38	25776.32
536.55	25722.49
536.72	25785.68
536.89	25401.83
537.06	25755.26
537.23	25986.97
537.40	25724.83
537.57	25769.30
537.74	25951.86
537.91	26178.89
538.08	25820.79
538.25	25626.53
538.42	25755.26
538.59	26160.17
538.75	25642.91
538.92	26066.55
539.09	25991.65
539.26	25909.73
539.43	26246.77
539.60	26139.10
539.77	26160.17
539.94	26256.13
540.11	25895.69
540.28	26324.01
540.44	25818.45
540.61	26312.30
540.78	25888.67
540.95	26422.31
541.12	26551.04
541.29	26721.90
541.46	26632.96
541.62	26347.41
541.79	26609.55
541.96	26328.69
542.13	26677.43
542.30	26380.18
542.47	26551.04
542.63	26724.24
542.80	27159.58
542.97	27023.83
543.14	27117.45
543.31	27192.34
543.48	26691.47
543.64	27243.84
543.81	26984.04
543.98	27208.73
544.15	27351.50
544.32	27618.32
544.48	27520.02
544.65	27182.98
544.82	27281.28
544.99	27349.16
545.16	27419.38
545.32	27365.54
545.49	27510.66
545.66	27440.44
545.83	27583.21
546.00	27784.50
546.16	27459.16
546.33	27388.95
546.50	26881.05
546.67	27201.71
546.83	27115.11
547.00	27641.73
547.17	27576.19
547.34	27527.04
547.50	27721.30
547.67	28070.04
547.84	27978.76
548.00	27840.67
548.17	27548.11
548.34	27655.77
548.51	27960.04
548.67	27709.60
548.84	28383.68
549.01	28133.24
549.18	27733.01
549.34	27866.42
549.51	27981.10
549.68	27950.68
549.84	27894.50
550.01	28383.68
550.18	28037.28
550.34	28418.78
550.51	28409.42
550.68	28079.41
550.84	28034.94
551.01	28512.41
551.18	28046.64
551.34	28126.22
551.51	28259.63
551.68	28353.25
551.84	28194.09
552.01	28428.15
552.18	28566.24
552.34	28414.10
552.51	28711.35
552.68	28360.27
552.84	28648.16
553.01	28727.74
553.18	28353.25
553.34	28809.65
553.51	28510.07
553.67	28720.71
553.84	29209.89
554.01	28755.82
554.17	28952.43
554.34	28699.65
554.51	28954.77
554.67	28957.11
554.84	29230.95
555.00	28975.83
555.17	28886.89
555.33	28685.61
555.50	28936.04
555.67	29303.51
555.83	29085.84
556.00	29062.43
556.16	29158.39
556.33	29034.35
556.50	29167.76
556.66	28973.49
556.83	28601.35
556.99	29350.32
557.16	29481.39
557.32	29542.24
557.49	29570.33
557.65	29235.63
557.82	28957.11
557.98	29333.93
558.15	29015.62
558.32	29252.02
558.48	29125.63
558.65	29532.88
558.81	29355.00
558.98	29481.39
559.14	29647.57
559.31	29247.33
559.47	29198.18
559.64	29254.36
559.80	29291.80
559.97	29546.92
560.13	29612.46
560.30	29387.77
560.46	29771.61
560.63	29535.22
560.79	29909.71
560.96	29596.07
561.12	29549.26
561.29	29165.42
561.45	29221.59
561.61	29486.07
561.78	29776.30
561.94	30015.03
562.11	29783.32
562.27	30085.25
562.44	29614.80
562.60	29535.22
562.77	29502.45
562.93	29865.24
563.10	29757.57
563.26	29926.09
563.42	29848.85
563.59	29998.65
563.75	29860.55
563.92	30405.90
564.08	30139.08
564.24	29677.99
564.41	29523.52
564.57	29745.87
564.74	29921.41
564.90	30108.65
565.07	29809.06
565.23	30125.04
565.39	29926.09
565.56	30314.62
565.72	29783.32
565.88	29895.66
566.05	29839.49
566.21	29790.34
566.38	30209.29
566.54	30246.74
566.70	29874.60
566.87	30134.40
567.03	30162.48
567.19	30412.92
567.36	29961.20
567.52	30270.15
567.68	30202.27
567.85	29886.30
568.01	30380.15
568.17	30270.15
568.34	30221.00
568.50	30190.57
568.66	29890.98
568.83	30429.30
568.99	30232.70
569.15	30244.40
569.32	30150.78
569.48	29898.00
569.64	30342.70
569.81	30089.93
569.97	30174.19
570.13	30433.99
570.30	30068.86
570.46	30195.25
570.62	30181.21
570.78	29970.56
570.95	29916.73
571.11	30373.13
571.27	30108.65
571.43	30052.48
571.60	30639.95
571.76	30888.05
571.92	30562.72
572.09	30113.33
572.25	30553.35
572.41	30429.30
572.57	30043.12
572.74	30405.90
572.90	30188.23
573.06	30560.37
573.22	30288.87
573.38	30600.16
573.55	30810.81
573.71	30721.87
573.87	30850.60
574.03	30405.90
574.20	30422.28
574.36	30441.01
574.52	30361.43
574.68	30520.59
574.84	30581.44
575.01	30473.78
575.17	30445.69
575.33	30431.65
575.49	30249.08
575.65	30338.02
575.82	30979.33
575.98	30541.65
576.14	30958.27
576.30	30469.09
576.46	30813.15
576.62	30391.86
576.79	30586.12
576.95	30469.09
577.11	30551.01
577.27	30906.77
577.43	30536.97
577.59	30719.53
577.75	30747.62
577.92	30258.45
578.08	30433.99
578.24	30455.05
578.40	30387.18
578.56	30352.07
578.72	30429.30
578.88	31108.06
579.04	30979.33
579.21	30726.55
579.37	30649.32
579.53	30520.59
579.69	30628.25
579.85	30457.39
580.01	30403.56
580.17	30064.18
580.33	30792.09
580.49	30780.39
580.65	30714.85
580.82	30850.60
580.98	30806.13
581.14	30778.04
581.30	30490.16
581.46	30885.71
581.62	30583.78
581.78	30490.16
581.94	30764.00
582.10	30443.35
582.26	30478.46
582.42	30714.85
582.58	30562.72
582.74	30932.52
582.90	30920.82
583.06	30749.96
583.22	30401.22
583.38	30764.00
583.54	30698.47
583.70	30738.26
583.86	30558.03
584.02	30574.42
584.18	30836.56
584.34	30810.81
584.50	30988.69
584.66	30646.97
584.82	30555.69
584.98	31117.42
585.14	30941.88
585.30	30541.65
585.46	30548.67
585.62	30827.20
585.78	30581.44
585.94	30525.27
586.10	30972.31
586.26	30911.46
586.42	31023.80
586.58	31339.77
586.74	30941.88
586.90	30778.04
587.06	31012.10
587.22	30972.31
587.38	30738.26
587.54	30923.16
587.70	30771.02
587.86	30845.92
588.02	31049.55
588.18	31033.16
588.34	31297.64
588.49	31082.31
588.65	31047.21
588.81	30831.88
588.97	31075.29
589.13	30658.68
589.29	30883.37
589.45	30845.92
589.61	31328.07
589.77	30951.24
589.93	31168.91
590.08	31299.98
590.24	31075.29
590.40	31164.23
590.56	31138.49
590.72	31056.57
590.88	31267.22
591.04	31159.55
591.20	31049.55
591.35	31426.37
591.51	31225.09
591.67	31379.56
591.83	31489.57
591.99	31431.05
