SpectraSuite Data File
++++++++++++++++++++++++++++++++++++
Date: Fri Oct 18 13:58:28 GMT-05:00 2013
User: bianchi
Dark Spectrum Present: No
Reference Spectrum Present: No
Number of Sampled Component Spectra: 1
Spectrometers: USB2+H05261
Integration Time (usec): 50000 (USB2+H05261)
Spectra Averaged: 1 (USB2+H05261)
Boxcar Smoothing: 0 (USB2+H05261)
Correct for Electrical Dark: No (USB2+H05261)
Strobe/Lamp Enabled: No (USB2+H05261)
Correct for Detector Non-linearity: No (USB2+H05261)
Correct for Stray Light: No (USB2+H05261)
Number of Pixels in Processed Spectrum: 2048
>>>>>Begin Processed Spectral Data<<<<<
365.73	0.00
365.92	0.00
366.12	0.00
366.32	0.00
366.52	0.00
366.72	0.00
366.91	0.00
367.11	0.00
367.31	0.00
367.51	0.00
367.70	0.00
367.90	0.00
368.10	0.00
368.30	0.00
368.49	0.00
368.69	0.00
368.89	0.00
369.09	0.00
369.28	0.00
369.48	0.00
369.68	0.00
369.87	0.00
370.07	0.00
370.27	0.00
370.47	0.00
370.66	32.77
370.86	117.03
371.06	117.03
371.25	191.92
371.45	112.35
371.65	119.37
371.84	135.75
372.04	166.18
372.24	175.54
372.44	102.98
372.63	175.54
372.83	205.97
373.03	236.39
373.22	222.35
373.42	177.88
373.62	238.73
373.81	191.92
374.01	227.03
374.21	276.18
374.40	241.08
374.60	241.08
374.79	313.63
374.99	224.69
375.19	212.99
375.38	234.05
375.58	170.86
375.78	236.39
375.97	264.48
376.17	262.14
376.37	266.82
376.56	245.76
376.76	217.67
376.95	250.44
377.15	271.50
377.35	245.76
377.54	264.48
377.74	259.80
377.93	280.86
378.13	227.03
378.33	299.59
378.52	241.08
378.72	320.65
378.91	304.27
379.11	301.93
379.31	238.73
379.50	330.02
379.70	271.50
379.89	283.20
380.09	313.63
380.28	252.78
380.48	269.16
380.68	266.82
380.87	156.82
381.07	304.27
381.26	367.46
381.46	301.93
381.65	362.78
381.85	245.76
382.04	315.97
382.24	348.74
382.43	299.59
382.63	294.91
382.83	315.97
383.02	330.02
383.22	376.83
383.41	299.59
383.61	311.29
383.80	381.51
384.00	402.57
384.19	332.36
384.39	266.82
384.58	308.95
384.78	383.85
384.97	346.40
385.17	383.85
385.36	393.21
385.56	383.85
385.75	425.98
385.95	327.68
386.14	346.40
386.34	435.34
386.53	339.38
386.72	346.40
386.92	362.78
387.11	379.17
387.31	374.49
387.50	416.62
387.70	411.93
387.89	437.68
388.09	374.49
388.28	489.17
388.48	416.62
388.67	390.87
388.86	411.93
389.06	451.72
389.25	348.74
389.45	442.36
389.64	472.79
389.84	475.13
390.03	526.62
390.22	561.73
390.42	531.30
390.61	470.45
390.81	475.13
391.00	465.77
391.19	510.24
391.39	470.45
391.58	531.30
391.78	557.05
391.97	521.94
392.16	554.71
392.36	538.32
392.55	512.58
392.75	566.41
392.94	547.69
393.13	685.78
393.33	582.79
393.52	610.88
393.71	582.79
393.91	503.22
394.10	550.03
394.29	533.64
394.49	521.94
394.68	587.47
394.88	512.58
395.07	582.79
395.26	578.11
395.46	603.86
395.65	685.78
395.84	531.30
396.04	692.80
396.23	624.92
396.42	610.88
396.62	617.90
396.81	620.24
397.00	521.94
397.19	690.46
397.39	690.46
397.58	734.93
397.77	568.75
397.97	671.73
398.16	730.25
398.35	746.63
398.55	720.88
398.74	627.26
398.93	753.65
399.12	727.91
399.32	608.54
399.51	774.72
399.70	753.65
399.90	704.50
400.09	713.86
400.28	697.48
400.47	690.46
400.67	814.51
400.86	816.85
401.05	805.14
401.24	770.04
401.44	758.33
401.63	765.36
401.82	779.40
402.01	795.78
402.21	730.25
402.40	833.23
402.59	842.59
402.78	830.89
402.97	844.93
403.17	924.51
403.36	833.23
403.55	791.10
403.74	847.27
403.93	882.38
404.13	858.98
404.32	912.81
404.51	903.45
404.70	938.55
404.89	882.38
405.09	938.55
405.28	875.36
405.47	917.49
405.66	976.00
405.85	954.94
406.05	947.92
406.24	1015.79
406.43	1006.43
406.62	922.17
406.81	1050.90
407.00	922.17
407.20	950.26
407.39	1022.81
407.58	1015.79
407.77	1086.01
407.96	1074.31
408.15	1046.22
408.34	1050.90
408.54	1029.84
408.73	1102.39
408.92	1020.47
409.11	1184.31
409.30	1128.14
409.49	1032.18
409.68	1104.73
409.87	1210.06
410.07	1184.31
410.26	1139.84
410.45	1170.27
410.64	1100.05
410.83	1172.61
411.02	1294.32
411.21	1214.74
411.40	1233.46
411.59	1226.44
411.78	1196.01
411.98	1203.04
412.17	1362.19
412.36	1355.17
412.55	1301.34
412.74	1345.81
412.93	1376.24
413.12	1299.00
413.31	1364.53
413.50	1427.73
413.69	1364.53
413.88	1364.53
414.07	1409.00
414.26	1362.19
414.45	1399.64
414.64	1418.36
414.83	1439.43
415.02	1425.39
415.22	1465.18
415.41	1528.37
415.60	1563.48
415.79	1561.14
415.98	1570.50
416.17	1497.94
416.36	1540.07
416.55	1612.63
416.74	1671.14
416.93	1638.38
417.12	1621.99
417.31	1769.44
417.50	1748.38
417.69	1753.06
417.88	1680.50
418.07	1650.08
418.26	1694.55
418.45	1699.23
418.64	1813.92
418.83	1802.21
419.02	1830.30
419.21	1739.02
419.39	1881.79
419.58	1710.93
419.77	1689.87
419.96	1849.02
420.15	1818.60
420.34	1827.96
420.53	1839.66
420.72	1935.62
420.91	1933.28
421.10	1937.96
421.29	1923.92
421.48	1930.94
421.67	1987.11
421.86	1849.02
422.05	1963.71
422.24	1921.58
422.43	1926.26
422.61	1961.37
422.80	1963.71
422.99	2085.42
423.18	2019.88
423.37	1937.96
423.56	1905.20
423.75	1973.07
423.94	2010.52
424.13	1863.07
424.32	1895.83
424.50	2033.93
424.69	2010.52
424.88	2078.40
425.07	2003.50
425.26	1994.14
425.45	2026.90
425.64	1898.17
425.83	2031.58
426.01	2008.18
426.20	2043.29
426.39	1996.48
426.58	2069.03
426.77	2083.08
426.96	2066.69
427.15	2017.54
427.33	2092.44
427.52	2036.27
427.71	2211.81
427.90	2127.55
428.09	2181.38
428.28	2188.40
428.46	2059.67
428.65	2165.00
428.84	2214.15
429.03	2172.02
429.22	2106.48
429.40	2258.62
429.59	2214.15
429.78	2108.82
429.97	2054.99
430.16	2122.87
430.34	2235.21
430.53	2293.72
430.72	2155.63
430.91	2260.96
431.10	2155.63
431.28	2422.45
431.47	2342.88
431.66	2340.54
431.85	2345.22
432.03	2307.77
432.22	2495.01
432.41	2466.92
432.60	2459.90
432.79	2375.64
432.97	2537.14
433.16	2399.05
433.35	2338.20
433.54	2581.61
433.72	2438.84
433.91	2410.75
434.10	2406.07
434.28	2469.27
434.47	2476.29
434.66	2443.52
434.85	2448.20
435.03	2478.63
435.22	2609.70
435.41	2703.32
435.59	2490.33
435.78	2644.81
435.97	2565.23
436.16	2602.68
436.34	2609.70
436.53	2644.81
436.72	2700.98
436.90	2590.97
437.09	2761.83
437.28	2635.44
437.46	2607.36
437.65	2663.53
437.84	2766.51
438.02	2715.02
438.21	2761.83
438.40	2766.51
438.58	2932.69
438.77	2796.94
438.96	2745.45
439.14	2981.84
439.33	2953.76
439.52	3014.61
439.70	2949.08
439.89	2972.48
440.08	2888.22
440.26	3021.63
440.45	3080.14
440.63	2988.86
440.82	3112.91
441.01	3105.89
441.19	3098.87
441.38	3129.30
441.57	3080.14
441.75	3059.08
441.94	3251.00
442.12	3243.98
442.31	3227.60
442.50	3164.40
442.68	3253.34
442.87	3260.37
443.05	3269.73
443.24	3339.94
443.43	3208.87
443.61	3302.50
443.80	3468.67
443.98	3190.15
444.17	3164.40
444.35	3316.54
444.54	3435.91
444.73	3346.97
444.91	3290.79
445.10	3309.52
445.28	3323.56
445.47	3384.41
445.65	3358.67
445.84	3370.37
446.02	3438.25
446.21	3358.67
446.39	3393.78
446.58	3407.82
446.77	3485.06
446.95	3375.05
447.14	3454.63
447.32	3506.12
447.51	3456.97
447.69	3574.00
447.88	3543.57
448.06	3494.42
448.25	3283.77
448.43	3400.80
448.62	3447.61
448.80	3407.82
448.99	3632.51
449.17	3522.51
449.36	3503.78
449.54	3449.95
449.73	3592.72
449.91	3583.36
450.10	3604.42
450.28	3754.22
450.46	3667.62
450.65	3499.10
450.83	3585.70
451.02	3728.47
451.20	3660.60
451.39	3866.56
451.57	3730.81
451.76	3749.54
451.94	3735.50
452.13	3777.62
452.31	3805.71
452.49	3719.11
452.68	3789.33
452.86	3672.30
453.05	3889.97
453.23	4002.32
453.42	3747.20
453.60	3854.86
453.78	3794.01
453.97	3794.01
454.15	3824.44
454.34	3768.26
454.52	4037.42
454.70	4070.19
454.89	3939.12
455.07	4021.04
455.26	3969.55
455.44	3955.51
455.62	4039.76
455.81	4018.70
455.99	4109.98
456.17	4215.30
456.36	3997.64
456.54	4133.39
456.73	4198.92
456.91	4273.82
457.09	4205.94
457.28	4344.03
457.46	4217.65
457.64	4386.16
457.83	4250.41
458.01	4152.11
458.19	4390.84
458.38	4234.03
458.56	4414.25
458.74	4470.42
458.93	4383.82
459.11	4292.54
459.29	4297.22
459.48	4334.67
459.66	4334.67
459.84	4475.10
460.03	4463.40
460.21	4535.96
460.39	4353.40
460.57	4535.96
460.76	4615.54
460.94	4432.97
461.12	4535.96
461.31	4636.60
461.49	4578.09
461.67	4624.90
461.85	4648.30
462.04	4662.35
462.22	4868.31
462.40	4699.80
462.59	4683.41
462.77	4713.84
462.95	4695.11
463.13	4629.58
463.32	4823.84
463.50	4589.79
463.68	4952.57
463.86	4786.40
464.05	4526.60
464.23	4741.93
464.41	4755.97
464.59	4643.62
464.78	4842.57
464.96	4884.70
465.14	4758.31
465.32	4842.57
465.50	4947.89
465.69	4961.94
465.87	4929.17
466.05	4994.70
466.23	5006.41
466.41	4924.49
466.60	5170.24
466.78	4985.34
466.96	5064.92
467.14	4882.36
467.32	4931.51
467.51	5242.80
467.69	4849.59
467.87	4947.89
468.05	5179.61
468.23	4980.66
468.41	4973.64
468.60	5153.86
468.78	5163.22
468.96	5219.39
469.14	5238.12
469.32	5170.24
469.50	5177.26
469.69	5315.36
469.87	5280.25
470.05	5369.19
470.23	5315.36
470.41	5345.78
470.59	5390.25
470.77	5221.74
470.95	5427.70
471.14	5535.37
471.32	5383.23
471.50	5504.94
471.68	5600.90
471.86	5441.75
472.04	5542.39
472.22	5659.42
472.40	5453.45
472.58	5657.07
472.77	5804.53
472.95	5757.72
473.13	5900.49
473.31	5853.68
473.49	5767.08
473.67	5802.19
473.85	5792.83
474.03	5776.44
474.21	5928.58
474.39	6076.03
474.57	5987.09
474.75	6078.37
474.93	6160.29
475.12	6036.24
475.30	5996.45
475.48	5982.41
475.66	5956.66
475.84	6132.20
476.02	6256.25
476.20	6211.78
476.38	6317.11
476.56	6401.37
476.74	6305.40
476.92	6490.31
477.10	6340.51
477.28	6511.37
477.46	6480.94
477.64	6494.99
477.82	6651.80
478.00	6906.92
478.18	6878.83
478.36	6665.85
478.54	6750.10
478.72	6916.28
478.90	6977.14
479.08	7075.44
479.26	7096.50
479.44	7332.90
479.62	7133.95
479.80	7234.60
479.98	7094.16
480.16	7527.16
480.34	7365.67
480.52	7569.29
480.70	7737.81
480.88	7405.46
481.06	7616.10
481.24	7669.94
481.41	7529.50
481.59	7868.88
481.77	7864.20
481.95	7866.54
482.13	7808.03
482.31	7761.22
482.49	8142.72
482.67	7983.57
482.85	8461.04
483.03	8383.80
483.21	8362.73
483.39	8526.57
483.57	8437.63
483.74	8781.69
483.92	8533.59
484.10	8657.64
484.28	8905.74
484.46	9034.47
484.64	9046.17
484.82	8826.16
485.00	8898.72
485.18	9151.49
485.35	9205.33
485.53	9210.01
485.71	9156.18
485.89	9406.61
486.07	9324.69
486.25	9551.73
486.43	9401.93
486.61	9511.94
486.78	9729.61
486.96	9645.35
487.14	9731.95
487.32	9923.87
487.50	9973.02
487.68	9921.53
487.85	10104.09
488.03	10312.40
488.21	10253.89
488.39	10331.12
488.57	10551.14
488.75	10565.18
488.92	10654.12
489.10	10855.40
489.28	10796.89
489.46	10972.43
489.64	10916.26
489.81	11215.85
489.99	10878.81
490.17	11370.32
490.35	11283.72
490.53	11187.76
490.70	11468.62
490.88	11241.59
491.06	11644.17
491.24	11543.52
491.41	11676.93
491.59	11529.48
491.77	11873.54
491.95	11793.96
492.13	11829.07
492.30	12023.33
492.48	11761.19
492.66	12042.06
492.84	11943.75
493.01	12500.80
493.19	12362.71
493.37	12491.44
493.54	12517.18
493.72	12650.60
493.90	12477.40
494.08	12711.45
494.25	12809.75
494.43	13146.79
494.61	13184.24
494.79	12994.65
494.96	13130.41
495.14	13327.01
495.32	13415.95
495.49	13191.26
495.67	13174.88
495.85	13603.19
496.02	13429.99
496.20	13596.17
496.38	13624.26
496.55	13743.63
496.73	14024.49
496.91	13715.54
497.09	14099.39
497.26	14090.02
497.44	14111.09
497.62	13989.38
497.79	14188.33
497.97	14216.41
498.14	14527.71
498.32	14485.58
498.50	14544.09
498.67	14743.03
498.85	14721.97
499.03	14623.67
499.20	14691.54
499.38	14717.29
499.56	14815.59
499.73	15037.94
499.91	15234.55
500.08	15115.18
500.26	14834.32
500.44	15382.00
500.61	15272.00
500.79	15396.04
500.97	15417.11
501.14	15658.18
501.32	15630.10
501.49	15428.81
501.67	15557.54
501.84	15922.66
502.02	15482.64
502.20	15770.53
502.37	15810.32
502.55	15648.82
502.72	15817.34
502.90	16039.69
503.07	15772.87
503.25	16341.62
503.43	16088.84
503.60	16355.66
503.78	16229.27
503.95	16044.37
504.13	16578.01
504.30	16102.89
504.48	16313.53
504.65	16271.40
504.83	16538.23
505.01	16704.40
505.18	16734.83
505.36	16765.26
505.53	16711.42
505.71	16526.52
505.88	16695.04
506.06	16765.26
506.23	16910.37
506.41	17179.53
506.58	17135.06
506.76	16849.52
506.93	17043.78
507.11	17151.45
507.28	17441.67
507.46	17224.00
507.63	17263.79
507.81	17523.59
507.98	17446.35
508.16	17455.72
508.33	17451.03
508.50	17799.77
508.68	17659.34
508.85	17816.16
509.03	17731.90
509.20	17811.48
509.38	18270.22
509.55	18214.05
509.73	18125.11
509.90	17919.14
510.08	17792.75
510.25	18310.01
510.42	18218.73
510.60	18188.30
510.77	18338.10
510.95	18445.76
511.12	18349.80
511.30	18499.59
511.47	18471.51
511.64	18649.39
511.82	18743.01
511.99	18773.44
512.17	18869.40
512.34	18857.70
512.51	18686.84
512.69	18895.14
512.86	18686.84
513.04	19054.30
513.21	19171.33
513.38	19353.89
513.56	19293.04
513.73	18944.30
513.90	19290.70
514.08	19112.81
514.25	19358.57
514.43	19527.09
514.60	19688.59
514.77	19723.69
514.95	19683.91
515.12	19520.07
515.29	19178.35
515.47	19517.73
515.64	19571.56
515.81	19833.70
515.99	19950.73
516.16	19974.13
516.33	19838.38
516.51	19981.15
516.68	19861.79
516.85	19917.96
517.03	19927.32
517.20	20322.87
517.37	20088.82
517.54	20081.80
517.72	20152.01
517.89	20013.92
518.06	19999.88
518.24	20580.33
518.41	20154.35
518.58	20491.39
518.75	20369.68
518.93	20786.30
519.10	20526.50
519.27	20346.28
519.45	20566.29
519.62	20755.87
519.79	20556.93
519.96	20615.44
520.14	21090.57
520.31	20650.55
520.48	21219.30
520.65	21020.35
520.83	20968.86
521.00	21036.74
521.17	21029.71
521.34	21200.57
521.52	21451.01
521.69	21291.85
521.86	21401.86
522.03	21441.65
522.20	21678.04
522.38	21586.76
522.55	21769.32
522.72	21565.70
522.89	21687.40
523.07	21954.22
523.24	21706.13
523.41	21717.83
523.58	21467.39
523.75	22225.73
523.92	21319.94
524.10	21745.92
524.27	21963.59
524.44	21799.75
524.61	22436.38
524.78	22295.94
524.96	22139.13
525.13	22118.06
525.30	22129.77
525.47	22319.35
525.64	22321.69
525.81	22431.69
525.98	22415.31
526.16	22333.39
526.33	22401.27
526.50	22764.05
526.67	22258.49
526.84	22314.67
527.01	22377.86
527.18	22352.12
527.36	22820.22
527.53	22789.80
527.70	23035.55
527.87	22750.01
528.04	22522.98
528.21	22562.76
528.38	22775.75
528.55	23161.94
528.72	22845.97
528.89	23260.24
529.07	22883.42
529.24	22813.20
529.41	23243.86
529.58	23201.73
529.75	23194.71
529.92	22930.23
530.09	22991.08
530.26	23197.05
530.43	23349.18
530.60	22970.02
530.77	23103.43
530.94	23349.18
531.11	23374.93
531.28	23367.91
531.46	23260.24
531.63	23445.15
531.80	23496.64
531.97	23704.95
532.14	23477.91
532.31	23433.44
532.48	23807.93
532.65	24067.73
532.82	23477.91
532.99	23662.82
533.16	23506.00
533.33	23817.29
533.50	23908.57
533.67	23941.34
533.84	23782.18
534.01	23721.33
534.18	23934.32
534.35	23747.08
534.52	23934.32
534.69	23889.85
534.86	24271.36
535.03	24072.41
535.20	24552.22
535.37	24196.46
535.54	24100.50
535.71	24217.52
535.88	24079.43
536.05	24245.61
536.22	24458.60
536.38	24379.02
536.55	24554.56
536.72	24741.80
536.89	24519.45
537.06	24657.54
537.23	24961.81
537.40	24601.37
537.57	24882.24
537.74	24650.52
537.91	24910.32
538.08	24905.64
538.25	25097.56
538.42	25144.38
538.59	24905.64
538.75	24737.12
538.92	24734.78
539.09	24863.51
539.26	25233.32
539.43	25219.27
539.60	24755.85
539.77	25085.86
539.94	24812.02
540.11	25205.23
540.28	25317.57
540.44	25329.28
540.61	25071.82
540.78	25226.29
540.95	24737.12
541.12	25338.64
541.29	25317.57
541.46	25509.50
541.62	25331.62
541.79	25270.76
541.96	25003.94
542.13	25205.23
542.30	25638.23
542.47	25542.27
542.63	25458.01
542.80	25820.79
542.97	25825.47
543.14	25891.01
543.31	25752.91
543.48	25397.15
543.64	26157.83
543.81	26405.92
543.98	26024.42
544.15	26139.10
544.32	26225.70
544.48	26398.90
544.65	25977.61
544.82	25778.66
544.99	25436.94
545.16	26155.49
545.32	26162.51
545.49	26506.57
545.66	26607.21
545.83	26129.74
546.00	26363.79
546.16	26232.72
546.33	25909.73
546.50	26309.96
546.67	26099.31
546.83	26040.80
547.00	26267.83
547.17	26136.76
547.34	26600.19
547.50	26764.03
547.67	26532.31
547.84	26625.93
548.00	26384.86
548.17	26555.72
548.34	26312.30
548.51	26888.07
548.67	26558.06
548.84	26862.33
549.01	26661.04
549.18	26890.41
549.34	26848.29
549.51	27047.23
549.68	26831.90
549.84	26705.51
550.01	27131.49
550.18	26969.99
550.34	27023.83
550.51	27267.24
550.68	27342.14
550.84	26937.23
551.01	27182.98
551.18	27049.57
551.34	26806.16
551.51	26946.59
551.68	26782.75
551.84	27187.66
552.01	27166.60
552.18	27323.41
552.34	27131.49
552.51	26941.91
552.68	27414.69
552.84	27201.71
553.01	27271.92
553.18	27044.89
553.34	27232.13
553.51	27374.91
553.67	27529.38
553.84	27262.56
554.01	27524.70
554.17	27459.16
554.34	27702.58
554.51	27608.96
554.67	27929.61
554.84	27601.94
555.00	27779.82
555.17	27421.72
555.33	27751.73
555.50	27800.88
555.67	27585.55
555.83	27796.20
556.00	27566.83
556.16	27896.85
556.33	27686.20
556.50	27749.39
556.66	27803.22
556.83	27826.63
556.99	28261.97
557.16	28563.90
557.32	27866.42
557.49	28121.54
557.65	27580.87
557.82	27826.63
557.98	27683.86
558.15	27871.10
558.32	27800.88
558.48	28128.56
558.65	28154.30
558.81	28048.98
558.98	27826.63
559.14	28041.96
559.31	28273.67
559.47	27817.27
559.64	28156.64
559.80	28379.00
559.97	28215.16
560.13	28058.34
560.30	28189.41
560.46	28009.19
560.63	28374.31
560.79	28364.95
560.96	28568.58
561.12	28048.98
561.29	27906.21
561.45	28245.58
561.61	28329.84
561.78	28278.35
561.94	28545.17
562.11	28240.90
562.27	28746.46
562.44	28098.13
562.60	28659.86
562.77	28308.78
562.93	27981.10
563.10	28697.31
563.26	28137.92
563.42	28849.44
563.59	28481.98
563.75	28414.10
563.92	28624.75
564.08	28294.74
564.24	28353.25
564.41	28355.59
564.57	28636.45
564.74	28701.99
564.90	28589.64
565.07	28627.09
565.23	28842.42
565.39	28610.71
565.56	28926.68
565.72	28694.97
565.88	28830.72
566.05	28863.49
566.21	28486.66
566.38	28706.67
566.54	28304.10
566.70	28954.77
566.87	28652.84
567.03	29020.30
567.19	29006.26
567.36	28594.32
567.52	28666.88
567.68	28987.53
567.85	28395.38
568.01	28765.18
568.17	28652.84
568.34	28790.93
568.50	28802.63
568.66	28968.81
568.83	28809.65
568.99	28718.37
569.15	28807.31
569.32	28790.93
569.48	28472.62
569.64	28872.85
569.81	28788.59
569.97	28872.85
570.13	28971.15
570.30	29120.95
570.46	29167.76
570.62	29127.97
570.78	28519.43
570.95	28648.16
571.11	29111.58
571.27	29048.39
571.43	29113.92
571.60	28851.78
571.76	29240.31
571.92	29167.76
572.09	29050.73
572.25	29083.50
572.41	28980.51
572.57	28891.57
572.74	28783.91
572.90	29001.58
573.06	29338.62
573.22	28945.41
573.38	29326.91
573.55	28987.53
573.71	29046.05
573.87	29015.62
574.03	28952.43
574.20	28851.78
574.36	28643.48
574.52	29137.33
574.68	28903.28
574.84	29252.02
575.01	28936.04
575.17	29333.93
575.33	28804.97
575.49	28856.46
575.65	29329.25
575.82	29280.10
575.98	29172.44
576.14	29212.23
576.30	29024.98
576.46	29097.54
576.62	28697.31
576.79	29104.56
576.95	28765.18
577.11	29617.14
577.27	29369.04
577.43	29284.78
577.59	29453.30
577.75	29156.05
577.92	28924.34
578.08	29244.99
578.24	28961.79
578.40	29495.43
578.56	29046.05
578.72	29280.10
578.88	29350.32
579.04	29586.71
579.21	28931.36
579.37	29539.90
579.53	29394.79
579.69	29020.30
579.85	29212.23
580.01	29048.39
580.17	29177.12
580.33	28929.02
580.49	29001.58
580.65	29586.71
580.82	29345.64
580.98	28978.17
581.14	29261.38
581.30	29607.78
581.46	29149.03
581.62	28919.66
581.78	29242.65
581.94	29329.25
582.10	29235.63
582.26	29523.52
582.42	29525.86
582.58	29500.11
582.74	29378.40
582.90	29181.80
583.06	29085.84
583.22	28907.96
583.38	29156.05
583.54	29277.76
583.70	29099.88
583.86	29099.88
584.02	29247.33
584.18	29331.59
584.34	29586.71
584.50	29156.05
584.66	29345.64
584.82	29560.97
584.98	29455.64
585.14	29373.72
585.30	28863.49
585.46	29228.61
585.62	29340.96
585.78	29450.96
585.94	28907.96
586.10	29322.23
586.26	29249.67
586.42	29656.93
586.58	29102.22
586.74	29167.76
586.90	29340.96
587.06	29181.80
587.22	29387.77
587.38	29017.96
587.54	29446.28
587.70	29542.24
587.86	29516.50
588.02	29277.76
588.18	29736.51
588.34	29287.12
588.49	29465.00
588.65	29355.00
588.81	29427.56
588.97	29685.01
589.13	29223.93
589.29	29593.73
589.45	29406.49
589.61	29916.73
589.77	29696.72
589.93	29614.80
590.08	29509.47
590.24	29872.26
590.40	29759.91
590.56	29806.72
590.72	29441.60
590.88	29221.59
591.04	29755.23
591.20	29696.72
591.35	30003.33
591.51	30082.91
591.67	30075.88
591.83	29656.93
591.99	29778.64
