SpectraSuite Data File
++++++++++++++++++++++++++++++++++++
Date: Fri Oct 18 13:58:19 GMT-05:00 2013
User: bianchi
Dark Spectrum Present: No
Reference Spectrum Present: No
Number of Sampled Component Spectra: 1
Spectrometers: USB2+H05261
Integration Time (usec): 50000 (USB2+H05261)
Spectra Averaged: 1 (USB2+H05261)
Boxcar Smoothing: 0 (USB2+H05261)
Correct for Electrical Dark: No (USB2+H05261)
Strobe/Lamp Enabled: No (USB2+H05261)
Correct for Detector Non-linearity: No (USB2+H05261)
Correct for Stray Light: No (USB2+H05261)
Number of Pixels in Processed Spectrum: 2048
>>>>>Begin Processed Spectral Data<<<<<
365.73	0.00
365.92	0.00
366.12	0.00
366.32	0.00
366.52	0.00
366.72	0.00
366.91	0.00
367.11	0.00
367.31	0.00
367.51	0.00
367.70	0.00
367.90	0.00
368.10	0.00
368.30	0.00
368.49	0.00
368.69	0.00
368.89	0.00
369.09	0.00
369.28	0.00
369.48	0.00
369.68	0.00
369.87	0.00
370.07	0.00
370.27	0.00
370.47	0.00
370.66	21.06
370.86	147.45
371.06	126.39
371.25	180.22
371.45	119.37
371.65	112.35
371.84	100.64
372.04	194.26
372.24	159.16
372.44	210.65
372.63	212.99
372.83	191.92
373.03	147.45
373.22	198.95
373.42	210.65
373.62	149.79
373.81	234.05
374.01	217.67
374.21	203.63
374.40	245.76
374.60	259.80
374.79	313.63
374.99	292.57
375.19	294.91
375.38	337.04
375.58	313.63
375.78	266.82
375.97	222.35
376.17	271.50
376.37	187.24
376.56	208.31
376.76	290.23
376.95	227.03
377.15	315.97
377.35	299.59
377.54	337.04
377.74	264.48
377.93	280.86
378.13	278.52
378.33	344.06
378.52	215.33
378.72	344.06
378.91	332.36
379.11	243.42
379.31	252.78
379.50	250.44
379.70	292.57
379.89	341.72
380.09	306.61
380.28	337.04
380.48	337.04
380.68	283.20
380.87	276.18
381.07	383.85
381.26	400.23
381.46	280.86
381.65	287.89
381.85	294.91
382.04	346.40
382.24	332.36
382.43	322.99
382.63	362.78
382.83	315.97
383.02	311.29
383.22	397.89
383.41	318.31
383.61	358.10
383.80	376.83
384.00	346.40
384.19	341.72
384.39	379.17
384.58	365.12
384.78	273.84
384.97	341.72
385.17	365.12
385.36	404.91
385.56	383.85
385.75	395.55
385.95	374.49
386.14	465.77
386.34	393.21
386.53	390.87
386.72	395.55
386.92	402.57
387.11	393.21
387.31	411.93
387.50	362.78
387.70	390.87
387.89	498.53
388.09	454.06
388.28	449.38
388.48	400.23
388.67	404.91
388.86	519.60
389.06	451.72
389.25	454.06
389.45	425.98
389.64	416.62
389.84	599.18
390.03	519.60
390.22	365.12
390.42	514.92
390.61	407.25
390.81	496.19
391.00	503.22
391.19	451.72
391.39	423.64
391.58	557.05
391.78	550.03
391.97	489.17
392.16	524.28
392.36	521.94
392.55	524.28
392.75	510.24
392.94	608.54
393.13	599.18
393.33	585.13
393.52	580.45
393.71	578.11
393.91	526.62
394.10	535.98
394.29	650.67
394.49	622.58
394.68	681.10
394.88	533.64
395.07	568.75
395.26	557.05
395.46	664.71
395.65	564.07
395.84	704.50
396.04	723.23
396.23	730.25
396.42	678.76
396.62	641.31
396.81	688.12
397.00	634.29
397.19	615.56
397.39	629.60
397.58	653.01
397.77	748.97
397.97	697.48
398.16	685.78
398.35	706.84
398.55	671.73
398.74	643.65
398.93	692.80
399.12	725.57
399.32	671.73
399.51	730.25
399.70	720.88
399.90	802.80
400.09	706.84
400.28	716.20
400.47	795.78
400.67	732.59
400.86	798.12
401.05	809.83
401.24	826.21
401.44	863.66
401.63	816.85
401.82	809.83
402.01	826.21
402.21	788.76
402.40	816.85
402.59	898.77
402.78	880.04
402.97	943.24
403.17	840.25
403.36	999.41
403.55	912.81
403.74	875.36
403.93	868.34
404.13	884.72
404.32	891.74
404.51	908.13
404.70	976.00
404.89	964.30
405.09	912.81
405.28	968.98
405.47	983.02
405.66	940.90
405.85	1020.47
406.05	985.37
406.24	968.98
406.43	980.68
406.62	992.39
406.81	1076.65
407.00	1013.45
407.20	952.60
407.39	980.68
407.58	964.30
407.77	1029.84
407.96	1067.28
408.15	1043.88
408.34	1032.18
408.54	1029.84
408.73	1174.95
408.92	1128.14
409.11	1132.82
409.30	1095.37
409.49	1022.81
409.68	1233.46
409.87	1135.16
410.07	1224.10
410.26	1240.48
410.45	1174.95
410.64	1217.08
410.83	1282.61
411.02	1191.33
411.21	1191.33
411.40	1268.57
411.59	1247.51
411.78	1254.53
411.98	1207.72
412.17	1369.21
412.36	1336.45
412.55	1308.36
412.74	1387.94
412.93	1376.24
413.12	1205.38
413.31	1430.07
413.50	1458.15
413.69	1432.41
413.88	1427.73
414.07	1385.60
414.26	1593.90
414.45	1439.43
414.64	1432.41
414.83	1507.30
415.02	1568.16
415.22	1519.01
415.41	1540.07
415.60	1614.97
415.79	1652.42
415.98	1610.29
416.17	1657.10
416.36	1640.72
416.55	1668.80
416.74	1568.16
416.93	1633.69
417.12	1699.23
417.31	1678.16
417.50	1706.25
417.69	1743.70
417.88	1736.68
418.07	1863.07
418.26	1710.93
418.45	1659.44
418.64	1813.92
418.83	1797.53
419.02	1837.32
419.21	1776.47
419.39	1849.02
419.58	1816.26
419.77	1809.23
419.96	1877.11
420.15	1872.43
420.34	1898.17
420.53	1874.77
420.72	1977.75
420.91	1863.07
421.10	1914.56
421.29	1940.30
421.48	1881.79
421.67	2083.08
421.86	1966.05
422.05	1961.37
422.24	1870.09
422.43	1914.56
422.61	1949.67
422.80	1933.28
422.99	1975.41
423.18	1975.41
423.37	2097.12
423.56	2022.22
423.75	1994.14
423.94	1959.03
424.13	1916.90
424.32	1900.52
424.50	2094.78
424.69	2090.10
424.88	2052.65
425.07	1977.75
425.26	1930.94
425.45	2012.86
425.64	2094.78
425.83	2001.16
426.01	2127.55
426.20	2143.93
426.39	2080.74
426.58	2071.37
426.77	1961.37
426.96	2083.08
427.15	2188.40
427.33	2059.67
427.52	2256.28
427.71	2155.63
427.90	2148.61
428.09	2132.23
428.28	2190.74
428.46	2256.28
428.65	2202.44
428.84	2190.74
429.03	2270.32
429.22	2256.28
429.40	2200.10
429.59	2235.21
429.78	2129.89
429.97	2069.03
430.16	2207.13
430.34	2469.27
430.53	2436.50
430.72	2417.77
430.91	2258.62
431.10	2373.30
431.28	2197.76
431.47	2448.20
431.66	2368.62
431.85	2401.39
432.03	2436.50
432.22	2377.98
432.41	2499.69
432.60	2422.45
432.79	2436.50
432.97	2607.36
433.16	2490.33
433.35	2438.84
433.54	2485.65
433.72	2548.84
433.91	2560.55
434.10	2476.29
434.28	2534.80
434.47	2457.56
434.66	2616.72
434.85	2546.50
435.03	2708.00
435.22	2600.34
435.41	2663.53
435.59	2572.25
435.78	2502.03
435.97	2612.04
436.16	2703.32
436.34	2616.72
436.53	2810.98
436.72	2782.90
436.90	2597.99
437.09	2775.88
437.28	2815.66
437.46	2668.21
437.65	2841.41
437.84	2724.38
438.02	2731.41
438.21	2705.66
438.40	2768.85
438.58	2832.05
438.77	2935.03
438.96	2904.60
439.14	3033.33
439.33	2860.13
439.52	3035.67
439.70	3016.95
439.89	3059.08
440.08	3023.97
440.26	3124.62
440.45	3047.38
440.63	3166.74
440.82	3236.96
441.01	3056.74
441.19	3131.64
441.38	3283.77
441.57	3211.22
441.75	3220.58
441.94	3150.36
442.12	3279.09
442.31	3309.52
442.50	3276.75
442.68	3199.51
442.87	3356.33
443.05	3468.67
443.24	3337.60
443.43	3328.24
443.61	3588.04
443.80	3314.20
443.98	3321.22
444.17	3243.98
444.35	3363.35
444.54	3468.67
444.73	3489.74
444.91	3431.23
445.10	3426.54
445.28	3438.25
445.47	3489.74
445.65	3414.84
445.84	3461.65
446.02	3447.61
446.21	3283.77
446.39	3641.87
446.58	3522.51
446.77	3569.32
446.95	3337.60
447.14	3386.76
447.32	3545.91
447.51	3501.44
447.69	3426.54
447.88	3597.40
448.06	3559.95
448.25	3506.12
448.43	3581.02
448.62	3510.80
448.80	3613.79
448.99	3475.70
449.17	3599.74
449.36	3613.79
449.54	3749.54
449.73	3691.02
449.91	3836.14
450.10	3625.49
450.28	3747.20
450.46	3815.07
450.65	3786.99
450.83	3761.24
451.02	3744.86
451.20	3838.48
451.39	3896.99
451.57	3857.20
451.76	3815.07
451.94	3908.69
452.13	3918.06
452.31	3786.99
452.49	3955.51
452.68	3833.80
452.86	3859.54
453.05	3983.59
453.23	3997.64
453.42	3873.59
453.60	3850.18
453.78	3899.33
453.97	3957.85
454.15	3857.20
454.34	3948.48
454.52	4023.38
454.70	4086.58
454.89	4156.79
455.07	4056.15
455.26	4119.34
455.44	4032.74
455.62	4124.02
455.81	4081.89
455.99	4135.73
456.17	4088.92
456.36	4196.58
456.54	4304.25
456.73	4294.88
456.91	4390.84
457.09	4372.12
457.28	4292.54
457.46	4217.65
457.64	4348.72
457.83	4294.88
458.01	4304.25
458.19	4503.19
458.38	4292.54
458.56	4503.19
458.74	4219.99
458.93	4372.12
459.11	4662.35
459.29	4538.30
459.48	4482.13
459.66	4507.87
459.84	4503.19
460.03	4528.94
460.21	4547.66
460.39	4542.98
460.57	4491.49
460.76	4652.98
460.94	4582.77
461.12	4587.45
461.31	4542.98
461.49	4669.37
461.67	4613.20
461.85	4688.09
462.04	4664.69
462.22	4964.28
462.40	4812.14
462.59	4889.38
462.77	4791.08
462.95	4823.84
463.13	4880.02
463.32	4856.61
463.50	4777.03
463.68	4777.03
463.86	4683.41
464.05	4762.99
464.23	4781.71
464.41	4788.74
464.59	4748.95
464.78	5074.28
464.96	4896.40
465.14	4975.98
465.32	5032.15
465.50	5088.32
465.69	5034.49
465.87	4882.36
466.05	4994.70
466.23	4987.68
466.41	5280.25
466.60	5104.71
466.78	5093.01
466.96	5074.28
467.14	5029.81
467.32	5128.11
467.51	5170.24
467.69	5050.88
467.87	5231.10
468.05	5245.14
468.23	5097.69
468.41	5315.36
468.60	5123.43
468.78	5254.50
468.96	5240.46
469.14	5394.93
469.32	5430.04
469.50	5156.20
469.69	5369.19
469.87	5242.80
470.05	5453.45
470.23	5530.69
470.41	5336.42
470.59	5378.55
470.77	5362.17
470.95	5455.79
471.14	5636.01
471.32	5401.96
471.50	5654.73
471.68	5607.92
471.86	5694.52
472.04	5785.80
472.22	5776.44
472.40	5675.80
472.58	5839.64
472.77	5851.34
472.95	5708.57
473.13	6022.20
473.31	5750.70
473.49	5912.19
473.67	5841.98
473.85	5951.98
474.03	6146.25
474.21	6132.20
474.39	6218.80
474.57	6019.86
474.75	6043.26
474.93	6150.93
475.12	6195.40
475.30	6321.79
475.48	6242.21
475.66	6326.47
475.84	6312.42
476.02	6586.27
476.20	6492.65
476.38	6567.54
476.56	6612.01
476.74	6696.27
476.92	6558.18
477.10	6640.10
477.28	6520.73
477.46	6511.37
477.64	6768.83
477.82	6738.40
478.00	6909.26
478.18	7023.95
478.36	7119.91
478.54	7157.36
478.72	7204.17
478.90	7258.00
479.08	7316.51
479.26	7344.60
479.44	7169.06
479.62	7351.62
479.80	7545.89
479.98	7599.72
480.16	7564.61
480.34	7606.74
480.52	7489.71
480.70	7534.18
480.88	7683.98
481.06	7672.28
481.24	7679.30
481.41	7843.14
481.59	8004.63
481.77	7859.52
481.95	7939.10
482.13	8046.76
482.31	8065.49
482.49	8219.96
482.67	8245.71
482.85	8430.61
483.03	8655.30
483.21	8564.02
483.39	8662.32
483.57	8608.49
483.74	8678.71
483.92	8807.44
484.10	8456.36
484.28	9013.40
484.46	9153.84
484.64	9128.09
484.82	8926.80
485.00	9062.55
485.18	9303.63
485.35	9427.68
485.53	9387.89
485.71	9364.48
485.89	9680.46
486.07	9591.52
486.25	9657.05
486.43	9741.31
486.61	9830.25
486.78	9874.72
486.96	9893.44
487.14	10265.59
487.32	10066.64
487.50	10148.56
487.68	10162.61
487.85	10539.43
488.03	10492.62
488.21	10656.46
488.39	10810.93
488.57	10703.27
488.75	10654.12
488.92	10888.17
489.10	11059.03
489.28	10977.11
489.46	11112.86
489.64	11154.99
489.81	11351.60
489.99	11295.43
490.17	11222.87
490.35	11435.86
490.53	11627.78
490.70	11763.53
490.88	11611.40
491.06	11702.68
491.24	11908.65
491.41	11852.47
491.59	12187.17
491.77	11999.93
491.95	12374.41
492.13	12222.28
492.30	12369.73
492.48	12376.75
492.66	12538.25
492.84	12402.50
493.01	12692.73
493.19	12737.20
493.37	12486.76
493.54	12816.77
493.72	13022.74
493.90	12837.84
494.08	13158.49
494.25	13146.79
494.43	13125.72
494.61	13266.16
494.79	13357.44
494.96	13476.80
495.14	13413.61
495.32	13570.43
495.49	13774.05
495.67	13710.86
495.85	13781.07
496.02	13956.61
496.20	14005.77
496.38	14059.60
496.55	13991.72
496.73	14211.73
496.91	14169.60
497.09	14511.32
497.26	14347.48
497.44	14525.36
497.62	14363.87
497.79	14731.33
497.97	14731.33
498.14	14548.77
498.32	14853.04
498.50	14808.57
498.67	14771.12
498.85	14916.23
499.03	15080.07
499.20	15115.18
499.38	15150.29
499.56	15201.78
499.73	15124.54
499.91	15482.64
500.08	15625.42
500.26	15314.13
500.44	15487.32
500.61	15552.86
500.79	15646.48
500.97	15644.14
501.14	15917.98
501.32	15866.49
501.49	15740.10
501.67	16023.31
501.84	16114.59
502.02	16095.86
502.20	16184.80
502.37	16259.70
502.55	16269.06
502.72	16243.32
502.90	16383.75
503.07	16301.83
503.25	16517.16
503.43	16259.70
503.60	16643.55
503.78	16765.26
503.95	16587.38
504.13	16599.08
504.30	16634.19
504.48	16552.27
504.65	16751.21
504.83	16952.50
505.01	17221.66
505.18	17097.61
505.36	17256.77
505.53	16992.29
505.71	17099.95
505.88	17259.11
506.06	17336.35
506.23	17659.34
506.41	17542.32
506.58	17572.74
506.76	17710.83
506.93	17502.53
507.11	17509.55
507.28	17795.09
507.46	17584.44
507.63	17661.68
507.81	18101.70
507.98	17965.95
508.16	18033.83
508.33	18080.64
508.50	17834.88
508.68	18082.98
508.85	18565.13
509.03	18319.37
509.20	18279.58
509.38	18300.65
509.55	18420.02
509.73	18735.99
509.90	18537.04
510.08	18260.86
510.25	18443.42
510.42	18794.50
510.60	18794.50
510.77	18829.61
510.95	19164.31
511.12	19054.30
511.30	18920.89
511.47	18656.41
511.64	18916.21
511.82	19293.04
511.99	19253.25
512.17	19239.20
512.34	18967.70
512.51	19103.45
512.69	19229.84
512.86	19501.34
513.04	19466.24
513.21	19920.30
513.38	19545.81
513.56	19349.21
513.73	19442.83
513.90	19489.64
514.08	19583.26
514.25	19737.74
514.43	19878.17
514.60	19864.13
514.77	20180.10
514.95	20100.52
515.12	20018.60
515.29	19861.79
515.47	20236.27
515.64	20198.82
515.81	20142.65
515.99	20191.80
516.16	20294.79
516.33	20231.59
516.51	20496.07
516.68	20308.83
516.85	20533.52
517.03	20528.84
517.20	20425.86
517.37	20709.06
517.54	21018.01
517.72	20585.01
517.89	20823.75
518.06	20828.43
518.24	20697.36
518.41	21128.02
518.58	20954.82
518.75	20814.38
518.93	21109.29
519.10	20833.11
519.27	21123.33
519.45	21001.63
519.62	21207.59
519.79	20868.22
519.96	21259.09
520.14	21443.99
520.31	21322.28
520.48	21603.14
520.65	21502.50
520.83	21671.02
521.00	21415.90
521.17	21380.79
521.34	21619.53
521.52	21855.92
521.69	22012.74
521.86	21687.40
522.03	21811.45
522.20	21825.50
522.38	22305.31
522.55	21790.39
522.72	21935.50
522.89	21652.30
523.07	22286.58
523.24	22059.55
523.41	22377.86
523.58	22075.93
523.75	22590.85
523.92	22373.18
524.10	22366.16
524.27	22384.88
524.44	22530.00
524.61	22677.45
524.78	22705.54
524.96	22775.75
525.13	22258.49
525.30	22569.79
525.47	22724.26
525.64	22773.41
525.81	22948.95
525.98	23082.36
526.16	23168.96
526.33	22843.63
526.50	23421.74
526.67	22518.29
526.84	23091.73
527.01	23000.44
527.18	22874.06
527.36	23014.49
527.53	23147.90
527.70	23461.53
527.87	23740.05
528.04	23346.84
528.21	23337.48
528.38	23098.75
528.55	23417.06
528.72	23669.84
528.89	23580.90
529.07	23660.48
529.24	23693.24
529.41	23695.58
529.58	23676.86
529.75	23634.73
529.92	23604.30
530.09	23267.27
530.26	23838.36
530.43	23896.87
530.60	23985.81
530.77	23892.19
530.94	23939.00
531.11	24009.22
531.28	23922.62
531.46	24315.83
531.63	24091.13
531.80	24238.59
531.97	24264.33
532.14	24280.72
532.31	24149.65
532.48	24505.41
532.65	24254.97
532.82	24236.25
532.99	24437.53
533.16	24259.65
533.33	24472.64
533.50	24636.48
533.67	24606.05
533.84	24671.59
534.01	24252.63
534.18	24219.86
534.35	24786.27
534.52	24683.29
534.69	25029.69
534.86	24643.50
535.03	24847.13
535.20	25109.27
535.37	24718.40
535.54	24870.53
535.71	24531.15
535.88	25123.31
536.05	25092.88
536.22	24772.23
536.38	25216.93
536.55	24982.88
536.72	25305.87
536.89	25088.20
537.06	25135.01
537.23	25453.33
537.40	25090.54
537.57	25064.80
537.74	25113.95
537.91	25439.28
538.08	25572.69
538.25	25280.13
538.42	25322.26
538.59	25413.54
538.75	25317.57
538.92	25216.93
539.09	25495.46
539.26	25397.15
539.43	25476.73
539.60	25689.72
539.77	25830.15
539.94	25949.52
540.11	25788.02
540.28	25565.67
540.44	25874.62
540.61	25603.12
540.78	25706.10
540.95	25867.60
541.12	25923.77
541.29	25935.48
541.46	26052.50
541.62	26026.76
541.79	25738.87
541.96	25968.24
542.13	25804.41
542.30	26141.44
542.47	26536.99
542.63	26293.58
542.80	26532.31
542.97	26253.79
543.14	26544.02
543.31	26717.22
543.48	26096.97
543.64	26799.13
543.81	26710.19
543.98	26778.07
544.15	26789.77
544.32	26345.07
544.48	27061.27
544.65	26515.93
544.82	26672.74
544.99	26363.79
545.16	26969.99
545.32	26806.16
545.49	27051.91
545.66	27372.57
545.83	27080.00
546.00	27026.17
546.16	27145.53
546.33	26639.98
546.50	26831.90
546.67	26937.23
546.83	26551.04
547.00	26958.29
547.17	26965.31
547.34	27253.20
547.50	27257.88
547.67	27211.07
547.84	27044.89
548.00	27658.11
548.17	27445.12
548.34	27475.55
548.51	27524.70
548.67	27641.73
548.84	27522.36
549.01	27789.18
549.18	27349.16
549.34	27676.83
549.51	27372.57
549.68	27421.72
549.84	27175.96
550.01	27608.96
550.18	27648.75
550.34	27445.12
550.51	27697.90
550.68	27744.71
550.84	27587.89
551.01	27850.03
551.18	27784.50
551.34	27646.41
551.51	27475.55
551.68	27913.23
551.84	27985.79
552.01	27627.68
552.18	27648.75
552.34	27880.46
552.51	28018.55
552.68	28091.11
552.84	27969.40
553.01	27875.78
553.18	28147.28
553.34	27981.10
553.51	28135.58
553.67	28243.24
553.84	28390.70
554.01	28287.71
554.17	28371.97
554.34	28236.22
554.51	27924.93
554.67	28205.80
554.84	27903.87
555.00	28037.28
555.17	28343.89
555.33	28315.80
555.50	28430.49
555.67	28465.60
555.83	28634.11
556.00	28697.31
556.16	28524.11
556.33	28435.17
556.50	28439.85
556.66	28329.84
556.83	28587.30
556.99	28517.09
557.16	28762.84
557.32	28428.15
557.49	28570.92
557.65	28266.65
557.82	28545.17
557.98	28655.18
558.15	28416.44
558.32	28814.34
558.48	28833.06
558.65	28884.55
558.81	28280.69
558.98	28669.22
559.14	29106.90
559.31	28793.27
559.47	28666.88
559.64	28788.59
559.80	29151.37
559.97	29048.39
560.13	28652.84
560.30	29237.97
560.46	29046.05
560.63	28973.49
560.79	29125.63
560.96	29099.88
561.12	28793.27
561.29	28737.10
561.45	28811.99
561.61	29146.69
561.78	28980.51
561.94	28896.25
562.11	29254.36
562.27	28795.61
562.44	28807.31
562.60	28631.77
562.77	29254.36
562.93	28760.50
563.10	29062.43
563.26	28856.46
563.42	29628.84
563.59	29214.57
563.75	28945.41
563.92	29244.99
564.08	29001.58
564.24	29221.59
564.41	28917.32
564.57	29062.43
564.74	29322.23
564.90	29383.09
565.07	29195.84
565.23	29378.40
565.39	29291.80
565.56	29401.81
565.72	29326.91
565.88	29050.73
566.05	29216.91
566.21	29670.97
566.38	29462.66
566.54	29209.89
566.70	29621.82
566.87	29773.95
567.03	29572.67
567.19	29961.20
567.36	29890.98
567.52	29509.47
567.68	29661.61
567.85	29317.55
568.01	29694.38
568.17	29415.85
568.34	29743.53
568.50	29371.38
568.66	29750.55
568.83	29687.36
568.99	29624.16
569.15	29301.17
569.32	29530.54
569.48	29500.11
569.64	29556.28
569.81	29591.39
569.97	29724.80
570.13	29745.87
570.30	29663.95
570.46	29827.79
570.62	29556.28
570.78	29352.66
570.95	29593.73
571.11	29572.67
571.27	29502.45
571.43	29462.66
571.60	29703.74
571.76	29682.67
571.92	29617.14
572.09	29696.72
572.25	29986.94
572.41	29682.67
572.57	29872.26
572.74	29853.53
572.90	29294.14
573.06	29778.64
573.22	29317.55
573.38	29682.67
573.55	29642.88
573.71	30008.01
573.87	29755.23
574.03	29811.40
574.20	29872.26
574.36	29823.11
574.52	29954.18
574.68	29610.12
574.84	29827.79
575.01	29806.72
575.17	29579.69
575.33	29919.07
575.49	29677.99
575.65	30101.63
575.82	29972.90
575.98	30031.41
576.14	29933.11
576.30	29926.09
576.46	29811.40
576.62	29474.37
576.79	30071.20
576.95	29795.02
577.11	29804.38
577.27	29848.85
577.43	30132.06
577.59	29823.11
577.75	29727.14
577.92	29752.89
578.08	29722.46
578.24	29991.62
578.40	30113.33
578.56	29759.91
578.72	30403.56
578.88	30387.18
579.04	30335.68
579.21	29642.88
579.37	30082.91
579.53	30008.01
579.69	29865.24
579.85	30120.35
580.01	29703.74
580.17	29565.65
580.33	29916.73
580.49	30019.71
580.65	29790.34
580.82	30204.61
580.98	29916.73
581.14	30171.85
581.30	29867.58
581.46	29406.49
581.62	29900.34
581.78	29841.83
581.94	29895.66
582.10	29710.76
582.26	30103.97
582.42	29792.68
582.58	30260.79
582.74	30213.98
582.90	30012.69
583.06	29806.72
583.22	30089.93
583.38	29942.47
583.54	30370.79
583.70	29738.85
583.86	29862.90
584.02	29921.41
584.18	29984.60
584.34	30143.76
584.50	30520.59
584.66	30199.93
584.82	30064.18
584.98	30103.97
585.14	30141.42
585.30	29846.51
585.46	29989.28
585.62	30036.09
585.78	29785.66
585.94	29797.36
586.10	30384.83
586.26	30232.70
586.42	30134.40
586.58	30408.24
586.74	30398.88
586.90	29935.45
587.06	29837.15
587.22	30293.55
587.38	29902.68
587.54	30188.23
587.70	30342.70
587.86	30150.78
588.02	30267.81
588.18	30654.00
588.34	30693.79
588.49	30448.03
588.65	30110.99
588.81	30185.89
588.97	30441.01
589.13	30057.16
589.29	29912.05
589.45	30043.12
589.61	30459.73
589.77	30345.05
589.93	30412.92
590.08	30543.99
590.24	30487.82
590.40	30614.21
590.56	30555.69
590.72	30312.28
590.88	30548.67
591.04	30735.92
591.20	30417.60
591.35	30749.96
591.51	31042.53
591.67	30759.32
591.83	30855.28
591.99	30597.82
