SpectraSuite Data File
++++++++++++++++++++++++++++++++++++
Date: Fri Oct 18 13:58:26 GMT-05:00 2013
User: bianchi
Dark Spectrum Present: No
Reference Spectrum Present: No
Number of Sampled Component Spectra: 1
Spectrometers: USB2+H05261
Integration Time (usec): 50000 (USB2+H05261)
Spectra Averaged: 1 (USB2+H05261)
Boxcar Smoothing: 0 (USB2+H05261)
Correct for Electrical Dark: No (USB2+H05261)
Strobe/Lamp Enabled: No (USB2+H05261)
Correct for Detector Non-linearity: No (USB2+H05261)
Correct for Stray Light: No (USB2+H05261)
Number of Pixels in Processed Spectrum: 2048
>>>>>Begin Processed Spectral Data<<<<<
365.73	0.00
365.92	0.00
366.12	0.00
366.32	0.00
366.52	0.00
366.72	0.00
366.91	0.00
367.11	0.00
367.31	0.00
367.51	0.00
367.70	0.00
367.90	0.00
368.10	0.00
368.30	0.00
368.49	0.00
368.69	0.00
368.89	0.00
369.09	0.00
369.28	0.00
369.48	0.00
369.68	0.00
369.87	0.00
370.07	0.00
370.27	0.00
370.47	0.00
370.66	30.43
370.86	2.34
371.06	81.92
371.25	110.01
371.45	105.32
371.65	126.39
371.84	220.01
372.04	180.22
372.24	180.22
372.44	126.39
372.63	161.50
372.83	168.52
373.03	224.69
373.22	208.31
373.42	280.86
373.62	175.54
373.81	140.43
374.01	224.69
374.21	294.91
374.40	215.33
374.60	98.30
374.79	266.82
374.99	252.78
375.19	198.95
375.38	287.89
375.58	259.80
375.78	215.33
375.97	278.52
376.17	276.18
376.37	231.71
376.56	217.67
376.76	238.73
376.95	252.78
377.15	189.58
377.35	259.80
377.54	266.82
377.74	231.71
377.93	299.59
378.13	264.48
378.33	276.18
378.52	330.02
378.72	315.97
378.91	290.23
379.11	339.38
379.31	243.42
379.50	299.59
379.70	290.23
379.89	372.15
380.09	332.36
380.28	236.39
380.48	299.59
380.68	205.97
380.87	238.73
381.07	304.27
381.26	376.83
381.46	264.48
381.65	369.80
381.85	337.04
382.04	339.38
382.24	365.12
382.43	294.91
382.63	353.42
382.83	348.74
383.02	299.59
383.22	353.42
383.41	339.38
383.61	388.53
383.80	383.85
384.00	421.30
384.19	353.42
384.39	332.36
384.58	346.40
384.78	337.04
384.97	358.10
385.17	409.59
385.36	433.00
385.56	369.80
385.75	337.04
385.95	397.89
386.14	358.10
386.34	400.23
386.53	362.78
386.72	351.08
386.92	395.55
387.11	416.62
387.31	393.21
387.50	337.04
387.70	376.83
387.89	411.93
388.09	440.02
388.28	404.91
388.48	437.68
388.67	428.32
388.86	437.68
389.06	416.62
389.25	496.19
389.45	505.56
389.64	437.68
389.84	491.51
390.03	496.19
390.22	526.62
390.42	409.59
390.61	482.15
390.81	484.49
391.00	440.02
391.19	503.22
391.39	479.81
391.58	507.90
391.78	510.24
391.97	528.96
392.16	582.79
392.36	580.45
392.55	507.90
392.75	524.28
392.94	517.26
393.13	580.45
393.33	479.81
393.52	510.24
393.71	559.39
393.91	606.20
394.10	514.92
394.29	657.69
394.49	552.37
394.68	594.50
394.88	669.39
395.07	557.05
395.26	507.90
395.46	606.20
395.65	554.71
395.84	613.22
396.04	641.31
396.23	631.94
396.42	610.88
396.62	699.82
396.81	627.26
397.00	685.78
397.19	660.03
397.39	601.52
397.58	664.71
397.77	674.07
397.97	671.73
398.16	624.92
398.35	667.05
398.55	655.35
398.74	636.63
398.93	723.23
399.12	723.23
399.32	702.16
399.51	690.46
399.70	660.03
399.90	763.01
400.09	709.18
400.28	795.78
400.47	870.68
400.67	840.25
400.86	716.20
401.05	873.02
401.24	795.78
401.44	765.36
401.63	688.12
401.82	734.93
402.01	830.89
402.21	856.64
402.40	866.00
402.59	936.21
402.78	901.11
402.97	887.06
403.17	851.96
403.36	866.00
403.55	910.47
403.74	912.81
403.93	954.94
404.13	858.98
404.32	910.47
404.51	926.85
404.70	931.53
404.89	997.07
405.09	929.19
405.28	940.90
405.47	964.30
405.66	802.80
405.85	964.30
406.05	1025.15
406.24	990.05
406.43	957.28
406.62	1128.14
406.81	1095.37
407.00	1001.75
407.20	971.32
407.39	1064.94
407.58	1029.84
407.77	1039.20
407.96	1053.24
408.15	1090.69
408.34	1107.07
408.54	1097.71
408.73	1067.28
408.92	1093.03
409.11	1170.27
409.30	1177.29
409.49	1086.01
409.68	1121.12
409.87	1151.54
410.07	1181.97
410.26	1128.14
410.45	1186.65
410.64	1210.06
410.83	1181.97
411.02	1153.88
411.21	1191.33
411.40	1142.18
411.59	1205.38
411.78	1357.51
411.98	1331.76
412.17	1341.13
412.36	1273.25
412.55	1284.95
412.74	1270.91
412.93	1284.95
413.12	1310.70
413.31	1434.75
413.50	1329.42
413.69	1427.73
413.88	1439.43
414.07	1392.62
414.26	1434.75
414.45	1472.20
414.64	1387.94
414.83	1526.03
415.02	1523.69
415.22	1500.28
415.41	1568.16
415.60	1533.05
415.79	1636.03
415.98	1610.29
416.17	1544.75
416.36	1556.46
416.55	1624.33
416.74	1617.31
416.93	1598.59
417.12	1743.70
417.31	1661.78
417.50	1713.27
417.69	1778.81
417.88	1624.33
418.07	1792.85
418.26	1739.02
418.45	1741.36
418.64	1755.40
418.83	1769.44
419.02	1856.04
419.21	1844.34
419.39	1727.32
419.58	1874.77
419.77	1809.23
419.96	1895.83
420.15	1884.13
420.34	1816.26
420.53	1860.73
420.72	1980.09
420.91	1912.22
421.10	1902.86
421.29	1970.73
421.48	1818.60
421.67	1984.77
421.86	2115.84
422.05	1919.24
422.24	1905.20
422.43	2050.31
422.61	1914.56
422.80	1980.09
422.99	2015.20
423.18	1959.03
423.37	1994.14
423.56	1954.35
423.75	1975.41
423.94	2001.16
424.13	1825.62
424.32	1937.96
424.50	2059.67
424.69	2122.87
424.88	2073.71
425.07	1944.99
425.26	1912.22
425.45	1994.14
425.64	1961.37
425.83	1966.05
426.01	2136.91
426.20	2101.80
426.39	2101.80
426.58	1984.77
426.77	2005.84
426.96	2246.91
427.15	2108.82
427.33	2141.59
427.52	2050.31
427.71	2139.25
427.90	2237.55
428.09	2120.53
428.28	2169.68
428.46	2183.72
428.65	2090.10
428.84	2148.61
429.03	2382.67
429.22	2202.44
429.40	2235.21
429.59	2260.96
429.78	2188.40
429.97	2209.47
430.16	2265.64
430.34	2298.41
430.53	2361.60
430.72	2324.15
430.91	2284.36
431.10	2340.54
431.28	2310.11
431.47	2335.85
431.66	2450.54
431.85	2382.67
432.03	2335.85
432.22	2462.24
432.41	2289.04
432.60	2438.84
432.79	2349.90
432.97	2544.16
433.16	2469.27
433.35	2462.24
433.54	2473.95
433.72	2502.03
433.91	2427.14
434.10	2520.76
434.28	2490.33
434.47	2511.39
434.66	2497.35
434.85	2614.38
435.03	2551.18
435.22	2504.37
435.41	2679.91
435.59	2607.36
435.78	2576.93
435.97	2698.64
436.16	2583.95
436.34	2628.42
436.53	2719.70
436.72	2719.70
436.90	2590.97
437.09	2621.40
437.28	2686.94
437.46	2647.15
437.65	2619.06
437.84	2789.92
438.02	2712.68
438.21	2801.62
438.40	2738.43
438.58	2881.20
438.77	2946.73
438.96	2829.71
439.14	2846.09
439.33	2904.60
439.52	2932.69
439.70	2965.46
439.89	2953.76
440.08	2949.08
440.26	2979.50
440.45	2923.33
440.63	3089.51
440.82	3129.30
441.01	3061.42
441.19	3002.91
441.38	3152.70
441.57	3220.58
441.75	3180.79
441.94	3293.13
442.12	3253.34
442.31	3192.49
442.50	3335.26
442.68	3225.26
442.87	3346.97
443.05	3379.73
443.24	3337.60
443.43	3318.88
443.61	3375.05
443.80	3588.04
443.98	3258.03
444.17	3115.25
444.35	3346.97
444.54	3400.80
444.73	3344.63
444.91	3339.94
445.10	3447.61
445.28	3438.25
445.47	3372.71
445.65	3365.69
445.84	3461.65
446.02	3431.23
446.21	3297.81
446.39	3410.16
446.58	3646.55
446.77	3515.48
446.95	3435.91
447.14	3447.61
447.32	3592.72
447.51	3515.48
447.69	3513.14
447.88	3435.91
448.06	3421.86
448.25	3653.58
448.43	3574.00
448.62	3531.87
448.80	3508.46
448.99	3609.11
449.17	3454.63
449.36	3590.38
449.54	3662.94
449.73	3684.00
449.91	3747.20
450.10	3693.37
450.28	3712.09
450.46	3597.40
450.65	3665.28
450.83	3868.91
451.02	3735.50
451.20	3744.86
451.39	3763.58
451.57	3721.45
451.76	3674.64
451.94	3737.84
452.13	3976.57
452.31	3908.69
452.49	3709.75
452.68	3857.20
452.86	3817.41
453.05	3997.64
453.23	3922.74
453.42	3915.72
453.60	3833.80
453.78	3782.31
453.97	3803.37
454.15	3939.12
454.34	3946.14
454.52	3838.48
454.70	3864.22
454.89	4056.15
455.07	3946.14
455.26	3988.27
455.44	4276.16
455.62	4023.38
455.81	3943.80
455.99	4133.39
456.17	4109.98
456.36	4084.23
456.54	4184.88
456.73	4252.75
456.91	4353.40
457.09	4231.69
457.28	4322.97
457.46	4102.96
457.64	4388.50
457.83	4201.26
458.01	4402.55
458.19	4304.25
458.38	4351.06
458.56	4493.83
458.74	4250.41
458.93	4428.29
459.11	4327.65
459.29	4395.53
459.48	4379.14
459.66	4458.72
459.84	4491.49
460.03	4493.83
460.21	4519.57
460.39	4498.51
460.57	4535.96
460.76	4517.23
460.94	4615.54
461.12	4533.62
461.31	4533.62
461.49	4463.40
461.67	4615.54
461.85	4716.18
462.04	4753.63
462.22	4774.69
462.40	4788.74
462.59	4716.18
462.77	4809.80
462.95	4753.63
463.13	4732.56
463.32	4755.97
463.50	4957.25
463.68	4770.01
463.86	4851.93
464.05	4706.82
464.23	4781.71
464.41	4870.65
464.59	4652.98
464.78	5018.11
464.96	4894.06
465.14	4828.53
465.32	5018.11
465.50	5008.75
465.69	5053.22
465.87	4833.21
466.05	4954.91
466.23	4929.17
466.41	4933.85
466.60	5224.08
466.78	5013.43
466.96	5153.86
467.14	5174.92
467.32	5165.56
467.51	5046.20
467.69	5025.13
467.87	5207.69
468.05	5226.42
468.23	5130.45
468.41	5034.49
468.60	5298.97
468.78	5275.57
468.96	5291.95
469.14	5317.70
469.32	5233.44
469.50	5111.73
469.69	5458.13
469.87	5268.55
470.05	5474.51
470.23	5518.98
470.41	5355.15
470.59	5427.70
470.77	5401.96
470.95	5416.00
471.14	5547.07
471.32	5476.85
471.50	5614.95
471.68	5490.90
471.86	5551.75
472.04	5626.65
472.22	5680.48
472.40	5504.94
472.58	5902.83
472.77	5680.48
472.95	5914.53
473.13	5790.49
473.31	5668.78
473.49	5699.20
473.67	5898.15
473.85	6033.90
474.03	5893.47
474.21	6012.84
474.39	6057.31
474.57	6064.33
474.75	6132.20
474.93	6139.23
475.12	6179.01
475.30	6174.33
475.48	6162.63
475.66	6279.66
475.84	6258.59
476.02	6242.21
476.20	6296.04
476.38	6279.66
476.56	6719.68
476.74	6551.16
476.92	6541.80
477.10	6476.26
477.28	6581.59
477.46	6455.20
477.64	6846.07
477.82	6782.87
478.00	6794.58
478.18	7047.35
478.36	6902.24
478.54	7096.50
478.72	7101.19
478.90	7145.66
479.08	7164.38
479.26	7176.08
479.44	7204.17
479.62	7246.30
479.80	7396.09
479.98	7522.48
480.16	7623.12
480.34	7461.63
480.52	7590.36
480.70	7583.34
480.88	7564.61
481.06	7478.01
481.24	7826.75
481.41	7878.24
481.59	7925.05
481.77	7981.23
481.95	7901.65
482.13	8042.08
482.31	7978.89
482.49	8128.68
482.67	8042.08
482.85	8348.69
483.03	8287.84
483.21	8540.61
483.39	8446.99
483.57	8676.37
483.74	8468.06
483.92	8678.71
484.10	8648.28
484.28	8828.50
484.46	8908.08
484.64	9174.90
484.82	9076.60
485.00	9048.51
485.18	9493.21
485.35	9533.00
485.53	9242.78
485.71	9205.33
485.89	9820.89
486.07	9614.92
486.25	9605.56
486.43	9727.27
486.61	9614.92
486.78	9975.36
486.96	9963.66
487.14	9898.13
487.32	10017.49
487.50	10155.58
487.68	10363.89
487.85	10338.15
488.03	10354.53
488.21	10637.73
488.39	10696.25
488.57	10478.58
488.75	10710.29
488.92	10668.16
489.10	10895.19
489.28	10881.15
489.46	10937.32
489.64	11028.60
489.81	11166.70
489.99	11000.52
490.17	11201.80
490.35	11611.40
490.53	11508.41
490.70	11492.03
490.88	11520.12
491.06	11543.52
491.24	11836.09
491.41	11613.74
491.59	11932.05
491.77	12093.55
491.95	12264.41
492.13	12056.10
492.30	12276.11
492.48	12175.47
492.66	12416.54
492.84	12081.85
493.01	12428.24
493.19	12540.59
493.37	12807.41
493.54	12496.12
493.72	12734.85
493.90	12758.26
494.08	12905.71
494.25	13163.17
494.43	13224.03
494.61	13224.03
494.79	13172.54
494.96	13427.65
495.14	13341.05
495.32	13294.24
495.49	13378.50
495.67	13432.33
495.85	13881.72
496.02	13788.10
496.20	13872.36
496.38	13783.41
496.55	13907.46
496.73	14022.15
496.91	13947.25
497.09	14267.91
497.26	14569.83
497.44	14265.57
497.62	14286.63
497.79	14609.62
497.97	14438.76
498.14	14560.47
498.32	14679.84
498.50	14773.46
498.67	14927.94
498.85	14820.27
499.03	14684.52
499.20	15028.58
499.38	15023.90
499.56	15250.93
499.73	15288.38
499.91	15190.08
500.08	15351.57
500.26	15386.68
500.44	15255.61
500.61	15538.82
500.79	15424.13
500.97	15440.51
501.14	15658.18
501.32	15758.83
501.49	15786.91
501.67	15552.86
501.84	15728.40
502.02	15768.19
502.20	16173.10
502.37	16194.17
502.55	16105.23
502.72	16226.93
502.90	16058.42
503.07	15946.07
503.25	16116.93
503.43	16107.57
503.60	16081.82
503.78	16163.74
503.95	16308.85
504.13	16446.94
504.30	16608.44
504.48	16552.27
504.65	16657.59
504.83	16812.07
505.01	16840.15
505.18	16622.48
505.36	17055.48
505.53	16774.62
505.71	17039.10
505.88	17156.13
506.06	17022.72
506.23	17048.46
506.41	17083.57
506.58	17092.93
506.76	17336.35
506.93	17530.61
507.11	17198.26
507.28	17708.49
507.46	17380.82
507.63	17797.43
507.81	17694.45
507.98	17586.79
508.16	17575.08
508.33	17635.94
508.50	18029.15
508.68	18071.28
508.85	17881.69
509.03	18157.88
509.20	18244.48
509.38	18118.09
509.55	18356.82
509.73	18562.79
509.90	18043.19
510.08	18064.25
510.25	18398.95
510.42	18452.78
510.60	18363.84
510.77	18525.34
510.95	18618.96
511.12	18785.14
511.30	18630.66
511.47	18562.79
511.64	18635.35
511.82	18895.14
511.99	18904.51
512.17	19000.47
512.34	19061.32
512.51	19410.06
512.69	18923.23
512.86	19154.94
513.04	19351.55
513.21	19297.72
513.38	19417.08
513.56	19573.90
513.73	19431.13
513.90	19400.70
514.08	19494.32
514.25	19461.55
514.43	19726.04
514.60	19491.98
514.77	19812.63
514.95	19548.15
515.12	19702.63
515.29	19716.67
515.47	19955.41
515.64	19892.21
515.81	19843.06
515.99	20072.43
516.16	20100.52
516.33	20093.50
516.51	20187.12
516.68	19850.08
516.85	19901.58
517.03	20187.12
517.20	20343.94
517.37	20779.28
517.54	20559.27
517.72	20489.05
517.89	20603.74
518.06	20514.80
518.24	20615.44
518.41	20582.67
518.58	20877.58
518.75	20458.62
518.93	20664.59
519.10	20592.03
519.27	21025.03
519.45	20854.17
519.62	20702.04
519.79	20919.71
519.96	20868.22
520.14	21298.88
520.31	21015.67
520.48	21341.00
520.65	21013.33
520.83	21338.66
521.00	21207.59
521.17	21268.45
521.34	21366.75
521.52	21303.56
521.69	21521.23
521.86	21256.75
522.03	21556.33
522.20	21809.11
522.38	21696.77
522.55	21549.31
522.72	21827.84
522.89	21589.10
523.07	21986.99
523.24	22092.32
523.41	22403.61
523.58	21666.34
523.75	21825.50
523.92	22127.42
524.10	21944.86
524.27	22085.30
524.44	22246.79
524.61	22333.39
524.78	22307.65
524.96	22441.06
525.13	22328.71
525.30	22398.93
525.47	22436.38
525.64	22508.93
525.81	22679.79
525.98	22340.41
526.16	22656.39
526.33	22377.86
526.50	22803.84
526.67	22466.80
526.84	22302.96
527.01	22757.03
527.18	22970.02
527.36	22794.48
527.53	22993.42
527.70	22958.31
527.87	23365.57
528.04	23087.04
528.21	23068.32
528.38	23285.99
528.55	23241.52
528.72	23295.35
528.89	23211.09
529.07	23285.99
529.24	23426.42
529.41	23232.16
529.58	23068.32
529.75	23307.05
529.92	23576.22
530.09	23623.03
530.26	23747.08
530.43	23623.03
530.60	23440.47
530.77	23424.08
530.94	24020.92
531.11	23648.77
531.28	23541.11
531.46	23716.65
531.63	23866.44
531.80	23917.93
531.97	23864.10
532.14	23974.11
532.31	23796.23
532.48	24102.84
532.65	24100.50
532.82	23810.27
532.99	24147.31
533.16	24236.25
533.33	24409.45
533.50	24077.09
533.67	24049.00
533.84	24325.19
534.01	24425.83
534.18	24114.54
534.35	24547.54
534.52	24243.27
534.69	24318.17
534.86	24650.52
535.03	24535.84
535.20	24364.98
535.37	24929.05
535.54	24491.37
535.71	24580.31
535.88	24467.96
536.05	24746.48
536.22	24861.17
536.38	24936.07
536.55	24837.76
536.72	24961.81
536.89	24879.89
537.06	24886.92
537.23	24964.15
537.40	24594.35
537.57	24847.13
537.74	24713.72
537.91	25415.88
538.08	25102.25
538.25	25125.65
538.42	25378.43
538.59	25200.55
538.75	24905.64
538.92	25465.03
539.09	25165.44
539.26	24952.45
539.43	25434.60
539.60	25390.13
539.77	25043.73
539.94	25401.83
540.11	25305.87
540.28	25380.77
540.44	25195.87
540.61	25214.59
540.78	25256.72
540.95	25472.05
541.12	25703.76
541.29	25785.68
541.46	25844.20
541.62	25731.85
541.79	25771.64
541.96	25296.51
542.13	25577.37
542.30	26073.57
542.47	26061.87
542.63	26246.77
542.80	26178.89
542.97	26242.09
543.14	26623.59
543.31	25975.27
543.48	25811.43
543.64	25963.56
543.81	26506.57
543.98	26066.55
544.15	26391.88
544.32	26244.43
544.48	26373.16
544.65	26263.15
544.82	26415.29
544.99	26202.30
545.16	26359.11
545.32	26686.79
545.49	26464.44
545.66	26438.69
545.83	26597.85
546.00	26733.60
546.16	26609.55
546.33	26597.85
546.50	26384.86
546.67	26560.40
546.83	26279.54
547.00	26892.76
547.17	26768.71
547.34	26441.03
547.50	26834.24
547.67	27054.25
547.84	26815.52
548.00	26506.57
548.17	27103.40
548.34	27051.91
548.51	27264.90
548.67	27302.35
548.84	27260.22
549.01	27248.52
549.18	26951.27
549.34	26941.91
549.51	26888.07
549.68	27028.51
549.84	26785.09
550.01	27096.38
550.18	27096.38
550.34	27344.48
550.51	27349.16
550.68	27414.69
550.84	27105.74
551.01	27307.03
551.18	27094.04
551.34	27330.44
551.51	27248.52
551.68	27363.20
551.84	27522.36
552.01	27424.06
552.18	27370.22
552.34	27246.18
552.51	27679.18
552.68	27400.65
552.84	27447.46
553.01	27665.13
553.18	27346.82
553.34	27868.76
553.51	27709.60
553.67	27920.25
553.84	28084.09
554.01	28158.99
554.17	27615.98
554.34	27992.81
554.51	27683.86
554.67	27957.70
554.84	27754.07
555.00	28247.93
555.17	27964.72
555.33	28018.55
555.50	27733.01
555.67	27824.29
555.83	27889.82
556.00	28222.18
556.16	27864.08
556.33	28371.97
556.50	27714.28
556.66	28318.14
556.83	28044.30
556.99	28400.06
557.16	28371.97
557.32	28077.07
557.49	28493.68
557.65	28016.21
557.82	28301.76
557.98	28180.05
558.15	28397.72
558.32	28266.65
558.48	28458.57
558.65	28432.83
558.81	28669.22
558.98	28379.00
559.14	28676.24
559.31	28154.30
559.47	28463.25
559.64	28388.36
559.80	28566.24
559.97	28341.55
560.13	28465.60
560.30	28400.06
560.46	28814.34
560.63	28664.54
560.79	28779.23
560.96	28547.51
561.12	28566.24
561.29	28641.14
561.45	28582.62
561.61	28907.96
561.78	28472.62
561.94	28687.95
562.11	28800.29
562.27	28685.61
562.44	28594.32
562.60	28552.20
562.77	28549.85
562.93	28631.77
563.10	28704.33
563.26	28556.88
563.42	29048.39
563.59	28709.01
563.75	28968.81
563.92	29071.79
564.08	28711.35
564.24	28652.84
564.41	28933.70
564.57	28886.89
564.74	28996.90
564.90	28606.03
565.07	29193.50
565.23	28980.51
565.39	28800.29
565.56	28973.49
565.72	29120.95
565.88	29273.08
566.05	28463.25
566.21	29050.73
566.38	28823.70
566.54	28863.49
566.70	29347.98
566.87	29282.44
567.03	28741.78
567.19	29486.07
567.36	29092.86
567.52	28952.43
567.68	28746.46
567.85	28989.88
568.01	29457.98
568.17	29310.53
568.34	29177.12
568.50	29448.62
568.66	29439.26
568.83	29237.97
568.99	29170.10
569.15	29209.89
569.32	28994.56
569.48	29083.50
569.64	29343.30
569.81	29027.32
569.97	29469.69
570.13	29193.50
570.30	29064.77
570.46	29352.66
570.62	29383.09
570.78	29060.09
570.95	29254.36
571.11	29596.07
571.27	29043.71
571.43	29174.78
571.60	29408.83
571.76	29207.55
571.92	29488.41
572.09	29399.47
572.25	29188.82
572.41	29336.27
572.57	29275.42
572.74	29198.18
572.90	29284.78
573.06	29336.27
573.22	28889.23
573.38	28980.51
573.55	29006.26
573.71	29610.12
573.87	29530.54
574.03	29352.66
574.20	29336.27
574.36	29074.13
574.52	29706.08
574.68	29345.64
574.84	29352.66
575.01	29450.96
575.17	29305.85
575.33	29256.70
575.49	29497.77
575.65	29935.45
575.82	29776.30
575.98	29465.00
576.14	29511.81
576.30	29170.10
576.46	29635.86
576.62	29560.97
576.79	29387.77
576.95	29507.13
577.11	29586.71
577.27	29242.65
577.43	29837.15
577.59	29638.20
577.75	29511.81
577.92	29488.41
578.08	29336.27
578.24	29436.92
578.40	29345.64
578.56	29305.85
578.72	29549.26
578.88	29867.58
579.04	29965.88
579.21	29703.74
579.37	29572.67
579.53	29689.70
579.69	29788.00
579.85	29738.85
580.01	29544.58
580.17	29441.60
580.33	29457.98
580.49	29596.07
580.65	29720.12
580.82	29607.78
580.98	29748.21
581.14	29502.45
581.30	29661.61
581.46	29422.87
581.62	29172.44
581.78	29598.41
581.94	29413.51
582.10	29376.06
582.26	29584.37
582.42	29656.93
582.58	29565.65
582.74	29715.44
582.90	29647.57
583.06	29677.99
583.22	29675.65
583.38	29336.27
583.54	29844.17
583.70	29605.44
583.86	29771.61
584.02	29692.04
584.18	29963.54
584.34	29968.22
584.50	29553.94
584.66	29752.89
584.82	29359.68
584.98	29731.83
585.14	29670.97
585.30	29319.89
585.46	29411.17
585.62	29589.05
585.78	29823.11
585.94	29558.63
586.10	29741.19
586.26	29820.77
586.42	29991.62
586.58	29881.62
586.74	30036.09
586.90	29406.49
587.06	29654.59
587.22	29312.87
587.38	29879.28
587.54	30120.35
587.70	29921.41
587.86	29804.38
588.02	30094.61
588.18	30218.66
588.34	30078.22
588.49	29612.46
588.65	29457.98
588.81	29577.35
588.97	29600.76
589.13	29797.36
589.29	29663.95
589.45	29928.43
589.61	30008.01
589.77	30438.67
589.93	29682.67
590.08	30256.11
590.24	29993.97
590.40	30263.13
590.56	30197.59
590.72	29937.79
590.88	29961.20
591.04	29741.19
591.20	30281.85
591.35	30223.34
591.51	30424.62
591.67	30345.05
591.83	30567.40
591.99	30059.50
