SpectraSuite Data File
++++++++++++++++++++++++++++++++++++
Date: Fri Oct 18 13:58:16 GMT-05:00 2013
User: bianchi
Dark Spectrum Present: No
Reference Spectrum Present: No
Number of Sampled Component Spectra: 1
Spectrometers: USB2+H05261
Integration Time (usec): 50000 (USB2+H05261)
Spectra Averaged: 1 (USB2+H05261)
Boxcar Smoothing: 0 (USB2+H05261)
Correct for Electrical Dark: No (USB2+H05261)
Strobe/Lamp Enabled: No (USB2+H05261)
Correct for Detector Non-linearity: No (USB2+H05261)
Correct for Stray Light: No (USB2+H05261)
Number of Pixels in Processed Spectrum: 2048
>>>>>Begin Processed Spectral Data<<<<<
365.73	0.00
365.92	0.00
366.12	0.00
366.32	0.00
366.52	0.00
366.72	0.00
366.91	0.00
367.11	0.00
367.31	0.00
367.51	0.00
367.70	0.00
367.90	0.00
368.10	0.00
368.30	0.00
368.49	0.00
368.69	0.00
368.89	0.00
369.09	0.00
369.28	0.00
369.48	0.00
369.68	0.00
369.87	0.00
370.07	0.00
370.27	0.00
370.47	0.00
370.66	4.68
370.86	95.96
371.06	194.26
371.25	95.96
371.45	131.07
371.65	140.43
371.84	208.31
372.04	215.33
372.24	234.05
372.44	156.82
372.63	212.99
372.83	156.82
373.03	159.16
373.22	182.56
373.42	173.20
373.62	236.39
373.81	198.95
374.01	236.39
374.21	245.76
374.40	205.97
374.60	241.08
374.79	264.48
374.99	220.01
375.19	234.05
375.38	337.04
375.58	191.92
375.78	255.12
375.97	236.39
376.17	292.57
376.37	287.89
376.56	273.84
376.76	220.01
376.95	252.78
377.15	182.56
377.35	285.55
377.54	285.55
377.74	306.61
377.93	264.48
378.13	234.05
378.33	283.20
378.52	315.97
378.72	217.67
378.91	280.86
379.11	220.01
379.31	341.72
379.50	231.71
379.70	234.05
379.89	276.18
380.09	264.48
380.28	297.25
380.48	259.80
380.68	280.86
380.87	344.06
381.07	273.84
381.26	313.63
381.46	262.14
381.65	259.80
381.85	301.93
382.04	245.76
382.24	315.97
382.43	369.80
382.63	311.29
382.83	358.10
383.02	397.89
383.22	407.25
383.41	372.15
383.61	369.80
383.80	395.55
384.00	409.59
384.19	360.44
384.39	393.21
384.58	409.59
384.78	369.80
384.97	407.25
385.17	407.25
385.36	425.98
385.56	365.12
385.75	355.76
385.95	435.34
386.14	379.17
386.34	358.10
386.53	444.70
386.72	400.23
386.92	468.11
387.11	365.12
387.31	411.93
387.50	444.70
387.70	503.22
387.89	449.38
388.09	381.51
388.28	428.32
388.48	402.57
388.67	386.19
388.86	416.62
389.06	423.64
389.25	451.72
389.45	407.25
389.64	393.21
389.84	484.49
390.03	477.47
390.22	400.23
390.42	493.85
390.61	458.74
390.81	433.00
391.00	610.88
391.19	463.43
391.39	421.30
391.58	428.32
391.78	458.74
391.97	503.22
392.16	496.19
392.36	437.68
392.55	493.85
392.75	538.32
392.94	447.04
393.13	571.09
393.33	571.09
393.52	540.66
393.71	585.13
393.91	538.32
394.10	580.45
394.29	566.41
394.49	624.92
394.68	624.92
394.88	568.75
395.07	580.45
395.26	559.39
395.46	571.09
395.65	608.54
395.84	592.16
396.04	622.58
396.23	629.60
396.42	643.65
396.62	608.54
396.81	667.05
397.00	622.58
397.19	599.18
397.39	683.44
397.58	671.73
397.77	631.94
397.97	624.92
398.16	620.24
398.35	657.69
398.55	760.67
398.74	730.25
398.93	676.41
399.12	631.94
399.32	685.78
399.51	627.26
399.70	676.41
399.90	772.38
400.09	730.25
400.28	748.97
400.47	748.97
400.67	830.89
400.86	793.44
401.05	751.31
401.24	760.67
401.44	798.12
401.63	866.00
401.82	763.01
402.01	732.59
402.21	784.08
402.40	777.06
402.59	781.74
402.78	884.72
402.97	816.85
403.17	847.27
403.36	758.33
403.55	896.43
403.74	854.30
403.93	933.87
404.13	898.77
404.32	758.33
404.51	950.26
404.70	917.49
404.89	945.58
405.09	940.90
405.28	950.26
405.47	882.38
405.66	992.39
405.85	983.02
406.05	929.19
406.24	936.21
406.43	994.73
406.62	1020.47
406.81	971.32
407.00	997.07
407.20	980.68
407.39	1055.58
407.58	983.02
407.77	994.73
407.96	1011.11
408.15	1069.62
408.34	1055.58
408.54	1109.41
408.73	1071.97
408.92	1018.13
409.11	1090.69
409.30	1088.35
409.49	1104.73
409.68	1111.75
409.87	1137.50
410.07	1170.27
410.26	1128.14
410.45	1146.86
410.64	1163.25
410.83	1088.35
411.02	1263.89
411.21	1242.82
411.40	1249.85
411.59	1242.82
411.78	1219.42
411.98	1252.19
412.17	1261.55
412.36	1266.23
412.55	1317.72
412.74	1357.51
412.93	1350.49
413.12	1324.74
413.31	1399.64
413.50	1369.21
413.69	1458.15
413.88	1409.00
414.07	1348.15
414.26	1371.55
414.45	1500.28
414.64	1493.26
414.83	1441.77
415.02	1481.56
415.22	1462.83
415.41	1533.05
415.60	1528.37
415.79	1610.29
415.98	1544.75
416.17	1621.99
416.36	1551.78
416.55	1577.52
416.74	1582.20
416.93	1612.63
417.12	1614.97
417.31	1575.18
417.50	1570.50
417.69	1675.82
417.88	1652.42
418.07	1675.82
418.26	1685.19
418.45	1668.80
418.64	1802.21
418.83	1769.44
419.02	1678.16
419.21	1823.28
419.39	1949.67
419.58	1696.89
419.77	1792.85
419.96	1888.81
420.15	1781.15
420.34	1809.23
420.53	1834.98
420.72	1930.94
420.91	1886.47
421.10	1970.73
421.29	2012.86
421.48	1832.64
421.67	1853.70
421.86	1891.15
422.05	1898.17
422.24	1975.41
422.43	1926.26
422.61	1944.99
422.80	1956.69
422.99	1961.37
423.18	1963.71
423.37	1994.14
423.56	1966.05
423.75	1954.35
423.94	1898.17
424.13	1898.17
424.32	1926.26
424.50	2127.55
424.69	2033.93
424.88	2017.54
425.07	2033.93
425.26	1975.41
425.45	2017.54
425.64	1881.79
425.83	1996.48
426.01	2059.67
426.20	2050.31
426.39	2008.18
426.58	1923.92
426.77	1968.39
426.96	2153.29
427.15	2183.72
427.33	2193.08
427.52	2059.67
427.71	2085.42
427.90	2190.74
428.09	2139.25
428.28	2186.06
428.46	2176.70
428.65	2125.21
428.84	2211.81
429.03	2190.74
429.22	2214.15
429.40	2319.47
429.59	2272.66
429.78	2120.53
429.97	2188.40
430.16	2153.29
430.34	2216.49
430.53	2267.98
430.72	2263.30
430.91	2251.60
431.10	2366.28
431.28	2305.43
431.47	2186.06
431.66	2399.05
431.85	2345.22
432.03	2443.52
432.22	2502.03
432.41	2417.77
432.60	2466.92
432.79	2476.29
432.97	2532.46
433.16	2567.57
433.35	2495.01
433.54	2527.78
433.72	2380.32
433.91	2478.63
434.10	2443.52
434.28	2452.88
434.47	2495.01
434.66	2532.46
434.85	2555.86
435.03	2663.53
435.22	2647.15
435.41	2593.31
435.59	2663.53
435.78	2532.46
435.97	2663.53
436.16	2633.10
436.34	2628.42
436.53	2717.36
436.72	2675.23
436.90	2705.66
437.09	2712.68
437.28	2619.06
437.46	2766.51
437.65	2789.92
437.84	2878.86
438.02	2731.41
438.21	2752.47
438.40	2846.09
438.58	2691.62
438.77	2902.26
438.96	2796.94
439.14	2864.82
439.33	2960.78
439.52	2818.00
439.70	3007.59
439.89	3026.31
440.08	3094.19
440.26	2981.84
440.45	3033.33
440.63	3117.59
440.82	3136.32
441.01	3063.76
441.19	3089.51
441.38	3105.89
441.57	3108.23
441.75	3236.96
441.94	3290.79
442.12	3194.83
442.31	3265.05
442.50	3363.35
442.68	3302.50
442.87	3363.35
443.05	3290.79
443.24	3400.80
443.43	3389.10
443.61	3393.78
443.80	3534.21
443.98	3358.67
444.17	3229.94
444.35	3300.16
444.54	3412.50
444.73	3330.58
444.91	3503.78
445.10	3531.87
445.28	3466.33
445.47	3309.52
445.65	3412.50
445.84	3428.88
446.02	3506.12
446.21	3449.95
446.39	3276.75
446.58	3419.52
446.77	3583.36
446.95	3508.46
447.14	3468.67
447.32	3428.88
447.51	3517.83
447.69	3569.32
447.88	3442.93
448.06	3698.05
448.25	3365.69
448.43	3513.14
448.62	3499.10
448.80	3585.70
448.99	3489.74
449.17	3508.46
449.36	3620.81
449.54	3585.70
449.73	3623.15
449.91	3639.53
450.10	3674.64
450.28	3620.81
450.46	3723.79
450.65	3709.75
450.83	3693.37
451.02	3684.00
451.20	3695.71
451.39	3599.74
451.57	3815.07
451.76	3712.09
451.94	3768.26
452.13	3798.69
452.31	3906.35
452.49	3721.45
452.68	3873.59
452.86	3850.18
453.05	3946.14
453.23	3838.48
453.42	3934.44
453.60	3747.20
453.78	3922.74
453.97	3894.65
454.15	3889.97
454.34	3859.54
454.52	3955.51
454.70	3943.80
454.89	4053.81
455.07	3971.89
455.26	4028.06
455.44	4105.30
455.62	4131.05
455.81	4049.13
455.99	4009.34
456.17	4159.13
456.36	4021.04
456.54	4191.90
456.73	4149.77
456.91	4252.75
457.09	4166.15
457.28	4337.01
457.46	4035.08
457.64	4311.27
457.83	4390.84
458.01	4292.54
458.19	4353.40
458.38	4299.56
458.56	4432.97
458.74	4243.39
458.93	4437.66
459.11	4475.10
459.29	4622.56
459.48	4386.16
459.66	4369.78
459.84	4500.85
460.03	4510.21
460.21	4456.38
460.39	4629.58
460.57	4489.15
460.76	4500.85
460.94	4786.40
461.12	4449.36
461.31	4500.85
461.49	4812.14
461.67	4561.70
461.85	4734.90
462.04	4629.58
462.22	4858.95
462.40	4779.37
462.59	4667.03
462.77	4578.09
462.95	4835.55
463.13	4737.24
463.32	4802.78
463.50	4652.98
463.68	4809.80
463.86	4889.38
464.05	4657.67
464.23	4767.67
464.41	5055.56
464.59	4730.22
464.78	4999.38
464.96	4943.21
465.14	4865.97
465.32	4835.55
465.50	4938.53
465.69	4961.94
465.87	4959.60
466.05	5041.51
466.23	5043.85
466.41	5069.60
466.60	5146.84
466.78	4992.36
466.96	5114.07
467.14	5130.45
467.32	5188.97
467.51	5273.23
467.69	5001.72
467.87	5062.58
468.05	5210.03
468.23	5062.58
468.41	5062.58
468.60	5233.44
468.78	5093.01
468.96	5100.03
469.14	5174.92
469.32	5378.55
469.50	5043.85
469.69	5467.49
469.87	5425.36
470.05	5448.77
470.23	5406.64
470.41	5404.30
470.59	5423.02
470.77	5355.15
470.95	5628.99
471.14	5416.00
471.32	5446.43
471.50	5497.92
471.68	5523.66
471.86	5563.45
472.04	5430.04
472.22	5762.40
472.40	5434.72
472.58	5577.50
472.77	5743.67
472.95	5699.20
473.13	5926.24
473.31	5699.20
473.49	5806.87
473.67	5893.47
473.85	5746.02
474.03	5949.64
474.21	5947.30
474.39	5830.27
474.57	6141.57
474.75	6143.91
474.93	6087.73
475.12	6003.47
475.30	6080.71
475.48	6207.10
475.66	6218.80
475.84	6307.74
476.02	6190.72
476.20	6155.61
476.38	6595.63
476.56	6480.94
476.74	6527.75
476.92	6480.94
477.10	6368.60
477.28	6649.46
477.46	6539.46
477.64	6670.53
477.82	6707.98
478.00	6892.88
478.18	6878.83
478.36	7077.78
478.54	6942.03
478.72	7040.33
478.90	7183.10
479.08	7091.82
479.26	7213.53
479.44	7222.89
479.62	7215.87
479.80	7262.68
479.98	7222.89
480.16	7566.95
480.34	7393.75
480.52	7578.65
480.70	7606.74
480.88	7585.68
481.06	7641.85
481.24	7705.04
481.41	7775.26
481.59	7817.39
481.77	8044.42
481.95	7875.90
482.13	8184.85
482.31	8131.02
482.49	8292.52
482.67	8194.22
482.85	8262.09
483.03	8484.44
483.21	8454.02
483.39	8397.84
483.57	8634.24
483.74	8629.56
483.92	8713.81
484.10	8456.36
484.28	8833.18
484.46	8943.19
484.64	9146.81
484.82	9165.54
485.00	8978.30
485.18	9032.13
485.35	9343.42
485.53	9458.10
485.71	9336.40
485.89	9666.41
486.07	9322.35
486.25	9430.02
486.43	9650.03
486.61	9708.54
486.78	9813.87
486.96	9858.34
487.14	10054.94
487.32	10076.01
487.50	10064.30
487.68	10097.07
487.85	10122.82
488.03	10335.81
488.21	10628.37
488.39	10448.15
488.57	10459.85
488.75	10689.23
488.92	10836.68
489.10	10682.20
489.28	10642.42
489.46	10951.37
489.64	11143.29
489.81	11169.04
489.99	11171.38
490.17	11234.57
490.35	11440.54
490.53	11396.07
490.70	11480.33
490.88	11396.07
491.06	11714.38
491.24	11557.57
491.41	11456.92
491.59	11857.15
491.77	11672.25
491.95	12222.28
492.13	12037.38
492.30	12133.34
492.48	12334.62
492.66	12308.88
492.84	12358.03
493.01	12425.90
493.19	12226.96
493.37	12620.17
493.54	12610.81
493.72	12718.47
493.90	12704.43
494.08	12849.54
494.25	13121.04
494.43	13050.83
494.61	13277.86
494.79	12999.34
494.96	12999.34
495.14	13209.98
495.32	13392.55
495.49	13514.25
495.67	13359.78
495.85	13832.57
496.02	13537.66
496.20	13837.25
496.38	13928.53
496.55	13797.46
496.73	14157.90
496.91	13930.87
497.09	14258.54
497.26	14312.38
497.44	14141.52
497.62	14265.57
497.79	14473.87
497.97	14345.14
498.14	14511.32
498.32	14831.97
498.50	14764.10
498.67	14967.73
498.85	15040.28
499.03	14916.23
499.20	14785.16
499.38	15222.84
499.56	14998.15
499.73	15190.08
499.91	15201.78
500.08	15311.78
500.26	15143.27
500.44	15433.49
500.61	15246.25
500.79	15293.06
500.97	15707.34
501.14	15630.10
501.32	15573.92
501.49	15728.40
501.67	15541.16
501.84	15861.81
502.02	15742.44
502.20	15838.41
502.37	16194.17
502.55	16145.02
502.72	16002.24
502.90	16137.99
503.07	16107.57
503.25	16084.16
503.43	16311.19
503.60	16341.62
503.78	16465.67
503.95	16400.13
504.13	16510.14
504.30	16475.03
504.48	16437.58
504.65	16671.64
504.83	16599.08
505.01	16676.32
505.18	17160.81
505.36	16966.54
505.53	16940.80
505.71	17214.64
505.88	16943.14
506.06	17011.01
506.23	17280.18
506.41	17121.02
506.58	17200.60
506.76	17261.45
506.93	17172.51
507.11	17399.54
507.28	17483.80
507.46	17317.62
507.63	17355.07
507.81	17797.43
507.98	17429.97
508.16	17614.87
508.33	17195.92
508.50	17893.40
508.68	17956.59
508.85	17998.72
509.03	17921.48
509.20	18066.60
509.38	18092.34
509.55	18450.44
509.73	18333.42
509.90	18293.63
510.08	18249.16
510.25	18127.45
510.42	18773.44
510.60	18586.19
510.77	18572.15
510.95	18593.22
511.12	18651.73
511.30	18485.55
511.47	18504.28
511.64	18794.50
511.82	19164.31
511.99	18843.65
512.17	18853.02
512.34	18953.66
512.51	19033.24
512.69	19133.88
512.86	19087.07
513.04	19068.34
513.21	19482.62
513.38	19358.57
513.56	19456.87
513.73	18911.53
513.90	19489.64
514.08	19129.20
514.25	19337.51
514.43	19618.37
514.60	19604.33
514.77	19768.16
514.95	19625.39
515.12	19651.14
515.29	19571.56
515.47	19920.30
515.64	19819.66
515.81	19974.13
515.99	19992.86
516.16	20088.82
516.33	20093.50
516.51	20453.94
516.68	19995.20
516.85	19990.52
517.03	20475.01
517.20	20360.32
517.37	20446.92
517.54	20180.10
517.72	20383.73
517.89	20322.87
518.06	20439.90
518.24	20432.88
518.41	20575.65
518.58	20589.69
518.75	20585.01
518.93	20910.35
519.10	20755.87
519.27	21041.42
519.45	20760.55
519.62	20802.68
519.79	20624.80
519.96	21062.48
520.14	20954.82
520.31	20968.86
520.48	20945.45
520.65	21174.83
520.83	21181.85
521.00	21010.99
521.17	20966.52
521.34	21207.59
521.52	21352.71
521.69	21259.09
521.86	21542.29
522.03	21886.35
522.20	21404.20
522.38	21610.17
522.55	21879.33
522.72	21776.34
522.89	21832.52
523.07	22111.04
523.24	21799.75
523.41	21998.70
523.58	21827.84
523.75	22122.74
523.92	21928.48
524.10	22111.04
524.27	21958.91
524.44	22274.88
524.61	22595.53
524.78	22242.11
524.96	22242.11
525.13	22721.92
525.30	22534.68
525.47	22373.18
525.64	22541.70
525.81	22576.81
525.98	22583.83
526.16	22459.78
526.33	22602.55
526.50	22724.26
526.67	22551.06
526.84	22885.76
527.01	22820.22
527.18	23047.26
527.36	22948.95
527.53	22838.95
527.70	23295.35
527.87	23021.51
528.04	22855.33
528.21	23000.44
528.38	23119.81
528.55	23311.74
528.72	23065.98
528.89	23412.38
529.07	23566.85
529.24	23190.03
529.41	23426.42
529.58	23030.87
529.75	23278.97
529.92	23239.18
530.09	23555.15
530.26	23545.79
530.43	23742.39
530.60	23386.63
530.77	23733.03
530.94	23697.92
531.11	23791.55
531.28	23735.37
531.46	23786.86
531.63	24030.28
531.80	24060.71
531.97	24112.20
532.14	24058.37
532.31	23948.36
532.48	23765.80
532.65	23770.48
532.82	23871.12
532.99	24196.46
533.16	24051.34
533.33	24243.27
533.50	24601.37
533.67	24336.89
533.84	23997.51
534.01	24203.48
534.18	24161.35
534.35	24388.38
534.52	24236.25
534.69	24575.62
534.86	24617.75
535.03	24353.27
535.20	24629.46
535.37	24388.38
535.54	24662.22
535.71	24388.38
535.88	24720.74
536.05	24156.67
536.22	24641.16
536.38	25039.05
536.55	24725.42
536.72	24975.86
536.89	24807.34
537.06	24364.98
537.23	24669.25
537.40	24482.00
537.57	24994.58
537.74	25015.65
537.91	25392.47
538.08	24989.90
538.25	25226.29
538.42	24943.09
538.59	24936.07
538.75	24861.17
538.92	25064.80
539.09	25305.87
539.26	25469.71
539.43	25230.98
539.60	25378.43
539.77	25205.23
539.94	25612.48
540.11	25245.02
540.28	25507.16
540.44	25289.49
540.61	25837.17
540.78	25326.94
540.95	25565.67
541.12	25380.77
541.29	25642.91
541.46	25703.76
541.62	25432.26
541.79	25607.80
541.96	25575.03
542.13	25591.42
542.30	25771.64
542.47	25820.79
542.63	26059.52
542.80	25921.43
542.97	26274.85
543.14	26401.24
543.31	25795.04
543.48	25970.58
543.64	26501.89
543.81	26459.76
543.98	26506.57
544.15	26485.50
544.32	26305.28
544.48	26689.13
544.65	26663.38
544.82	26389.54
544.99	26429.33
545.16	26457.42
545.32	26604.87
545.49	26787.43
545.66	27014.46
545.83	26382.52
546.00	26597.85
546.16	26401.24
546.33	26462.10
546.50	26354.43
546.67	26775.73
546.83	26221.02
547.00	26405.92
547.17	26932.54
547.34	26859.99
547.50	26817.86
547.67	27281.28
547.84	26937.23
548.00	26888.07
548.17	26981.70
548.34	27276.60
548.51	26986.38
548.67	26689.13
548.84	27126.81
549.01	26911.48
549.18	27213.41
549.34	27019.14
549.51	26637.64
549.68	27007.44
549.84	26934.88
550.01	27037.87
550.18	27192.34
550.34	27491.93
550.51	27321.07
550.68	27101.06
550.84	27129.15
551.01	27342.14
551.18	27138.51
551.34	27061.27
551.51	27325.75
551.68	27201.71
551.84	27419.38
552.01	27513.00
552.18	27742.37
552.34	27789.18
552.51	27821.95
552.68	27344.48
552.84	27716.62
553.01	27709.60
553.18	27625.34
553.34	27623.00
553.51	27505.98
553.67	27917.91
553.84	27875.78
554.01	28004.51
554.17	27784.50
554.34	27761.09
554.51	27669.81
554.67	28166.01
554.84	27887.48
555.00	28098.13
555.17	28102.81
555.33	28006.85
555.50	27988.13
555.67	27845.35
555.83	28074.73
556.00	28236.22
556.16	28224.52
556.33	28086.43
556.50	27852.38
556.66	28201.11
556.83	28070.04
556.99	28573.26
557.16	28467.94
557.32	28322.82
557.49	28584.96
557.65	27908.55
557.82	28238.56
557.98	28395.38
558.15	27974.08
558.32	28271.33
558.48	28332.18
558.65	28720.71
558.81	28056.00
558.98	28313.46
559.14	28643.48
559.31	28107.49
559.47	28374.31
559.64	28610.71
559.80	28634.11
559.97	28697.31
560.13	27990.47
560.30	28826.04
560.46	28528.79
560.63	28608.37
560.79	28402.40
560.96	28751.14
561.12	28292.40
561.29	28348.57
561.45	28507.72
561.61	29078.82
561.78	28659.86
561.94	29191.16
562.11	29055.41
562.27	28973.49
562.44	28404.74
562.60	28779.23
562.77	28746.46
562.93	28711.35
563.10	28809.65
563.26	28435.17
563.42	29078.82
563.59	28746.46
563.75	29057.75
563.92	29043.71
564.08	28491.34
564.24	28926.68
564.41	28774.55
564.57	28931.36
564.74	28907.96
564.90	29008.60
565.07	28912.64
565.23	28950.09
565.39	28931.36
565.56	28989.88
565.72	29310.53
565.88	28814.34
566.05	28910.30
566.21	28723.05
566.38	29024.98
566.54	29076.48
566.70	29212.23
566.87	29153.71
567.03	28875.19
567.19	29312.87
567.36	29729.48
567.52	29198.18
567.68	29116.26
567.85	28917.32
568.01	29359.68
568.17	28982.85
568.34	29184.14
568.50	29078.82
568.66	29495.43
568.83	29174.78
568.99	29055.41
569.15	29179.46
569.32	29331.59
569.48	29008.60
569.64	29371.38
569.81	29659.27
569.97	29259.04
570.13	29109.24
570.30	28940.72
570.46	29120.95
570.62	29116.26
570.78	29621.82
570.95	29172.44
571.11	29338.62
571.27	29226.27
571.43	28987.53
571.60	29237.97
571.76	29502.45
571.92	29200.52
572.09	29160.73
572.25	29212.23
572.41	29408.83
572.57	29668.63
572.74	29900.34
572.90	29474.37
573.06	29205.20
573.22	29165.42
573.38	29062.43
573.55	29364.36
573.71	29727.14
573.87	29448.62
574.03	29443.94
574.20	29453.30
574.36	29488.41
574.52	29383.09
574.68	29406.49
574.84	29397.13
575.01	29362.02
575.17	29535.22
575.33	29186.48
575.49	29497.77
575.65	29443.94
575.82	29406.49
575.98	29820.77
576.14	29565.65
576.30	29394.79
576.46	29418.19
576.62	29476.71
576.79	29319.89
576.95	29387.77
577.11	29752.89
577.27	29504.79
577.43	29809.06
577.59	29436.92
577.75	29532.88
577.92	29104.56
578.08	29207.55
578.24	29134.99
578.40	29680.33
578.56	29315.21
578.72	29638.20
578.88	29586.71
579.04	29977.58
579.21	29628.84
579.37	29724.80
579.53	29816.08
579.69	29593.73
579.85	29441.60
580.01	29469.69
580.17	29146.69
580.33	29387.77
580.49	29738.85
580.65	29535.22
580.82	29872.26
580.98	29860.55
581.14	29589.05
581.30	29972.90
581.46	29563.31
581.62	29642.88
581.78	29530.54
581.94	29429.90
582.10	29638.20
582.26	29626.50
582.42	29383.09
582.58	30139.08
582.74	29656.93
582.90	29713.10
583.06	29713.10
583.22	29837.15
583.38	29827.79
583.54	29855.87
583.70	29649.91
583.86	29640.54
584.02	29596.07
584.18	30015.03
584.34	29839.49
584.50	29804.38
584.66	29731.83
584.82	29785.66
584.98	29343.30
585.14	29694.38
585.30	29504.79
585.46	29986.94
585.62	29607.78
585.78	29837.15
585.94	29720.12
586.10	29785.66
586.26	29989.28
586.42	29855.87
586.58	30080.56
586.74	29701.40
586.90	29816.08
587.06	29724.80
587.22	29713.10
587.38	29799.70
587.54	29795.02
587.70	29984.60
587.86	29701.40
588.02	30075.88
588.18	30015.03
588.34	30022.05
588.49	29558.63
588.65	29982.26
588.81	29797.36
588.97	30015.03
589.13	30155.46
589.29	29710.76
589.45	29610.12
589.61	30026.73
589.77	30150.78
589.93	30010.35
590.08	29991.62
590.24	30284.19
590.40	30277.17
590.56	29984.60
590.72	29795.02
590.88	29942.47
591.04	30089.93
591.20	29935.45
591.35	30766.34
591.51	30574.42
591.67	30178.87
591.83	30820.17
591.99	30225.68
