SpectraSuite Data File
++++++++++++++++++++++++++++++++++++
Date: Fri Oct 18 13:58:05 GMT-05:00 2013
User: bianchi
Dark Spectrum Present: No
Reference Spectrum Present: No
Number of Sampled Component Spectra: 1
Spectrometers: USB2+H05261
Integration Time (usec): 50000 (USB2+H05261)
Spectra Averaged: 1 (USB2+H05261)
Boxcar Smoothing: 0 (USB2+H05261)
Correct for Electrical Dark: No (USB2+H05261)
Strobe/Lamp Enabled: No (USB2+H05261)
Correct for Detector Non-linearity: No (USB2+H05261)
Correct for Stray Light: No (USB2+H05261)
Number of Pixels in Processed Spectrum: 2048
>>>>>Begin Processed Spectral Data<<<<<
365.73	0.00
365.92	0.00
366.12	0.00
366.32	0.00
366.52	0.00
366.72	0.00
366.91	0.00
367.11	0.00
367.31	0.00
367.51	0.00
367.70	0.00
367.90	0.00
368.10	0.00
368.30	0.00
368.49	0.00
368.69	0.00
368.89	0.00
369.09	0.00
369.28	0.00
369.48	0.00
369.68	0.00
369.87	0.00
370.07	0.00
370.27	0.00
370.47	0.00
370.66	56.17
370.86	102.98
371.06	142.77
371.25	79.58
371.45	74.90
371.65	147.45
371.84	91.28
372.04	217.67
372.24	215.33
372.44	159.16
372.63	215.33
372.83	220.01
373.03	220.01
373.22	229.37
373.42	234.05
373.62	297.25
373.81	234.05
374.01	252.78
374.21	201.29
374.40	236.39
374.60	250.44
374.79	287.89
374.99	299.59
375.19	203.63
375.38	203.63
375.58	187.24
375.78	220.01
375.97	248.10
376.17	273.84
376.37	191.92
376.56	177.88
376.76	285.55
376.95	238.73
377.15	278.52
377.35	266.82
377.54	315.97
377.74	152.13
377.93	283.20
378.13	220.01
378.33	259.80
378.52	280.86
378.72	304.27
378.91	353.42
379.11	266.82
379.31	285.55
379.50	287.89
379.70	341.72
379.89	346.40
380.09	266.82
380.28	187.24
380.48	351.08
380.68	315.97
380.87	327.68
381.07	351.08
381.26	322.99
381.46	330.02
381.65	299.59
381.85	341.72
382.04	318.31
382.24	315.97
382.43	285.55
382.63	362.78
382.83	334.70
383.02	278.52
383.22	397.89
383.41	273.84
383.61	266.82
383.80	418.96
384.00	397.89
384.19	428.32
384.39	322.99
384.58	360.44
384.78	297.25
384.97	337.04
385.17	376.83
385.36	425.98
385.56	341.72
385.75	400.23
385.95	330.02
386.14	397.89
386.34	416.62
386.53	367.46
386.72	339.38
386.92	489.17
387.11	421.30
387.31	421.30
387.50	433.00
387.70	414.27
387.89	479.81
388.09	468.11
388.28	451.72
388.48	423.64
388.67	507.90
388.86	447.04
389.06	360.44
389.25	489.17
389.45	491.51
389.64	507.90
389.84	514.92
390.03	397.89
390.22	463.43
390.42	472.79
390.61	507.90
390.81	468.11
391.00	465.77
391.19	519.60
391.39	531.30
391.58	491.51
391.78	425.98
391.97	498.53
392.16	482.15
392.36	596.84
392.55	608.54
392.75	594.50
392.94	500.87
393.13	568.75
393.33	524.28
393.52	594.50
393.71	571.09
393.91	557.05
394.10	411.93
394.29	620.24
394.49	580.45
394.68	631.94
394.88	603.86
395.07	587.47
395.26	587.47
395.46	622.58
395.65	777.06
395.84	636.63
396.04	674.07
396.23	650.67
396.42	697.48
396.62	552.37
396.81	645.99
397.00	596.84
397.19	615.56
397.39	727.91
397.58	641.31
397.77	744.29
397.97	676.41
398.16	730.25
398.35	744.29
398.55	716.20
398.74	617.90
398.93	730.25
399.12	725.57
399.32	725.57
399.51	734.93
399.70	732.59
399.90	720.88
400.09	692.80
400.28	788.76
400.47	720.88
400.67	854.30
400.86	798.12
401.05	880.04
401.24	763.01
401.44	912.81
401.63	816.85
401.82	802.80
402.01	814.51
402.21	765.36
402.40	849.61
402.59	830.89
402.78	779.40
402.97	786.42
403.17	858.98
403.36	947.92
403.55	933.87
403.74	924.51
403.93	880.04
404.13	922.17
404.32	894.08
404.51	917.49
404.70	952.60
404.89	915.15
405.09	844.93
405.28	950.26
405.47	1006.43
405.66	983.02
405.85	987.71
406.05	1006.43
406.24	968.98
406.43	980.68
406.62	1015.79
406.81	1064.94
407.00	1025.15
407.20	1006.43
407.39	1020.47
407.58	1071.97
407.77	1006.43
407.96	1083.67
408.15	1139.84
408.34	1118.78
408.54	1139.84
408.73	1123.46
408.92	1151.54
409.11	1144.52
409.30	1137.50
409.49	1111.75
409.68	1083.67
409.87	1188.99
410.07	1071.97
410.26	1177.29
410.45	1226.44
410.64	1205.38
410.83	1228.78
411.02	1289.64
411.21	1280.27
411.40	1270.91
411.59	1320.06
411.78	1287.29
411.98	1284.95
412.17	1256.87
412.36	1310.70
412.55	1327.08
412.74	1341.13
412.93	1371.55
413.12	1334.11
413.31	1502.62
413.50	1320.06
413.69	1369.21
413.88	1528.37
414.07	1500.28
414.26	1413.68
414.45	1540.07
414.64	1504.96
414.83	1439.43
415.02	1617.31
415.22	1617.31
415.41	1591.56
415.60	1621.99
415.79	1600.93
415.98	1607.95
416.17	1575.18
416.36	1769.44
416.55	1636.03
416.74	1692.21
416.93	1736.68
417.12	1692.21
417.31	1694.55
417.50	1788.17
417.69	1739.02
417.88	1696.89
418.07	1739.02
418.26	1699.23
418.45	1746.04
418.64	1942.64
418.83	1795.19
419.02	1933.28
419.21	1806.89
419.39	1954.35
419.58	1710.93
419.77	1809.23
419.96	1849.02
420.15	1856.04
420.34	1813.92
420.53	1879.45
420.72	1942.64
420.91	1933.28
421.10	1949.67
421.29	2019.88
421.48	1949.67
421.67	1947.33
421.86	1933.28
422.05	2057.33
422.24	2040.95
422.43	2064.35
422.61	2052.65
422.80	2069.03
422.99	1956.69
423.18	2047.97
423.37	2174.36
423.56	2010.52
423.75	2071.37
423.94	2031.58
424.13	1975.41
424.32	1930.94
424.50	2101.80
424.69	2029.24
424.88	2045.63
425.07	1977.75
425.26	1998.82
425.45	2054.99
425.64	2076.06
425.83	2031.58
426.01	2113.50
426.20	2076.06
426.39	2101.80
426.58	2073.71
426.77	2146.27
426.96	2188.40
427.15	2223.51
427.33	2195.42
427.52	2134.57
427.71	2108.82
427.90	2148.61
428.09	2054.99
428.28	2202.44
428.46	2279.68
428.65	2408.41
428.84	2249.25
429.03	2228.19
429.22	2237.55
429.40	2324.15
429.59	2235.21
429.78	2267.98
429.97	2188.40
430.16	2319.47
430.34	2363.94
430.53	2392.03
430.72	2417.77
430.91	2275.00
431.10	2296.07
431.28	2363.94
431.47	2401.39
431.66	2509.05
431.85	2471.61
432.03	2516.08
432.22	2457.56
432.41	2415.43
432.60	2621.40
432.79	2413.09
432.97	2518.42
433.16	2499.69
433.35	2455.22
433.54	2534.80
433.72	2616.72
433.91	2487.99
434.10	2462.24
434.28	2567.57
434.47	2581.61
434.66	2546.50
434.85	2642.46
435.03	2616.72
435.22	2583.95
435.41	2663.53
435.59	2647.15
435.78	2818.00
435.97	2785.24
436.16	2719.70
436.34	2665.87
436.53	2822.69
436.72	2832.05
436.90	2621.40
437.09	2855.45
437.28	2649.49
437.46	2834.39
437.65	2759.49
437.84	2841.41
438.02	2841.41
438.21	2794.60
438.40	2850.77
438.58	2958.44
438.77	2904.60
438.96	2939.71
439.14	3005.25
439.33	3033.33
439.52	2979.50
439.70	2998.23
439.89	3068.44
440.08	3103.55
440.26	3063.76
440.45	3077.80
440.63	3110.57
440.82	3176.11
441.01	3112.91
441.19	3246.32
441.38	3178.45
441.57	3185.47
441.75	3236.96
441.94	3403.14
442.12	3382.07
442.31	3335.26
442.50	3342.28
442.68	3272.07
442.87	3243.98
443.05	3325.90
443.24	3506.12
443.43	3543.57
443.61	3361.01
443.80	3550.59
443.98	3393.78
444.17	3206.53
444.35	3545.91
444.54	3576.34
444.73	3564.64
444.91	3604.42
445.10	3569.32
445.28	3499.10
445.47	3456.97
445.65	3365.69
445.84	3517.83
446.02	3536.55
446.21	3384.41
446.39	3552.93
446.58	3541.23
446.77	3506.12
446.95	3480.38
447.14	3557.61
447.32	3599.74
447.51	3503.78
447.69	3545.91
447.88	3606.77
448.06	3698.05
448.25	3595.06
448.43	3716.77
448.62	3515.48
448.80	3597.40
448.99	3543.57
449.17	3712.09
449.36	3576.34
449.54	3838.48
449.73	3779.97
449.91	3681.66
450.10	3817.41
450.28	3740.18
450.46	3801.03
450.65	3852.52
450.83	3768.26
451.02	3674.64
451.20	3808.05
451.39	3810.39
451.57	3822.09
451.76	3798.69
451.94	3829.12
452.13	3922.74
452.31	3913.38
452.49	3882.95
452.68	3922.74
452.86	3915.72
453.05	3880.61
453.23	4016.36
453.42	4002.32
453.60	4035.08
453.78	4004.66
453.97	4025.72
454.15	3988.27
454.34	3953.16
454.52	4140.41
454.70	4093.60
454.89	4159.13
455.07	4074.87
455.26	4196.58
455.44	4208.28
455.62	4002.32
455.81	4257.43
455.99	4142.75
456.17	4294.88
456.36	4142.75
456.54	4311.27
456.73	4262.12
456.91	4468.08
457.09	4367.44
457.28	4566.39
457.46	4231.69
457.64	4344.03
457.83	4465.74
458.01	4411.91
458.19	4456.38
458.38	4402.55
458.56	4475.10
458.74	4432.97
458.93	4550.00
459.11	4493.83
459.29	4554.68
459.48	4528.94
459.66	4561.70
459.84	4578.09
460.03	4557.02
460.21	4636.60
460.39	4657.67
460.57	4517.23
460.76	4660.01
460.94	4660.01
461.12	4599.15
461.31	4624.90
461.49	4704.48
461.67	4580.43
461.85	4755.97
462.04	4627.24
462.22	5069.60
462.40	4905.76
462.59	4887.04
462.77	4681.07
462.95	4772.35
463.13	4835.55
463.32	4870.65
463.50	4898.74
463.68	4844.91
463.86	4861.29
464.05	4980.66
464.23	5032.15
464.41	5081.30
464.59	4947.89
464.78	4997.04
464.96	4802.78
465.14	4940.87
465.32	4952.57
465.50	4990.02
465.69	5123.43
465.87	4975.98
466.05	4884.70
466.23	5219.39
466.41	5135.14
466.60	5348.12
466.78	5046.20
466.96	5128.11
467.14	5050.88
467.32	5116.41
467.51	5280.25
467.69	5125.77
467.87	5097.69
468.05	5247.48
468.23	5132.79
468.41	5144.50
468.60	5282.59
468.78	5334.08
468.96	5188.97
469.14	5437.06
469.32	5296.63
469.50	5310.68
469.69	5476.85
469.87	5589.20
470.05	5537.71
470.23	5600.90
470.41	5453.45
470.59	5544.73
470.77	5535.37
470.95	5598.56
471.14	5563.45
471.32	5664.10
471.50	5668.78
471.68	5685.16
471.86	5598.56
472.04	5570.48
472.22	5820.91
472.40	5689.84
472.58	5715.59
472.77	5839.64
472.95	5841.98
473.13	6143.91
473.31	5987.09
473.49	5884.11
473.67	5909.85
473.85	6129.86
474.03	6209.44
474.21	6073.69
474.39	6310.08
474.57	6216.46
474.75	6265.61
474.93	6162.63
475.12	6183.70
475.30	6452.86
475.48	6174.33
475.66	6249.23
475.84	6396.68
476.02	6443.49
476.20	6471.58
476.38	6612.01
476.56	6633.08
476.74	6679.89
476.92	6696.27
477.10	6759.47
477.28	6717.34
477.46	6731.38
477.64	6925.65
477.82	6871.81
478.00	7014.59
478.18	6977.14
478.36	7014.59
478.54	7145.66
478.72	7166.72
478.90	7379.71
479.08	7138.63
479.26	7269.70
479.44	7583.34
479.62	7407.80
479.80	7613.76
479.98	7506.10
480.16	7730.79
480.34	7613.76
480.52	7702.70
480.70	7936.76
480.88	7548.23
481.06	7793.98
481.24	7871.22
481.41	8084.21
481.59	7962.50
481.77	8147.40
481.95	8124.00
482.13	8236.35
482.31	8081.87
482.49	8196.56
482.67	8353.37
482.85	8674.03
483.03	8648.28
483.21	8624.87
483.39	8645.94
483.57	8746.58
483.74	8863.61
483.92	8915.10
484.10	8891.70
484.28	8929.14
484.46	9046.17
484.64	9132.77
484.82	9128.09
485.00	9146.81
485.18	9439.38
485.35	9495.55
485.53	9533.00
485.71	9640.67
485.89	9710.88
486.07	9628.96
486.25	9680.46
486.43	9804.50
486.61	9916.85
486.78	9928.55
486.96	10171.97
487.14	10059.62
487.32	10246.87
487.50	10303.04
487.68	10396.66
487.85	10771.15
488.03	10551.14
488.21	10761.78
488.39	10820.30
488.57	10944.34
488.75	10813.28
488.92	10970.09
489.10	11236.91
489.28	10799.23
489.46	11253.30
489.64	11211.17
489.81	11510.75
489.99	11618.42
490.17	11466.28
490.35	11599.70
490.53	11775.24
490.70	11754.17
490.88	11679.27
491.06	11892.26
491.24	12030.35
491.41	12035.03
491.59	12030.35
491.77	12343.99
491.95	12545.27
492.13	12599.10
492.30	12695.07
492.48	12409.52
492.66	12512.50
492.84	12798.05
493.01	12716.13
493.19	12655.28
493.37	13041.46
493.54	12996.99
493.72	13139.77
493.90	12863.58
494.08	13219.35
494.25	13303.60
494.43	13235.73
494.61	13561.06
494.79	13642.98
494.96	13593.83
495.14	13472.12
495.32	13645.32
495.49	13792.78
495.67	13874.70
495.85	13989.38
496.02	14090.02
496.20	14001.08
496.38	14246.84
496.55	14228.12
496.73	14544.09
496.91	14197.69
497.09	14569.83
497.26	14703.25
497.44	14572.18
497.62	14710.27
497.79	14785.16
497.97	14707.93
498.14	14754.74
498.32	14778.14
498.50	15164.33
498.67	15332.85
498.85	14871.76
499.03	15346.89
499.20	15290.72
499.38	15276.68
499.56	15272.00
499.73	15620.74
499.91	15658.18
500.08	15639.46
500.26	15515.41
500.44	15714.36
500.61	15751.81
500.79	15901.60
500.97	16180.12
501.14	15997.56
501.32	15925.00
501.49	15908.62
501.67	16187.14
501.84	16149.70
502.02	16091.18
502.20	16400.13
502.37	16552.27
502.55	16425.88
502.72	16634.19
502.90	16460.99
503.07	16636.53
503.25	16421.20
503.43	16627.17
503.60	16697.38
503.78	16720.79
503.95	17172.51
504.13	16875.26
504.30	16613.12
504.48	16931.44
504.65	16901.01
504.83	17298.90
505.01	17256.77
505.18	17488.48
505.36	17102.29
505.53	17329.33
505.71	17324.65
505.88	17420.61
506.06	17479.12
506.23	17764.67
506.41	17603.17
506.58	17610.19
506.76	17455.72
506.93	17914.46
507.11	17685.09
507.28	17750.62
507.46	17722.54
507.63	17921.48
507.81	18022.12
507.98	17717.86
508.16	18090.00
508.33	18132.13
508.50	18200.01
508.68	18171.92
508.85	18178.94
509.03	18317.03
509.20	18501.93
509.38	18511.30
509.55	18766.42
509.73	18513.64
509.90	18576.83
510.08	18995.79
510.25	18565.13
510.42	19147.92
510.60	19087.07
510.77	19009.83
510.95	19269.63
511.12	18960.68
511.30	19033.24
511.47	19295.38
511.64	19302.40
511.82	18981.74
511.99	19241.54
512.17	19356.23
512.34	19281.33
512.51	19393.68
512.69	19363.25
512.86	19508.37
513.04	19592.62
513.21	19707.31
513.38	19735.40
513.56	19714.33
513.73	19786.89
513.90	19985.83
514.08	19829.02
514.25	20119.24
514.43	20173.08
514.60	20016.26
514.77	20297.13
514.95	20044.35
515.12	20208.19
515.29	20170.74
515.47	20432.88
515.64	20479.69
515.81	20339.26
515.99	20545.22
516.16	20592.03
516.33	20898.64
516.51	20475.01
516.68	20379.04
516.85	20446.92
517.03	20622.46
517.20	20908.01
517.37	20823.75
517.54	21130.36
517.72	21090.57
517.89	21165.46
518.06	20954.82
518.24	20989.92
518.41	21179.51
518.58	21308.24
518.75	21123.33
518.93	21481.44
519.10	21254.40
519.27	21284.83
519.45	21329.30
519.62	21556.33
519.79	21305.90
519.96	21516.54
520.14	21664.00
520.31	21692.08
520.48	21996.35
520.65	21544.63
520.83	21785.71
521.00	21979.97
521.17	21675.70
521.34	21841.88
521.52	21928.48
521.69	22038.48
521.86	22314.67
522.03	22324.03
522.20	22508.93
522.38	22522.98
522.55	22391.91
522.72	22097.00
522.89	22530.00
523.07	22345.09
523.24	22700.86
523.41	22490.21
523.58	22288.92
523.75	22799.16
523.92	22448.08
524.10	22424.67
524.27	22759.37
524.44	22981.72
524.61	22742.99
524.78	22831.93
524.96	22752.35
525.13	22661.07
525.30	22885.76
525.47	23140.88
525.64	23147.90
525.81	23260.24
525.98	23524.72
526.16	23087.04
526.33	22831.93
526.50	23634.73
526.67	23480.25
526.84	23297.69
527.01	23307.05
527.18	23494.30
527.36	23618.35
527.53	23688.56
527.70	23934.32
527.87	23690.90
528.04	23578.56
528.21	23796.23
528.38	23934.32
528.55	23700.26
528.72	23758.78
528.89	23627.71
529.07	23768.14
529.24	23793.89
529.41	23838.36
529.58	23964.75
529.75	23941.34
529.92	23995.17
530.09	24025.60
530.26	23915.59
530.43	24107.52
530.60	24187.10
530.77	24386.04
530.94	24397.74
531.11	24140.29
531.28	24046.66
531.46	24313.48
531.63	24177.73
531.80	24119.22
531.97	24596.69
532.14	24517.11
532.31	24603.71
532.48	24278.38
532.65	24606.05
532.82	24383.70
532.99	24802.66
533.16	24666.91
533.33	25006.28
533.50	24924.36
533.67	24882.24
533.84	24760.53
534.01	24673.93
534.18	24755.85
534.35	25113.95
534.52	25010.96
534.69	25233.32
534.86	25165.44
535.03	25034.37
535.20	25125.65
535.37	25469.71
535.54	24996.92
535.71	24601.37
535.88	25284.81
536.05	24950.11
536.22	25551.63
536.38	25462.69
536.55	25294.17
536.72	25324.60
536.89	25324.60
537.06	25589.08
537.23	25666.31
537.40	25427.58
537.57	25441.62
537.74	25802.07
537.91	25942.50
538.08	26106.34
538.25	25586.74
538.42	25619.50
538.59	25963.56
538.75	25378.43
538.92	25879.30
539.09	25722.49
539.26	26118.04
539.43	25722.49
539.60	25900.37
539.77	25551.63
539.94	26089.95
540.11	25731.85
540.28	25776.32
540.44	26120.38
540.61	26232.72
540.78	26256.13
540.95	26242.09
541.12	26401.24
541.29	26298.26
541.46	26143.78
541.62	26073.57
541.79	26096.97
541.96	25963.56
542.13	26518.27
542.30	26331.03
542.47	26445.71
542.63	27042.55
542.80	26579.12
542.97	27047.23
543.14	26913.82
543.31	27094.04
543.48	26628.27
543.64	27211.07
543.81	27297.67
543.98	26810.84
544.15	26820.20
544.32	27105.74
544.48	27026.17
544.65	26925.52
544.82	26775.73
544.99	27447.46
545.16	26829.56
545.32	26911.48
545.49	27505.98
545.66	27262.56
545.83	27314.05
546.00	27454.48
546.16	27611.30
546.33	26941.91
546.50	27239.15
546.67	27370.22
546.83	27246.18
547.00	27070.64
547.17	27821.95
547.34	27590.24
547.50	27758.75
547.67	27541.08
547.84	27917.91
548.00	27775.14
548.17	27786.84
548.34	27641.73
548.51	27838.33
548.67	27513.00
548.84	27576.19
549.01	27623.00
549.18	27576.19
549.34	27807.90
549.51	28037.28
549.68	27672.15
549.84	27950.68
550.01	27962.38
550.18	27875.78
550.34	27906.21
550.51	28091.11
550.68	28196.43
550.84	27901.53
551.01	27821.95
551.18	27920.25
551.34	27857.06
551.51	28091.11
551.68	27908.55
551.84	28280.69
552.01	28123.88
552.18	28212.82
552.34	28264.31
552.51	28521.77
552.68	28247.93
552.84	28067.70
553.01	28386.02
553.18	28428.15
553.34	28329.84
553.51	28467.94
553.67	28493.68
553.84	28402.40
554.01	28510.07
554.17	28514.75
554.34	28568.58
554.51	28444.53
554.67	28788.59
554.84	28561.56
555.00	28659.86
555.17	28629.43
555.33	28758.16
555.50	28694.97
555.67	28701.99
555.83	28924.34
556.00	28624.75
556.16	29017.96
556.33	28709.01
556.50	28711.35
556.66	29095.20
556.83	29013.28
556.99	29551.60
557.16	29109.24
557.32	29310.53
557.49	29280.10
557.65	28683.27
557.82	28650.50
557.98	29071.79
558.15	29081.16
558.32	29099.88
558.48	28919.66
558.65	29338.62
558.81	29099.88
558.98	29364.36
559.14	29221.59
559.31	28723.05
559.47	28907.96
559.64	29158.39
559.80	29378.40
559.97	29228.61
560.13	29207.55
560.30	29174.78
560.46	29205.20
560.63	29376.06
560.79	29216.91
560.96	29343.30
561.12	29425.22
561.29	29277.76
561.45	29249.67
561.61	29563.31
561.78	29530.54
561.94	29439.26
562.11	29507.13
562.27	29514.16
562.44	29521.18
562.60	29792.68
562.77	29343.30
562.93	29462.66
563.10	29607.78
563.26	29282.44
563.42	29762.25
563.59	29869.92
563.75	29720.12
563.92	29933.11
564.08	29467.34
564.24	29874.60
564.41	29612.46
564.57	29511.81
564.74	29837.15
564.90	29916.73
565.07	29263.72
565.23	30094.61
565.39	29640.54
565.56	30005.67
565.72	29930.77
565.88	29823.11
566.05	29748.21
566.21	29579.69
566.38	29928.43
566.54	29610.12
566.70	29951.84
566.87	30286.53
567.03	30066.52
567.19	30162.48
567.36	30150.78
567.52	29652.25
567.68	30199.93
567.85	29844.17
568.01	30345.05
568.17	29788.00
568.34	29984.60
568.50	30099.29
568.66	30141.42
568.83	30300.58
568.99	29872.26
569.15	29958.86
569.32	29708.42
569.48	29769.27
569.64	29947.15
569.81	30625.91
569.97	29984.60
570.13	30087.59
570.30	30050.14
570.46	29799.70
570.62	30274.83
570.78	30202.27
570.95	30176.53
571.11	30096.95
571.27	29715.44
571.43	30127.38
571.60	30071.20
571.76	30045.46
571.92	30099.29
572.09	29846.51
572.25	30216.32
572.41	30162.48
572.57	30424.62
572.74	30328.66
572.90	29956.52
573.06	30354.41
573.22	30281.85
573.38	30185.89
573.55	30000.99
573.71	30429.30
573.87	30359.09
574.03	29989.28
574.20	30497.18
574.36	30218.66
574.52	30284.19
574.68	30338.02
574.84	30522.93
575.01	30522.93
575.17	30419.94
575.33	30118.01
575.49	30228.02
575.65	30628.25
575.82	30448.03
575.98	30253.76
576.14	30155.46
576.30	30373.13
576.46	30221.00
576.62	29963.54
576.79	30429.30
576.95	30103.97
577.11	30380.15
577.27	29979.92
577.43	30625.91
577.59	30572.08
577.75	30551.01
577.92	30267.81
578.08	30188.23
578.24	30593.14
578.40	30560.37
578.56	30260.79
578.72	30600.16
578.88	30632.93
579.04	30551.01
579.21	30637.61
579.37	30314.62
579.53	30476.12
579.69	30103.97
579.85	30340.36
580.01	30611.87
580.17	29923.75
580.33	30174.19
580.49	30565.06
580.65	30780.39
580.82	30623.57
580.98	30890.39
581.14	30380.15
581.30	30494.84
581.46	30026.73
581.62	30368.45
581.78	30394.20
581.94	30469.09
582.10	30368.45
582.26	31061.25
582.42	30476.12
582.58	30735.92
582.74	30497.18
582.90	30684.42
583.06	30579.10
583.22	30410.58
583.38	30387.18
583.54	30703.15
583.70	30490.16
583.86	30281.85
584.02	30335.68
584.18	30654.00
584.34	30834.22
584.50	30625.91
584.66	30497.18
584.82	30380.15
584.98	30417.60
585.14	30345.05
585.30	30522.93
585.46	30480.80
585.62	30328.66
585.78	30735.92
585.94	30445.69
586.10	30593.14
586.26	30817.83
586.42	30663.36
586.58	30775.70
586.74	30267.81
586.90	30616.55
587.06	30176.53
587.22	30595.48
587.38	30267.81
587.54	31124.44
587.70	30796.77
587.86	30654.00
588.02	30506.54
588.18	30813.15
588.34	30733.57
588.49	30995.71
588.65	30459.73
588.81	30260.79
588.97	30883.37
589.13	30714.85
589.29	30331.00
589.45	30815.49
589.61	30820.17
589.77	31323.39
589.93	30951.24
590.08	30862.30
590.24	31257.85
590.40	31000.40
590.56	30934.86
590.72	30871.67
590.88	30630.59
591.04	30642.29
591.20	30885.71
591.35	31009.76
591.51	31431.05
591.67	30885.71
591.83	31325.73
591.99	31227.43
