SpectraSuite Data File
++++++++++++++++++++++++++++++++++++
Date: Fri Oct 18 13:58:33 GMT-05:00 2013
User: bianchi
Dark Spectrum Present: No
Reference Spectrum Present: No
Number of Sampled Component Spectra: 1
Spectrometers: USB2+H05261
Integration Time (usec): 50000 (USB2+H05261)
Spectra Averaged: 1 (USB2+H05261)
Boxcar Smoothing: 0 (USB2+H05261)
Correct for Electrical Dark: No (USB2+H05261)
Strobe/Lamp Enabled: No (USB2+H05261)
Correct for Detector Non-linearity: No (USB2+H05261)
Correct for Stray Light: No (USB2+H05261)
Number of Pixels in Processed Spectrum: 2048
>>>>>Begin Processed Spectral Data<<<<<
365.73	0.00
365.92	0.00
366.12	0.00
366.32	0.00
366.52	0.00
366.72	0.00
366.91	0.00
367.11	0.00
367.31	0.00
367.51	0.00
367.70	0.00
367.90	0.00
368.10	0.00
368.30	0.00
368.49	0.00
368.69	0.00
368.89	0.00
369.09	0.00
369.28	0.00
369.48	0.00
369.68	0.00
369.87	0.00
370.07	0.00
370.27	0.00
370.47	0.00
370.66	65.54
370.86	51.49
371.06	147.45
371.25	163.84
371.45	81.92
371.65	191.92
371.84	159.16
372.04	117.03
372.24	227.03
372.44	138.09
372.63	283.20
372.83	201.29
373.03	184.90
373.22	234.05
373.42	238.73
373.62	159.16
373.81	229.37
374.01	264.48
374.21	290.23
374.40	227.03
374.60	250.44
374.79	210.65
374.99	290.23
375.19	234.05
375.38	241.08
375.58	245.76
375.78	229.37
375.97	234.05
376.17	276.18
376.37	304.27
376.56	332.36
376.76	203.63
376.95	311.29
377.15	304.27
377.35	301.93
377.54	255.12
377.74	215.33
377.93	271.50
378.13	308.95
378.33	294.91
378.52	250.44
378.72	252.78
378.91	348.74
379.11	241.08
379.31	255.12
379.50	184.90
379.70	285.55
379.89	369.80
380.09	276.18
380.28	264.48
380.48	262.14
380.68	301.93
380.87	306.61
381.07	222.35
381.26	341.72
381.46	409.59
381.65	327.68
381.85	360.44
382.04	290.23
382.24	325.33
382.43	341.72
382.63	290.23
382.83	360.44
383.02	313.63
383.22	315.97
383.41	374.49
383.61	344.06
383.80	365.12
384.00	322.99
384.19	379.17
384.39	304.27
384.58	344.06
384.78	330.02
384.97	388.53
385.17	341.72
385.36	325.33
385.56	362.78
385.75	454.06
385.95	355.76
386.14	461.09
386.34	411.93
386.53	390.87
386.72	388.53
386.92	421.30
387.11	367.46
387.31	400.23
387.50	451.72
387.70	430.66
387.89	454.06
388.09	388.53
388.28	369.80
388.48	400.23
388.67	599.18
388.86	456.40
389.06	449.38
389.25	477.47
389.45	477.47
389.64	519.60
389.84	456.40
390.03	526.62
390.22	454.06
390.42	442.36
390.61	477.47
390.81	503.22
391.00	416.62
391.19	514.92
391.39	440.02
391.58	550.03
391.78	475.13
391.97	507.90
392.16	561.73
392.36	477.47
392.55	615.56
392.75	566.41
392.94	550.03
393.13	543.00
393.33	545.34
393.52	543.00
393.71	615.56
393.91	603.86
394.10	514.92
394.29	531.30
394.49	521.94
394.68	594.50
394.88	568.75
395.07	585.13
395.26	627.26
395.46	606.20
395.65	524.28
395.84	681.10
396.04	678.76
396.23	641.31
396.42	636.63
396.62	608.54
396.81	617.90
397.00	683.44
397.19	692.80
397.39	690.46
397.58	638.97
397.77	650.67
397.97	725.57
398.16	676.41
398.35	685.78
398.55	648.33
398.74	620.24
398.93	835.57
399.12	758.33
399.32	706.84
399.51	702.16
399.70	734.93
399.90	730.25
400.09	772.38
400.28	709.18
400.47	720.88
400.67	809.83
400.86	741.95
401.05	833.23
401.24	760.67
401.44	821.53
401.63	802.80
401.82	763.01
402.01	809.83
402.21	840.25
402.40	901.11
402.59	877.70
402.78	758.33
402.97	826.21
403.17	809.83
403.36	779.40
403.55	854.30
403.74	901.11
403.93	877.70
404.13	905.79
404.32	812.17
404.51	896.43
404.70	866.00
404.89	777.06
405.09	924.51
405.28	891.74
405.47	887.06
405.66	983.02
405.85	1011.11
406.05	1004.09
406.24	1015.79
406.43	971.32
406.62	1062.60
406.81	1036.86
407.00	950.26
407.20	1027.50
407.39	1006.43
407.58	1078.99
407.77	1034.52
407.96	1078.99
408.15	985.37
408.34	1121.12
408.54	1135.16
408.73	1076.65
408.92	1069.62
409.11	1071.97
409.30	1111.75
409.49	1116.44
409.68	1083.67
409.87	1196.01
410.07	1165.59
410.26	1196.01
410.45	1156.22
410.64	1144.52
410.83	1165.59
411.02	1235.80
411.21	1196.01
411.40	1188.99
411.59	1324.74
411.78	1392.62
411.98	1233.46
412.17	1270.91
412.36	1329.42
412.55	1259.21
412.74	1418.36
412.93	1315.38
413.12	1331.76
413.31	1406.66
413.50	1441.77
413.69	1406.66
413.88	1373.89
414.07	1341.13
414.26	1516.67
414.45	1390.28
414.64	1432.41
414.83	1476.88
415.02	1528.37
415.22	1582.20
415.41	1554.12
415.60	1497.94
415.79	1535.39
415.98	1455.81
416.17	1575.18
416.36	1607.95
416.55	1647.74
416.74	1589.22
416.93	1526.03
417.12	1783.49
417.31	1645.40
417.50	1746.04
417.69	1720.29
417.88	1720.29
418.07	1664.12
418.26	1671.14
418.45	1870.09
418.64	1816.26
418.83	1755.40
419.02	1799.87
419.21	1842.00
419.39	1916.90
419.58	1851.36
419.77	1694.55
419.96	1849.02
420.15	1851.36
420.34	1879.45
420.53	1902.86
420.72	1930.94
420.91	1898.17
421.10	1825.62
421.29	1980.09
421.48	1839.66
421.67	1858.39
421.86	1900.52
422.05	1877.11
422.24	1921.58
422.43	1900.52
422.61	1949.67
422.80	1923.92
422.99	2003.50
423.18	2050.31
423.37	2026.90
423.56	1970.73
423.75	1933.28
423.94	1966.05
424.13	1952.01
424.32	1912.22
424.50	2047.97
424.69	2111.16
424.88	2062.01
425.07	1961.37
425.26	2122.87
425.45	2036.27
425.64	1959.03
425.83	2036.27
426.01	2045.63
426.20	2101.80
426.39	2122.87
426.58	2036.27
426.77	2092.44
426.96	2083.08
427.15	2059.67
427.33	2097.12
427.52	2162.66
427.71	2197.76
427.90	2017.54
428.09	2127.55
428.28	2153.29
428.46	2174.36
428.65	2169.68
428.84	2270.32
429.03	2129.89
429.22	2218.83
429.40	2207.13
429.59	2331.17
429.78	2207.13
429.97	2106.48
430.16	2221.17
430.34	2225.85
430.53	2422.45
430.72	2335.85
430.91	2310.11
431.10	2328.83
431.28	2319.47
431.47	2406.07
431.66	2455.22
431.85	2413.09
432.03	2450.54
432.22	2389.69
432.41	2363.94
432.60	2366.28
432.79	2441.18
432.97	2399.05
433.16	2450.54
433.35	2410.75
433.54	2560.55
433.72	2441.18
433.91	2483.31
434.10	2464.58
434.28	2530.12
434.47	2434.16
434.66	2427.14
434.85	2534.80
435.03	2555.86
435.22	2492.67
435.41	2787.58
435.59	2572.25
435.78	2658.85
435.97	2590.97
436.16	2527.78
436.34	2602.68
436.53	2705.66
436.72	2689.28
436.90	2595.65
437.09	2686.94
437.28	2623.74
437.46	2754.81
437.65	2710.34
437.84	2654.17
438.02	2675.23
438.21	2668.21
438.40	2815.66
438.58	2937.37
438.77	2862.48
438.96	2815.66
439.14	2932.69
439.33	2942.05
439.52	2834.39
439.70	2885.88
439.89	2951.42
440.08	2981.84
440.26	2967.80
440.45	3000.57
440.63	2979.50
440.82	3108.23
441.01	2937.37
441.19	3162.06
441.38	3274.41
441.57	3286.11
441.75	3180.79
441.94	3180.79
442.12	3197.17
442.31	3349.31
442.50	3318.88
442.68	3197.17
442.87	3346.97
443.05	3267.39
443.24	3393.78
443.43	3513.14
443.61	3300.16
443.80	3442.93
443.98	3232.28
444.17	3293.13
444.35	3377.39
444.54	3335.26
444.73	3466.33
444.91	3414.84
445.10	3520.17
445.28	3372.71
445.47	3283.77
445.65	3262.71
445.84	3438.25
446.02	3576.34
446.21	3513.14
446.39	3375.05
446.58	3461.65
446.77	3499.10
446.95	3524.85
447.14	3534.21
447.32	3534.21
447.51	3412.50
447.69	3403.14
447.88	3503.78
448.06	3459.31
448.25	3510.80
448.43	3552.93
448.62	3421.86
448.80	3459.31
448.99	3576.34
449.17	3646.55
449.36	3634.85
449.54	3733.15
449.73	3618.47
449.91	3742.52
450.10	3667.62
450.28	3616.13
450.46	3716.77
450.65	3684.00
450.83	3672.30
451.02	3714.43
451.20	3878.27
451.39	3637.19
451.57	3660.60
451.76	3688.68
451.94	3789.33
452.13	3819.75
452.31	3728.47
452.49	3803.37
452.68	3843.16
452.86	3833.80
453.05	3943.80
453.23	3871.25
453.42	3786.99
453.60	3819.75
453.78	3995.29
453.97	3868.91
454.15	3992.95
454.34	3936.78
454.52	4004.66
454.70	3999.98
454.89	4007.00
455.07	3929.76
455.26	3983.59
455.44	4079.55
455.62	4109.98
455.81	4117.00
455.99	4154.45
456.17	4014.02
456.36	4217.65
456.54	4152.11
456.73	4203.60
456.91	4341.69
457.09	4184.88
457.28	4248.07
457.46	4208.28
457.64	4337.01
457.83	4329.99
458.01	4222.33
458.19	4355.74
458.38	4205.94
458.56	4430.63
458.74	4393.19
458.93	4283.18
459.11	4386.16
459.29	4290.20
459.48	4535.96
459.66	4550.00
459.84	4510.21
460.03	4631.92
460.21	4538.30
460.39	4552.34
460.57	4386.16
460.76	4540.64
460.94	4779.37
461.12	4542.98
461.31	4667.03
461.49	4533.62
461.67	4484.47
461.85	4737.24
462.04	4559.36
462.22	4744.27
462.40	4767.67
462.59	4683.41
462.77	4788.74
462.95	4765.33
463.13	4730.22
463.32	4816.82
463.50	4828.53
463.68	4842.57
463.86	4587.45
464.05	4767.67
464.23	4807.46
464.41	4798.10
464.59	4676.39
464.78	4943.21
464.96	4896.40
465.14	4807.46
465.32	4856.61
465.50	4968.96
465.69	5172.58
465.87	4842.57
466.05	4873.00
466.23	4910.44
466.41	5027.47
466.60	5074.28
466.78	5076.62
466.96	5011.09
467.14	5107.05
467.32	5153.86
467.51	5186.63
467.69	5055.56
467.87	5146.84
468.05	5142.16
468.23	5100.03
468.41	5125.77
468.60	5380.89
468.78	5296.63
468.96	5067.26
469.14	5076.62
469.32	5371.53
469.50	5301.31
469.69	5284.93
469.87	5317.70
470.05	5401.96
470.23	5390.25
470.41	5331.74
470.59	5465.15
470.77	5317.70
470.95	5266.21
471.14	5610.26
471.32	5481.53
471.50	5472.17
471.68	5589.20
471.86	5607.92
472.04	5694.52
472.22	5851.34
472.40	5603.24
472.58	5680.48
472.77	5678.14
472.95	5966.03
473.13	6092.41
473.31	5856.02
473.49	5776.44
473.67	5748.36
473.85	5764.74
474.03	6097.10
474.21	5891.13
474.39	6017.52
474.57	5998.79
474.75	6022.20
474.93	6141.57
475.12	6071.35
475.30	6141.57
475.48	6113.48
475.66	6183.70
475.84	6242.21
476.02	6108.80
476.20	6307.74
476.38	6616.69
476.56	6469.24
476.74	6448.18
476.92	6471.58
477.10	6504.35
477.28	6630.74
477.46	6572.22
477.64	6525.41
477.82	6612.01
478.00	6888.20
478.18	6836.70
478.36	7063.74
478.54	6972.46
478.72	7080.12
478.90	7014.59
479.08	7227.57
479.26	7316.51
479.44	7218.21
479.62	7215.87
479.80	7283.75
479.98	7382.05
480.16	7356.30
480.34	7499.08
480.52	7740.15
480.70	7588.02
480.88	7473.33
481.06	7562.27
481.24	7683.98
481.41	7854.84
481.59	7709.72
481.77	7847.82
481.95	8161.45
482.13	7985.91
482.31	7985.91
482.49	8109.96
482.67	8341.67
482.85	8362.73
483.03	8315.92
483.21	8676.37
483.39	8479.76
483.57	8416.57
483.74	8678.71
483.92	8765.31
484.10	8706.79
484.28	8784.03
484.46	9055.53
484.64	9046.17
484.82	8945.53
485.00	9144.47
485.18	9287.25
485.35	9621.94
485.53	9301.29
485.71	9198.31
485.89	9673.43
486.07	9338.74
486.25	9514.28
486.43	9481.51
486.61	9708.54
486.78	9837.27
486.96	10005.79
487.14	10087.71
487.32	9781.10
487.50	10083.03
487.68	10284.31
487.85	10293.68
488.03	10338.15
488.21	10377.94
488.39	10499.64
488.57	10820.30
488.75	10492.62
488.92	10471.56
489.10	10775.83
489.28	10750.08
489.46	10787.53
489.64	10981.79
489.81	11405.43
489.99	11232.23
490.17	11220.53
490.35	11463.94
490.53	11477.99
490.70	11468.62
490.88	11403.09
491.06	11791.62
491.24	11580.97
491.41	11796.30
491.59	11859.49
491.77	11847.79
491.95	12138.02
492.13	12208.23
492.30	12283.13
492.48	12107.59
492.66	12205.89
492.84	12374.41
493.01	12301.86
493.19	12678.68
493.37	12489.10
493.54	12685.70
493.72	12723.15
493.90	12676.34
494.08	13018.06
494.25	12978.27
494.43	13102.32
494.61	13231.05
494.79	13275.52
494.96	13027.42
495.14	13095.30
495.32	13331.69
495.49	13249.77
495.67	13458.08
495.85	13547.02
496.02	13736.60
496.20	13755.33
496.38	13706.18
496.55	13769.37
496.73	14087.68
496.91	13928.53
497.09	14195.35
497.26	14368.55
497.44	14026.83
497.62	14436.42
497.79	14459.83
497.97	14441.11
498.14	14883.47
498.32	14743.03
498.50	14736.01
498.67	14820.27
498.85	14551.11
499.03	14939.64
499.20	14970.07
499.38	14941.98
499.56	15171.35
499.73	14941.98
499.91	15246.25
500.08	15417.11
500.26	15468.60
500.44	15147.95
500.61	15400.72
500.79	15159.65
500.97	15606.69
501.14	15730.74
501.32	15988.20
501.49	15721.38
501.67	15557.54
501.84	15789.25
502.02	15955.43
502.20	15943.73
502.37	16198.85
502.55	16191.83
502.72	15976.50
502.90	16334.60
503.07	16210.55
503.25	16201.19
503.43	16327.58
503.60	16238.64
503.78	16489.07
503.95	16669.30
504.13	16652.91
504.30	16449.28
504.48	16589.72
504.65	16528.86
504.83	16720.79
505.01	16905.69
505.18	16837.81
505.36	16901.01
505.53	16844.84
505.71	16940.80
505.88	17034.42
506.06	16996.97
506.23	17224.00
506.41	17177.19
506.58	17128.04
506.76	17238.05
506.93	17298.90
507.11	17280.18
507.28	17334.01
507.46	17539.97
507.63	17593.81
507.81	18022.12
507.98	17661.68
508.16	17771.69
508.33	17598.49
508.50	17914.46
508.68	17729.56
508.85	17951.91
509.03	17844.24
509.20	18022.12
509.38	18111.07
509.55	18073.62
509.73	17989.36
509.90	18377.89
510.08	18078.30
510.25	17989.36
510.42	18361.50
510.60	18401.29
510.77	18405.97
510.95	18569.81
511.12	18305.33
511.30	18462.15
511.47	18843.65
511.64	18714.92
511.82	19012.17
511.99	18682.16
512.17	18972.38
512.34	18883.44
512.51	19075.37
512.69	18963.02
512.86	19028.56
513.04	19089.41
513.21	19365.59
513.38	19330.48
513.56	19096.43
513.73	19197.07
513.90	19323.46
514.08	19297.72
514.25	19164.31
514.43	19704.97
514.60	19506.02
514.77	19716.67
514.95	19653.48
515.12	19857.10
515.29	19449.85
515.47	19878.17
515.64	19924.98
515.81	19637.09
515.99	20140.31
516.16	20154.35
516.33	20264.36
516.51	19946.05
516.68	19859.45
516.85	19864.13
517.03	20126.27
517.20	20524.16
517.37	20418.83
517.54	20470.33
517.72	20807.36
517.89	20357.98
518.06	20355.64
518.24	20304.15
518.41	20561.61
518.58	20521.82
518.75	20688.00
518.93	20798.00
519.10	20727.78
519.27	20610.76
519.45	20905.66
519.62	20739.49
519.79	20634.16
519.96	20645.87
520.14	20556.93
520.31	21027.37
520.48	21149.08
520.65	20819.07
520.83	21235.68
521.00	21298.88
521.17	21200.57
521.34	21221.64
521.52	21191.21
521.69	21427.60
521.86	21511.86
522.03	21734.21
522.20	21598.46
522.38	21546.97
522.55	21633.57
522.72	21947.20
522.89	21909.75
523.07	21766.98
523.24	21759.96
523.41	21825.50
523.58	21469.73
523.75	21813.79
523.92	21975.29
524.10	22167.21
524.27	21944.86
524.44	22207.00
524.61	22387.22
524.78	22214.02
524.96	22225.73
525.13	22150.83
525.30	22022.10
525.47	22279.56
525.64	22319.35
525.81	22352.12
525.98	22972.36
526.16	22824.90
526.33	22635.32
526.50	22628.30
526.67	22455.10
526.84	22796.82
527.01	22747.67
527.18	22857.67
527.36	22867.03
527.53	22789.80
527.70	23166.62
527.87	23030.87
528.04	23089.38
528.21	22993.42
528.38	22862.35
528.55	22970.02
528.72	23035.55
528.89	22965.34
529.07	23042.57
529.24	23335.14
529.41	23061.30
529.58	23185.35
529.75	23304.71
529.92	23190.03
530.09	23623.03
530.26	23435.78
530.43	23491.96
530.60	23608.98
530.77	23501.32
530.94	23470.89
531.11	23510.68
531.28	23550.47
531.46	23613.66
531.63	23655.79
531.80	23906.23
531.97	24107.52
532.14	24121.56
532.31	23920.28
532.48	23939.00
532.65	24189.44
532.82	23924.96
532.99	23798.57
533.16	23843.04
533.33	24102.84
533.50	24219.86
533.67	24044.32
533.84	23908.57
534.01	23953.04
534.18	24154.33
534.35	24233.91
534.52	24414.13
534.69	24173.05
534.86	24767.55
535.03	24458.60
535.20	24542.86
535.37	24528.81
535.54	24566.26
535.71	24510.09
535.88	24610.73
536.05	24404.77
536.22	24507.75
536.38	24615.41
536.55	24950.11
536.72	25076.50
536.89	24800.32
537.06	24893.94
537.23	25139.69
537.40	24802.66
537.57	24753.51
537.74	25092.88
537.91	25378.43
538.08	25209.91
538.25	24912.66
538.42	25242.68
538.59	25245.02
538.75	24706.70
538.92	25261.40
539.09	24910.32
539.26	25020.33
539.43	25420.56
539.60	25113.95
539.77	25249.70
539.94	25558.65
540.11	25373.75
540.28	25500.14
540.44	25348.00
540.61	25535.24
540.78	25549.29
540.95	25039.05
541.12	25668.66
541.29	25289.49
541.46	25642.91
541.62	25713.13
541.79	25385.45
541.96	25151.40
542.13	25788.02
542.30	25610.14
542.47	25659.29
542.63	25766.96
542.80	26136.76
542.97	26321.66
543.14	26087.61
543.31	25996.33
543.48	26099.31
543.64	26136.76
543.81	26045.48
543.98	26195.28
544.15	26347.41
544.32	26586.15
544.48	26579.12
544.65	26403.58
544.82	26111.02
544.99	26183.57
545.16	26431.67
545.32	26265.49
545.49	26527.63
545.66	26639.98
545.83	26794.45
546.00	26778.07
546.16	26258.47
546.33	26518.27
546.50	26223.36
546.67	26672.74
546.83	26324.01
547.00	26576.78
547.17	26878.71
547.34	26731.26
547.50	26977.01
547.67	27080.00
547.84	26895.10
548.00	26621.25
548.17	26815.52
548.34	27143.19
548.51	27213.41
548.67	27023.83
548.84	27075.32
549.01	27297.67
549.18	27030.85
549.34	27065.96
549.51	26920.84
549.68	26998.08
549.84	27014.46
550.01	27084.68
550.18	27175.96
550.34	26979.36
550.51	27077.66
550.68	27330.44
550.84	27175.96
551.01	27365.54
551.18	27395.97
551.34	27117.45
551.51	27126.81
551.68	27033.19
551.84	27447.46
552.01	27442.78
552.18	27424.06
552.34	27545.76
552.51	27913.23
552.68	27487.25
552.84	27557.47
553.01	27676.83
553.18	27538.74
553.34	27318.73
553.51	27894.50
553.67	27892.16
553.84	27885.14
554.01	28002.17
554.17	27587.89
554.34	27971.74
554.51	28266.65
554.67	27864.08
554.84	28149.62
555.00	27929.61
555.17	27941.32
555.33	27913.23
555.50	27632.36
555.67	27690.88
555.83	27892.16
556.00	28006.85
556.16	28400.06
556.33	27974.08
556.50	28065.36
556.66	28357.93
556.83	28072.39
556.99	28409.42
557.16	28453.89
557.32	28215.16
557.49	28517.09
557.65	27725.99
557.82	28095.79
557.98	28215.16
558.15	28030.26
558.32	28744.12
558.48	28325.16
558.65	28421.13
558.81	28318.14
558.98	28453.89
559.14	28704.33
559.31	28088.77
559.47	28191.75
559.64	28325.16
559.80	28793.27
559.97	28624.75
560.13	28364.95
560.30	28477.30
560.46	28521.77
560.63	28610.71
560.79	28856.46
560.96	28514.75
561.12	28505.38
561.29	28456.23
561.45	28474.96
561.61	28678.58
561.78	28622.41
561.94	28680.92
562.11	28938.38
562.27	28320.48
562.44	28205.80
562.60	28748.80
562.77	28620.07
562.93	28393.04
563.10	28945.41
563.26	28753.48
563.42	28804.97
563.59	28685.61
563.75	28643.48
563.92	29046.05
564.08	28582.62
564.24	28561.56
564.41	28823.70
564.57	28498.36
564.74	28978.17
564.90	28819.02
565.07	29123.29
565.23	28961.79
565.39	28835.40
565.56	28947.75
565.72	28519.43
565.88	28982.85
566.05	28573.26
566.21	28627.09
566.38	28505.38
566.54	29085.84
566.70	29032.00
566.87	28964.13
567.03	29329.25
567.19	29130.31
567.36	29078.82
567.52	29233.29
567.68	29006.26
567.85	28753.48
568.01	29104.56
568.17	28891.57
568.34	29163.08
568.50	28992.22
568.66	29364.36
568.83	29146.69
568.99	29326.91
569.15	28807.31
569.32	28980.51
569.48	28978.17
569.64	29102.22
569.81	29118.60
569.97	29156.05
570.13	29123.29
570.30	29322.23
570.46	29219.25
570.62	28973.49
570.78	28992.22
570.95	28800.29
571.11	29230.95
571.27	29062.43
571.43	29032.00
571.60	29090.52
571.76	29223.93
571.92	29310.53
572.09	29504.79
572.25	29408.83
572.41	29710.76
572.57	29277.76
572.74	29521.18
572.90	28912.64
573.06	29158.39
573.22	29392.45
573.38	29308.19
573.55	29181.80
573.71	29720.12
573.87	29465.00
574.03	29113.92
574.20	29273.08
574.36	29001.58
574.52	29198.18
574.68	29596.07
574.84	29476.71
575.01	29528.20
575.17	29261.38
575.33	29287.12
575.49	29366.70
575.65	29553.94
575.82	29673.31
575.98	29001.58
576.14	29427.56
576.30	29160.73
576.46	29291.80
576.62	29343.30
576.79	29237.97
576.95	29422.87
577.11	29483.73
577.27	29511.81
577.43	29692.04
577.59	29383.09
577.75	29495.43
577.92	29188.82
578.08	29303.51
578.24	29617.14
578.40	29612.46
578.56	29715.44
578.72	29778.64
578.88	29455.64
579.04	29694.38
579.21	29401.81
579.37	29502.45
579.53	29598.41
579.69	29364.36
579.85	29956.52
580.01	29415.85
580.17	29280.10
580.33	29694.38
580.49	29457.98
580.65	29802.04
580.82	29677.99
580.98	29996.31
581.14	29542.24
581.30	29556.28
581.46	29509.47
581.62	29532.88
581.78	29436.92
581.94	29685.01
582.10	29582.03
582.26	29582.03
582.42	29713.10
582.58	29591.39
582.74	29607.78
582.90	29560.97
583.06	30061.84
583.22	29418.19
583.38	29326.91
583.54	29879.28
583.70	29338.62
583.86	29420.53
584.02	29560.97
584.18	29841.83
584.34	29642.88
584.50	29638.20
584.66	29479.05
584.82	29275.42
584.98	29862.90
585.14	29329.25
585.30	29612.46
585.46	29724.80
585.62	29364.36
585.78	29677.99
585.94	29661.61
586.10	29867.58
586.26	29823.11
586.42	29853.53
586.58	29998.65
586.74	29806.72
586.90	29450.96
587.06	29589.05
587.22	29790.34
587.38	29544.58
587.54	29972.90
587.70	29834.81
587.86	29689.70
588.02	29670.97
588.18	29935.45
588.34	29993.97
588.49	29820.77
588.65	29455.64
588.81	29724.80
588.97	29886.30
589.13	29717.78
589.29	29799.70
589.45	29823.11
589.61	30073.54
589.77	30174.19
589.93	29935.45
590.08	30457.39
590.24	30096.95
590.40	30281.85
590.56	29958.86
590.72	30071.20
590.88	29619.48
591.04	29965.88
591.20	30293.55
591.35	30600.16
591.51	30499.52
591.67	30352.07
591.83	30565.06
591.99	30401.22
