SpectraSuite Data File
++++++++++++++++++++++++++++++++++++
Date: Fri Oct 18 13:58:07 GMT-05:00 2013
User: bianchi
Dark Spectrum Present: No
Reference Spectrum Present: No
Number of Sampled Component Spectra: 1
Spectrometers: USB2+H05261
Integration Time (usec): 50000 (USB2+H05261)
Spectra Averaged: 1 (USB2+H05261)
Boxcar Smoothing: 0 (USB2+H05261)
Correct for Electrical Dark: No (USB2+H05261)
Strobe/Lamp Enabled: No (USB2+H05261)
Correct for Detector Non-linearity: No (USB2+H05261)
Correct for Stray Light: No (USB2+H05261)
Number of Pixels in Processed Spectrum: 2048
>>>>>Begin Processed Spectral Data<<<<<
365.73	0.00
365.92	0.00
366.12	0.00
366.32	0.00
366.52	0.00
366.72	0.00
366.91	0.00
367.11	0.00
367.31	0.00
367.51	0.00
367.70	0.00
367.90	0.00
368.10	0.00
368.30	0.00
368.49	0.00
368.69	0.00
368.89	0.00
369.09	0.00
369.28	0.00
369.48	0.00
369.68	0.00
369.87	0.00
370.07	0.00
370.27	0.00
370.47	0.00
370.66	51.49
370.86	100.64
371.06	142.77
371.25	149.79
371.45	77.24
371.65	105.32
371.84	93.62
372.04	149.79
372.24	161.50
372.44	224.69
372.63	198.95
372.83	117.03
373.03	117.03
373.22	184.90
373.42	93.62
373.62	297.25
373.81	292.57
374.01	238.73
374.21	273.84
374.40	252.78
374.60	201.29
374.79	224.69
374.99	205.97
375.19	308.95
375.38	224.69
375.58	224.69
375.78	315.97
375.97	250.44
376.17	299.59
376.37	301.93
376.56	236.39
376.76	248.10
376.95	313.63
377.15	255.12
377.35	266.82
377.54	294.91
377.74	243.42
377.93	220.01
378.13	245.76
378.33	304.27
378.52	372.15
378.72	327.68
378.91	341.72
379.11	255.12
379.31	203.63
379.50	250.44
379.70	346.40
379.89	278.52
380.09	276.18
380.28	294.91
380.48	304.27
380.68	315.97
380.87	245.76
381.07	330.02
381.26	358.10
381.46	365.12
381.65	376.83
381.85	311.29
382.04	311.29
382.24	262.14
382.43	271.50
382.63	355.76
382.83	374.49
383.02	379.17
383.22	421.30
383.41	409.59
383.61	362.78
383.80	339.38
384.00	397.89
384.19	358.10
384.39	292.57
384.58	365.12
384.78	470.45
384.97	400.23
385.17	416.62
385.36	433.00
385.56	430.66
385.75	416.62
385.95	402.57
386.14	510.24
386.34	372.15
386.53	334.70
386.72	475.13
386.92	435.34
387.11	409.59
387.31	491.51
387.50	395.55
387.70	365.12
387.89	428.32
388.09	503.22
388.28	535.98
388.48	454.06
388.67	500.87
388.86	346.40
389.06	454.06
389.25	411.93
389.45	531.30
389.64	500.87
389.84	475.13
390.03	477.47
390.22	505.56
390.42	430.66
390.61	510.24
390.81	486.83
391.00	461.09
391.19	512.58
391.39	535.98
391.58	603.86
391.78	533.64
391.97	535.98
392.16	547.69
392.36	557.05
392.55	524.28
392.75	521.94
392.94	545.34
393.13	554.71
393.33	550.03
393.52	571.09
393.71	559.39
393.91	566.41
394.10	624.92
394.29	573.43
394.49	601.52
394.68	507.90
394.88	557.05
395.07	695.14
395.26	653.01
395.46	587.47
395.65	634.29
395.84	573.43
396.04	671.73
396.23	678.76
396.42	606.20
396.62	622.58
396.81	662.37
397.00	599.18
397.19	608.54
397.39	695.14
397.58	746.63
397.77	702.16
397.97	741.95
398.16	669.39
398.35	795.78
398.55	704.50
398.74	777.06
398.93	791.10
399.12	734.93
399.32	702.16
399.51	709.18
399.70	718.54
399.90	709.18
400.09	758.33
400.28	765.36
400.47	833.23
400.67	688.12
400.86	720.88
401.05	772.38
401.24	802.80
401.44	861.32
401.63	765.36
401.82	784.08
402.01	723.23
402.21	826.21
402.40	854.30
402.59	805.14
402.78	828.55
402.97	858.98
403.17	854.30
403.36	868.34
403.55	835.57
403.74	954.94
403.93	877.70
404.13	858.98
404.32	844.93
404.51	821.53
404.70	980.68
404.89	968.98
405.09	954.94
405.28	868.34
405.47	1001.75
405.66	1076.65
405.85	933.87
406.05	917.49
406.24	1020.47
406.43	926.85
406.62	973.66
406.81	1132.82
407.00	1060.26
407.20	1034.52
407.39	1015.79
407.58	1090.69
407.77	1090.69
407.96	1111.75
408.15	1118.78
408.34	1041.54
408.54	1139.84
408.73	1055.58
408.92	1109.41
409.11	1062.60
409.30	1100.05
409.49	1139.84
409.68	1095.37
409.87	1188.99
410.07	1231.12
410.26	1149.20
410.45	1146.86
410.64	1156.22
410.83	1221.76
411.02	1240.48
411.21	1254.53
411.40	1198.35
411.59	1287.29
411.78	1350.49
411.98	1270.91
412.17	1287.29
412.36	1320.06
412.55	1238.14
412.74	1336.45
412.93	1416.02
413.12	1455.81
413.31	1528.37
413.50	1364.53
413.69	1289.64
413.88	1441.77
414.07	1371.55
414.26	1446.45
414.45	1458.15
414.64	1451.13
414.83	1495.60
415.02	1465.18
415.22	1568.16
415.41	1481.56
415.60	1483.90
415.79	1521.35
415.98	1607.95
416.17	1701.57
416.36	1612.63
416.55	1607.95
416.74	1596.25
416.93	1675.82
417.12	1736.68
417.31	1598.59
417.50	1755.40
417.69	1799.87
417.88	1633.69
418.07	1675.82
418.26	1734.34
418.45	1699.23
418.64	1753.06
418.83	1837.32
419.02	1874.77
419.21	1834.98
419.39	1844.34
419.58	1923.92
419.77	1949.67
419.96	1785.83
420.15	1867.75
420.34	1818.60
420.53	1928.60
420.72	1842.00
420.91	1947.33
421.10	1860.73
421.29	1912.22
421.48	1926.26
421.67	1944.99
421.86	1886.47
422.05	2010.52
422.24	1930.94
422.43	2033.93
422.61	1879.45
422.80	1961.37
422.99	1991.80
423.18	2073.71
423.37	2043.29
423.56	1966.05
423.75	1961.37
423.94	2012.86
424.13	1959.03
424.32	1837.32
424.50	2085.42
424.69	2120.53
424.88	2094.78
425.07	2057.33
425.26	2038.61
425.45	1940.30
425.64	2040.95
425.83	1966.05
426.01	2120.53
426.20	2083.08
426.39	2085.42
426.58	2064.35
426.77	2045.63
426.96	2069.03
427.15	2024.56
427.33	2118.18
427.52	2057.33
427.71	2108.82
427.90	2216.49
428.09	2134.57
428.28	2200.10
428.46	2314.79
428.65	2223.51
428.84	2265.64
429.03	2211.81
429.22	2277.34
429.40	2235.21
429.59	2237.55
429.78	2162.66
429.97	2118.18
430.16	2282.02
430.34	2340.54
430.53	2342.88
430.72	2324.15
430.91	2321.81
431.10	2356.92
431.28	2342.88
431.47	2335.85
431.66	2352.24
431.85	2326.49
432.03	2473.95
432.22	2480.97
432.41	2438.84
432.60	2509.05
432.79	2422.45
432.97	2464.58
433.16	2476.29
433.35	2555.86
433.54	2502.03
433.72	2548.84
433.91	2548.84
434.10	2558.21
434.28	2455.22
434.47	2567.57
434.66	2380.32
434.85	2616.72
435.03	2614.38
435.22	2684.59
435.41	2665.87
435.59	2719.70
435.78	2565.23
435.97	2644.81
436.16	2656.51
436.34	2675.23
436.53	2597.99
436.72	2731.41
436.90	2761.83
437.09	2827.37
437.28	2740.77
437.46	2904.60
437.65	2675.23
437.84	2899.92
438.02	2810.98
438.21	2801.62
438.40	2899.92
438.58	2850.77
438.77	2974.82
438.96	2773.53
439.14	3016.95
439.33	2874.18
439.52	2930.35
439.70	2972.48
439.89	3110.57
440.08	2944.39
440.26	3073.12
440.45	3047.38
440.63	3150.36
440.82	3239.30
441.01	3110.57
441.19	3159.72
441.38	3220.58
441.57	3456.97
441.75	3330.58
441.94	3253.34
442.12	3323.56
442.31	3272.07
442.50	3269.73
442.68	3248.66
442.87	3368.03
443.05	3286.11
443.24	3431.23
443.43	3342.28
443.61	3452.29
443.80	3473.36
443.98	3288.45
444.17	3157.38
444.35	3389.10
444.54	3494.42
444.73	3375.05
444.91	3480.38
445.10	3480.38
445.28	3543.57
445.47	3503.78
445.65	3480.38
445.84	3543.57
446.02	3459.31
446.21	3564.64
446.39	3529.53
446.58	3494.42
446.77	3569.32
446.95	3555.27
447.14	3508.46
447.32	3449.95
447.51	3459.31
447.69	3461.65
447.88	3475.70
448.06	3480.38
448.25	3576.34
448.43	3627.83
448.62	3499.10
448.80	3637.19
448.99	3531.87
449.17	3578.68
449.36	3524.85
449.54	3599.74
449.73	3597.40
449.91	3796.35
450.10	3838.48
450.28	3707.41
450.46	3627.83
450.65	3857.20
450.83	3772.94
451.02	3761.24
451.20	3721.45
451.39	3700.39
451.57	3777.62
451.76	3775.28
451.94	3808.05
452.13	3911.04
452.31	3960.19
452.49	3829.12
452.68	3885.29
452.86	3950.82
453.05	3819.75
453.23	4131.05
453.42	3960.19
453.60	3922.74
453.78	3864.22
453.97	3936.78
454.15	3899.33
454.34	4058.49
454.52	4039.76
454.70	4107.64
454.89	4124.02
455.07	4046.79
455.26	3999.98
455.44	4072.53
455.62	4095.94
455.81	4095.94
455.99	4156.79
456.17	4142.75
456.36	4250.41
456.54	4313.61
456.73	4245.73
456.91	4313.61
457.09	4337.01
457.28	4397.87
457.46	4505.53
457.64	4297.22
457.83	4280.84
458.01	4344.03
458.19	4519.57
458.38	4454.04
458.56	4517.23
458.74	4334.67
458.93	4421.27
459.11	4444.68
459.29	4397.87
459.48	4468.08
459.66	4585.11
459.84	4585.11
460.03	4765.33
460.21	4636.60
460.39	4599.15
460.57	4484.47
460.76	4454.04
460.94	4699.80
461.12	4526.60
461.31	4643.62
461.49	4664.69
461.67	4596.81
461.85	4751.29
462.04	4800.44
462.22	4985.34
462.40	4641.28
462.59	4720.86
462.77	4835.55
462.95	4957.25
463.13	4870.65
463.32	4915.12
463.50	4844.91
463.68	4912.78
463.86	4964.28
464.05	4884.70
464.23	4875.34
464.41	4901.08
464.59	4697.46
464.78	5055.56
464.96	4968.96
465.14	4819.16
465.32	5121.09
465.50	5207.69
465.69	4997.04
465.87	4997.04
466.05	5102.37
466.23	5004.07
466.41	5128.11
466.60	5289.61
466.78	5083.64
466.96	5020.45
467.14	5205.35
467.32	5160.88
467.51	5074.28
467.69	5036.83
467.87	5210.03
468.05	5165.56
468.23	5062.58
468.41	5245.14
468.60	5177.26
468.78	5397.28
468.96	5226.42
469.14	5343.44
469.32	5455.79
469.50	5352.81
469.69	5427.70
469.87	5343.44
470.05	5408.98
470.23	5317.70
470.41	5439.40
470.59	5568.13
470.77	5467.49
470.95	5563.45
471.14	5551.75
471.32	5556.43
471.50	5631.33
471.68	5769.42
471.86	5544.73
472.04	5671.12
472.22	5717.93
472.40	5748.36
472.58	5706.23
472.77	5788.14
472.95	5891.13
473.13	6059.65
473.31	5771.76
473.49	6066.67
473.67	6045.60
473.85	5991.77
474.03	5935.60
474.21	6090.07
474.39	6150.93
474.57	6242.21
474.75	6221.14
474.93	6120.50
475.12	6232.85
475.30	6193.06
475.48	6274.98
475.66	6246.89
475.84	6228.17
476.02	6499.67
476.20	6410.73
476.38	6415.41
476.56	6576.91
476.74	6658.82
476.92	6406.05
477.10	6420.09
477.28	6647.12
477.46	6745.42
477.64	6773.51
477.82	6764.15
478.00	7014.59
478.18	7047.35
478.36	6965.43
478.54	7328.22
478.72	7098.84
478.90	7136.29
479.08	7122.25
479.26	7201.83
479.44	7510.78
479.62	7447.58
479.80	7405.46
479.98	7438.22
480.16	7676.96
480.34	7475.67
480.52	7719.09
480.70	7482.69
480.88	7791.64
481.06	7681.64
481.24	7627.81
481.41	7983.57
481.59	8191.88
481.77	7852.50
481.95	7920.37
482.13	8264.43
482.31	8145.06
482.49	8454.02
482.67	8540.61
482.85	8575.72
483.03	8608.49
483.21	8559.34
483.39	8692.75
483.57	8837.86
483.74	8741.90
483.92	8891.70
484.10	8688.07
484.28	9001.70
484.46	9025.11
484.64	9123.41
484.82	9137.45
485.00	9039.15
485.18	9327.03
485.35	9474.49
485.53	9582.15
485.71	9643.01
485.89	9825.57
486.07	9525.98
486.25	9542.36
486.43	9720.24
486.61	9914.51
486.78	10153.24
486.96	10134.52
487.14	10160.27
487.32	10155.58
487.50	10150.90
487.68	10356.87
487.85	10501.98
488.03	10377.94
488.21	10757.10
488.39	10780.51
488.57	10651.78
488.75	10726.68
488.92	10881.15
489.10	10925.62
489.28	10939.66
489.46	11117.54
489.64	11173.72
489.81	11253.30
489.99	11302.45
490.17	11300.11
490.35	11527.14
490.53	11613.74
490.70	11674.59
490.88	11943.75
491.06	12063.12
491.24	12004.61
491.41	11969.50
491.59	12056.10
491.77	12067.80
491.95	12395.48
492.13	12414.20
492.30	12414.20
492.48	12238.66
492.66	12666.98
492.84	12365.05
493.01	12439.95
493.19	12695.07
493.37	12828.48
493.54	12952.52
493.72	12933.80
493.90	12919.76
494.08	13069.55
494.25	13118.70
494.43	13111.68
494.61	13170.19
494.79	13563.40
494.96	13635.96
495.14	13497.87
495.32	13708.52
495.49	13781.07
495.67	13827.88
495.85	13905.12
496.02	14108.75
496.20	13970.66
496.38	14235.14
496.55	14195.35
496.73	14328.76
496.91	14230.46
497.09	14317.06
497.26	14520.68
497.44	14293.65
497.62	14651.75
497.79	14766.44
497.97	14647.07
498.14	14857.72
498.32	15133.90
498.50	14939.64
498.67	15117.52
498.85	15044.96
499.03	15307.10
499.20	15190.08
499.38	15243.91
499.56	15059.01
499.73	15330.51
499.91	15286.04
500.08	15477.96
500.26	15625.42
500.44	15927.35
500.61	15744.78
500.79	15749.46
500.97	15730.74
501.14	15726.06
501.32	16060.76
501.49	16035.01
501.67	15878.19
501.84	15894.58
502.02	16194.17
502.20	16196.51
502.37	16383.75
502.55	16194.17
502.72	16444.60
502.90	16453.97
503.07	16376.73
503.25	16067.78
503.43	16578.01
503.60	16847.18
503.78	16819.09
503.95	16709.08
504.13	16648.23
504.30	16655.25
504.48	16940.80
504.65	16781.64
504.83	17238.05
505.01	17158.47
505.18	17261.45
505.36	17231.02
505.53	17111.66
505.71	17315.28
505.88	17462.74
506.06	17167.83
506.23	17493.16
506.41	17647.64
506.58	17727.22
506.76	17549.34
506.93	17436.99
507.11	17666.36
507.28	17586.79
507.46	17893.40
507.63	18015.10
507.81	17994.04
507.98	17905.10
508.16	18118.09
508.33	18052.55
508.50	18106.38
508.68	18284.26
508.85	18317.03
509.03	18396.61
509.20	18520.66
509.38	18490.23
509.55	18445.76
509.73	18558.11
509.90	18583.85
510.08	18389.59
510.25	18640.03
510.42	18876.42
510.60	18824.93
510.77	18845.99
510.95	19157.28
511.12	18588.53
511.30	18785.14
511.47	18899.83
511.64	19056.64
511.82	19389.00
511.99	19215.80
512.17	19021.53
512.34	19262.61
512.51	19328.14
512.69	19417.08
512.86	19515.39
513.04	19264.95
513.21	19861.79
513.38	19655.82
513.56	19737.74
513.73	19644.12
513.90	20039.67
514.08	19606.67
514.25	19697.95
514.43	19817.32
514.60	19983.49
514.77	20184.78
514.95	20149.67
515.12	19988.18
515.29	19988.18
515.47	20292.44
515.64	19936.68
515.81	20357.98
515.99	20198.82
516.16	20589.69
516.33	20484.37
516.51	20414.15
516.68	20439.90
516.85	20669.27
517.03	20297.13
517.20	20760.55
517.37	20765.23
517.54	20992.26
517.72	20774.60
517.89	20500.75
518.06	21018.01
518.24	20666.93
518.41	20723.10
518.58	20704.38
518.75	21125.68
518.93	21106.95
519.10	21207.59
519.27	21247.38
519.45	20952.48
519.62	21350.37
519.79	20875.24
519.96	21652.30
520.14	21366.75
520.31	21252.06
520.48	21010.99
520.65	21649.96
520.83	21593.78
521.00	21549.31
521.17	21525.91
521.34	21500.16
521.52	21776.34
521.69	21792.73
521.86	21855.92
522.03	22094.66
522.20	22134.45
522.38	21956.57
522.55	22080.61
522.72	22040.82
522.89	22204.66
523.07	22490.21
523.24	22176.58
523.41	22136.79
523.58	22338.07
523.75	22293.60
523.92	22127.42
524.10	22228.07
524.27	22740.64
524.44	22731.28
524.61	22860.01
524.78	22726.60
524.96	22752.35
525.13	22665.75
525.30	22948.95
525.47	22677.45
525.64	22635.32
525.81	22845.97
525.98	23318.76
526.16	23208.75
526.33	23005.13
526.50	23388.97
526.67	22960.66
526.84	23321.10
527.01	23028.53
527.18	23421.74
527.36	23421.74
527.53	23388.97
527.70	23370.25
527.87	23239.18
528.04	23281.31
528.21	23735.37
528.38	23358.55
528.55	23690.90
528.72	23651.11
528.89	23737.71
529.07	23803.25
529.24	23606.64
529.41	23639.41
529.58	23726.01
529.75	24074.75
529.92	23711.97
530.09	23768.14
530.26	24037.30
530.43	24175.39
530.60	23840.70
530.77	23953.04
530.94	24292.42
531.11	24039.64
531.28	24018.58
531.46	24301.78
531.63	24175.39
531.80	24261.99
531.97	24245.61
532.14	24620.10
532.31	24222.20
532.48	24472.64
532.65	24800.32
532.82	24528.81
532.99	24273.70
533.16	24526.47
533.33	24430.51
533.50	24744.14
533.67	24968.84
533.84	24311.14
534.01	24379.02
534.18	24362.64
534.35	24980.54
534.52	24725.42
534.69	24929.05
534.86	24943.09
535.03	24910.32
535.20	25081.18
535.37	24830.74
535.54	25125.65
535.71	25039.05
535.88	24802.66
536.05	25025.01
536.22	25298.85
536.38	24999.26
536.55	25298.85
536.72	25441.62
536.89	25247.36
537.06	25163.10
537.23	25261.40
537.40	25446.30
537.57	25259.06
537.74	25507.16
537.91	25500.14
538.08	25383.11
538.25	25432.26
538.42	25207.57
538.59	25542.27
538.75	25338.64
538.92	25598.44
539.09	25902.71
539.26	25788.02
539.43	26225.70
539.60	25951.86
539.77	25663.97
539.94	26001.01
540.11	25867.60
540.28	25535.24
540.44	26038.46
540.61	25912.07
540.78	25685.04
540.95	25865.26
541.12	26073.57
541.29	25898.03
541.46	26078.25
541.62	26010.37
541.79	26136.76
541.96	25881.64
542.13	25895.69
542.30	26438.69
542.47	26026.76
542.63	26181.23
542.80	26466.78
542.97	26618.91
543.14	26600.19
543.31	26710.19
543.48	26370.82
543.64	27035.53
543.81	27000.42
543.98	27014.46
544.15	27044.89
544.32	26923.18
544.48	27271.92
544.65	26670.40
544.82	26801.47
544.99	26787.43
545.16	27047.23
545.32	27178.30
545.49	27009.78
545.66	27365.54
545.83	27381.93
546.00	27271.92
546.16	27182.98
546.33	26759.34
546.50	26813.18
546.67	27208.73
546.83	26693.81
547.00	27271.92
547.17	27140.85
547.34	26897.44
547.50	27047.23
547.67	27615.98
547.84	27395.97
548.00	27257.88
548.17	27695.56
548.34	27473.21
548.51	27410.01
548.67	27552.79
548.84	27761.09
549.01	27531.72
549.18	27173.62
549.34	27721.30
549.51	27538.74
549.68	27484.91
549.84	27662.79
550.01	27873.44
550.18	27669.81
550.34	27566.83
550.51	28018.55
550.68	27917.91
550.84	27718.96
551.01	27899.19
551.18	27395.97
551.34	27585.55
551.51	27508.32
551.68	27878.12
551.84	27997.49
552.01	27850.03
552.18	28163.67
552.34	27817.27
552.51	28634.11
552.68	28252.61
552.84	28112.17
553.01	28236.22
553.18	27971.74
553.34	28084.09
553.51	28250.27
553.67	27990.47
553.84	28264.31
554.01	28528.79
554.17	28659.86
554.34	28048.98
554.51	28386.02
554.67	28404.74
554.84	28140.26
555.00	28397.72
555.17	28603.69
555.33	28680.92
555.50	28746.46
555.67	28556.88
555.83	28591.98
556.00	28444.53
556.16	28884.55
556.33	28439.85
556.50	28786.25
556.66	28563.90
556.83	28765.18
556.99	28992.22
557.16	29034.35
557.32	29001.58
557.49	29081.16
557.65	28397.72
557.82	28900.94
557.98	28896.25
558.15	28608.37
558.32	28980.51
558.48	28561.56
558.65	28903.28
558.81	28943.06
558.98	28882.21
559.14	29418.19
559.31	28922.00
559.47	28980.51
559.64	28989.88
559.80	29104.56
559.97	29006.26
560.13	29069.45
560.30	29200.52
560.46	29303.51
560.63	29387.77
560.79	29259.04
560.96	29050.73
561.12	29467.34
561.29	28840.08
561.45	29244.99
561.61	29352.66
561.78	29165.42
561.94	29352.66
562.11	29305.85
562.27	29422.87
562.44	28842.42
562.60	29282.44
562.77	29032.00
562.93	28896.25
563.10	29537.56
563.26	29624.16
563.42	29874.60
563.59	29575.01
563.75	29563.31
563.92	29886.30
564.08	29535.22
564.24	29563.31
564.41	29219.25
564.57	29200.52
564.74	29244.99
564.90	29605.44
565.07	29514.16
565.23	29558.63
565.39	29467.34
565.56	29694.38
565.72	29347.98
565.88	29792.68
566.05	29387.77
566.21	29355.00
566.38	29385.43
566.54	29766.93
566.70	29888.64
566.87	29802.04
567.03	29532.88
567.19	29940.13
567.36	29759.91
567.52	29661.61
567.68	29832.47
567.85	30092.27
568.01	29865.24
568.17	29443.94
568.34	29841.83
568.50	29745.87
568.66	29935.45
568.83	30118.01
568.99	29905.02
569.15	29652.25
569.32	29560.97
569.48	29481.39
569.64	29954.18
569.81	29703.74
569.97	29869.92
570.13	29984.60
570.30	29713.10
570.46	30082.91
570.62	29848.85
570.78	29865.24
570.95	29589.05
571.11	30103.97
571.27	29752.89
571.43	29752.89
571.60	29888.64
571.76	29771.61
571.92	29841.83
572.09	30223.34
572.25	30448.03
572.41	29912.05
572.57	30066.52
572.74	29930.77
572.90	29766.93
573.06	30052.48
573.22	29928.43
573.38	29972.90
573.55	29738.85
573.71	30082.91
573.87	30232.70
574.03	30195.25
574.20	30003.33
574.36	30064.18
574.52	30047.80
574.68	30183.55
574.84	30202.27
575.01	30211.64
575.17	29673.31
575.33	29703.74
575.49	30209.29
575.65	30249.08
575.82	30319.30
575.98	30089.93
576.14	30094.61
576.30	30164.82
576.46	30106.31
576.62	29661.61
576.79	30148.44
576.95	30015.03
577.11	30094.61
577.27	30066.52
577.43	30286.53
577.59	30036.09
577.75	30146.10
577.92	30085.25
578.08	30050.14
578.24	30380.15
578.40	29949.50
578.56	29909.71
578.72	30600.16
578.88	30511.22
579.04	30242.06
579.21	29958.86
579.37	30340.36
579.53	30246.74
579.69	30005.67
579.85	30136.74
580.01	30239.72
580.17	30185.89
580.33	30169.51
580.49	30239.72
580.65	30260.79
580.82	30387.18
580.98	30267.81
581.14	30562.72
581.30	30190.57
581.46	30171.85
581.62	30223.34
581.78	30094.61
581.94	30581.44
582.10	30333.34
582.26	30375.47
582.42	30761.66
582.58	30209.29
582.74	30017.37
582.90	30361.43
583.06	30284.19
583.22	30073.54
583.38	30370.79
583.54	30223.34
583.70	30265.47
583.86	30424.62
584.02	30487.82
584.18	30731.23
584.34	30242.06
584.50	30553.35
584.66	30181.21
584.82	30415.26
584.98	30431.65
585.14	30192.91
585.30	30141.42
585.46	30150.78
585.62	30225.68
585.78	30452.71
585.94	30085.25
586.10	30693.79
586.26	30494.84
586.42	30382.49
586.58	30513.56
586.74	30352.07
586.90	30221.00
587.06	30057.16
587.22	30761.66
587.38	30092.27
587.54	30370.79
587.70	30768.68
587.86	30583.78
588.02	30904.43
588.18	30850.60
588.34	29989.28
588.49	30106.31
588.65	30778.04
588.81	30824.86
588.97	30490.16
589.13	30747.62
589.29	30452.71
589.45	30581.44
589.61	30520.59
589.77	31021.46
589.93	30785.07
590.08	30801.45
590.24	30567.40
590.40	30726.55
590.56	30586.12
590.72	30433.99
590.88	30651.66
591.04	30546.33
591.20	30806.13
591.35	30864.64
591.51	31143.17
591.67	30820.17
591.83	30705.49
591.99	30991.03
