SpectraSuite Data File
++++++++++++++++++++++++++++++++++++
Date: Fri Oct 18 13:58:15 GMT-05:00 2013
User: bianchi
Dark Spectrum Present: No
Reference Spectrum Present: No
Number of Sampled Component Spectra: 1
Spectrometers: USB2+H05261
Integration Time (usec): 50000 (USB2+H05261)
Spectra Averaged: 1 (USB2+H05261)
Boxcar Smoothing: 0 (USB2+H05261)
Correct for Electrical Dark: No (USB2+H05261)
Strobe/Lamp Enabled: No (USB2+H05261)
Correct for Detector Non-linearity: No (USB2+H05261)
Correct for Stray Light: No (USB2+H05261)
Number of Pixels in Processed Spectrum: 2048
>>>>>Begin Processed Spectral Data<<<<<
365.73	0.00
365.92	0.00
366.12	0.00
366.32	0.00
366.52	0.00
366.72	0.00
366.91	0.00
367.11	0.00
367.31	0.00
367.51	0.00
367.70	0.00
367.90	0.00
368.10	0.00
368.30	0.00
368.49	0.00
368.69	0.00
368.89	0.00
369.09	0.00
369.28	0.00
369.48	0.00
369.68	0.00
369.87	0.00
370.07	0.00
370.27	0.00
370.47	0.00
370.66	51.49
370.86	70.22
371.06	166.18
371.25	145.11
371.45	53.83
371.65	177.88
371.84	121.71
372.04	161.50
372.24	177.88
372.44	138.09
372.63	201.29
372.83	257.46
373.03	161.50
373.22	234.05
373.42	166.18
373.62	320.65
373.81	145.11
374.01	173.20
374.21	271.50
374.40	243.42
374.60	297.25
374.79	252.78
374.99	187.24
375.19	217.67
375.38	196.60
375.58	222.35
375.78	271.50
375.97	262.14
376.17	304.27
376.37	245.76
376.56	229.37
376.76	301.93
376.95	245.76
377.15	262.14
377.35	227.03
377.54	362.78
377.74	241.08
377.93	227.03
378.13	257.46
378.33	294.91
378.52	255.12
378.72	283.20
378.91	379.17
379.11	259.80
379.31	337.04
379.50	280.86
379.70	327.68
379.89	327.68
380.09	264.48
380.28	330.02
380.48	285.55
380.68	311.29
380.87	287.89
381.07	259.80
381.26	367.46
381.46	287.89
381.65	334.70
381.85	332.36
382.04	271.50
382.24	355.76
382.43	301.93
382.63	332.36
382.83	299.59
383.02	358.10
383.22	332.36
383.41	292.57
383.61	360.44
383.80	451.72
384.00	477.47
384.19	442.36
384.39	341.72
384.58	411.93
384.78	311.29
384.97	362.78
385.17	386.19
385.36	292.57
385.56	404.91
385.75	402.57
385.95	339.38
386.14	369.80
386.34	313.63
386.53	353.42
386.72	447.04
386.92	400.23
387.11	400.23
387.31	435.34
387.50	470.45
387.70	383.85
387.89	369.80
388.09	454.06
388.28	337.04
388.48	299.59
388.67	491.51
388.86	500.87
389.06	470.45
389.25	381.51
389.45	489.17
389.64	465.77
389.84	500.87
390.03	477.47
390.22	486.83
390.42	402.57
390.61	512.58
390.81	470.45
391.00	440.02
391.19	440.02
391.39	447.04
391.58	498.53
391.78	540.66
391.97	500.87
392.16	531.30
392.36	582.79
392.55	442.36
392.75	559.39
392.94	575.77
393.13	528.96
393.33	559.39
393.52	557.05
393.71	589.82
393.91	603.86
394.10	564.07
394.29	493.85
394.49	552.37
394.68	552.37
394.88	627.26
395.07	561.73
395.26	561.73
395.46	599.18
395.65	557.05
395.84	627.26
396.04	638.97
396.23	610.88
396.42	671.73
396.62	638.97
396.81	683.44
397.00	734.93
397.19	620.24
397.39	655.35
397.58	629.60
397.77	697.48
397.97	645.99
398.16	655.35
398.35	760.67
398.55	601.52
398.74	709.18
398.93	699.82
399.12	737.27
399.32	704.50
399.51	688.12
399.70	727.91
399.90	692.80
400.09	777.06
400.28	823.87
400.47	746.63
400.67	746.63
400.86	716.20
401.05	744.29
401.24	695.14
401.44	777.06
401.63	793.44
401.82	777.06
402.01	781.74
402.21	819.19
402.40	840.25
402.59	816.85
402.78	823.87
402.97	713.86
403.17	851.96
403.36	779.40
403.55	851.96
403.74	866.00
403.93	915.15
404.13	858.98
404.32	826.21
404.51	997.07
404.70	919.83
404.89	917.49
405.09	987.71
405.28	842.59
405.47	933.87
405.66	964.30
405.85	945.58
406.05	936.21
406.24	987.71
406.43	1006.43
406.62	994.73
406.81	1020.47
407.00	1074.31
407.20	1025.15
407.39	1043.88
407.58	1057.92
407.77	1036.86
407.96	1050.90
408.15	1050.90
408.34	1036.86
408.54	1093.03
408.73	1055.58
408.92	1116.44
409.11	997.07
409.30	1083.67
409.49	1196.01
409.68	1149.20
409.87	1153.88
410.07	1219.42
410.26	1149.20
410.45	1167.93
410.64	1193.67
410.83	1186.65
411.02	1273.25
411.21	1254.53
411.40	1167.93
411.59	1261.55
411.78	1240.48
411.98	1270.91
412.17	1259.21
412.36	1252.19
412.55	1341.13
412.74	1275.59
412.93	1413.68
413.12	1301.34
413.31	1401.98
413.50	1383.26
413.69	1444.11
413.88	1472.20
414.07	1467.52
414.26	1401.98
414.45	1345.81
414.64	1586.88
414.83	1467.52
415.02	1453.47
415.22	1570.50
415.41	1500.28
415.60	1619.65
415.79	1537.73
415.98	1652.42
416.17	1586.88
416.36	1619.65
416.55	1575.18
416.74	1652.42
416.93	1624.33
417.12	1727.32
417.31	1675.82
417.50	1692.21
417.69	1657.10
417.88	1689.87
418.07	1713.27
418.26	1596.25
418.45	1680.50
418.64	1781.15
418.83	1820.94
419.02	1746.04
419.21	1839.66
419.39	1809.23
419.58	1802.21
419.77	1820.94
419.96	1757.74
420.15	1879.45
420.34	1881.79
420.53	1881.79
420.72	1872.43
420.91	1898.17
421.10	1956.69
421.29	1956.69
421.48	1930.94
421.67	1942.64
421.86	1956.69
422.05	1947.33
422.24	1940.30
422.43	1980.09
422.61	1928.60
422.80	2015.20
422.99	2024.56
423.18	1984.77
423.37	2085.42
423.56	2029.24
423.75	2012.86
423.94	1998.82
424.13	1907.54
424.32	1930.94
424.50	2031.58
424.69	2139.25
424.88	2150.95
425.07	1991.80
425.26	1952.01
425.45	2165.00
425.64	2085.42
425.83	2040.95
426.01	2024.56
426.20	1963.71
426.39	2026.90
426.58	2064.35
426.77	2066.69
426.96	2134.57
427.15	2078.40
427.33	2022.22
427.52	2064.35
427.71	2097.12
427.90	2062.01
428.09	2127.55
428.28	2162.66
428.46	2218.83
428.65	2317.13
428.84	2195.42
429.03	2289.04
429.22	2155.63
429.40	2160.31
429.59	2263.30
429.78	2214.15
429.97	2104.14
430.16	2242.23
430.34	2370.96
430.53	2366.28
430.72	2204.78
430.91	2338.20
431.10	2401.39
431.28	2452.88
431.47	2459.90
431.66	2303.09
431.85	2483.31
432.03	2511.39
432.22	2471.61
432.41	2382.67
432.60	2560.55
432.79	2413.09
432.97	2368.62
433.16	2579.27
433.35	2443.52
433.54	2455.22
433.72	2579.27
433.91	2523.10
434.10	2525.44
434.28	2539.48
434.47	2553.52
434.66	2663.53
434.85	2523.10
435.03	2628.42
435.22	2483.31
435.41	2663.53
435.59	2588.63
435.78	2644.81
435.97	2630.76
436.16	2724.38
436.34	2647.15
436.53	2764.17
436.72	2759.49
436.90	2640.12
437.09	2848.43
437.28	2633.10
437.46	2679.91
437.65	2656.51
437.84	2775.88
438.02	2759.49
438.21	2752.47
438.40	2738.43
438.58	2789.92
438.77	2923.33
438.96	2834.39
439.14	2850.77
439.33	2920.99
439.52	2967.80
439.70	2920.99
439.89	2981.84
440.08	3030.99
440.26	3101.21
440.45	3059.08
440.63	2981.84
440.82	3171.43
441.01	3122.27
441.19	3101.21
441.38	3204.19
441.57	3176.11
441.75	3173.77
441.94	3283.77
442.12	3213.56
442.31	3265.05
442.50	3241.64
442.68	3281.43
442.87	3206.53
443.05	3389.10
443.24	3445.27
443.43	3412.50
443.61	3344.63
443.80	3456.97
443.98	3391.44
444.17	3318.88
444.35	3447.61
444.54	3475.70
444.73	3379.73
444.91	3414.84
445.10	3363.35
445.28	3356.33
445.47	3349.31
445.65	3482.72
445.84	3456.97
446.02	3522.51
446.21	3545.91
446.39	3412.50
446.58	3496.76
446.77	3421.86
446.95	3435.91
447.14	3349.31
447.32	3475.70
447.51	3414.84
447.69	3375.05
447.88	3543.57
448.06	3410.16
448.25	3510.80
448.43	3527.19
448.62	3651.24
448.80	3531.87
448.99	3569.32
449.17	3609.11
449.36	3632.51
449.54	3676.98
449.73	3740.18
449.91	3700.39
450.10	3658.26
450.28	3920.40
450.46	3737.84
450.65	3801.03
450.83	3840.82
451.02	3681.66
451.20	3735.50
451.39	3733.15
451.57	3789.33
451.76	3721.45
451.94	3726.13
452.13	3761.24
452.31	3927.42
452.49	3878.27
452.68	3955.51
452.86	3934.44
453.05	3871.25
453.23	4044.45
453.42	3920.40
453.60	3836.14
453.78	3927.42
453.97	3906.35
454.15	3946.14
454.34	3969.55
454.52	4021.04
454.70	4095.94
454.89	4060.83
455.07	4154.45
455.26	3985.93
455.44	4063.17
455.62	3967.21
455.81	4264.46
455.99	4042.11
456.17	4135.73
456.36	4095.94
456.54	4154.45
456.73	4280.84
456.91	4262.12
457.09	4297.22
457.28	4320.63
457.46	4297.22
457.64	4287.86
457.83	4287.86
458.01	4358.08
458.19	4355.74
458.38	4311.27
458.56	4489.15
458.74	4540.64
458.93	4554.68
459.11	4341.69
459.29	4425.95
459.48	4535.96
459.66	4550.00
459.84	4498.51
460.03	4517.23
460.21	4554.68
460.39	4505.53
460.57	4308.93
460.76	4554.68
460.94	4664.69
461.12	4603.83
461.31	4533.62
461.49	4528.94
461.67	4557.02
461.85	4702.14
462.04	4784.06
462.22	4762.99
462.40	4695.11
462.59	4788.74
462.77	4812.14
462.95	4739.58
463.13	4681.07
463.32	4755.97
463.50	4725.54
463.68	4692.77
463.86	4758.31
464.05	4683.41
464.23	4835.55
464.41	4863.63
464.59	4741.93
464.78	5097.69
464.96	4929.17
465.14	4945.55
465.32	4954.91
465.50	4936.19
465.69	5062.58
465.87	4910.44
466.05	4929.17
466.23	4978.32
466.41	4994.70
466.60	5172.58
466.78	5020.45
466.96	4842.57
467.14	4901.08
467.32	5071.94
467.51	5085.98
467.69	4924.49
467.87	5083.64
468.05	5170.24
468.23	4924.49
468.41	5069.60
468.60	5198.33
468.78	5268.55
468.96	5144.50
469.14	5177.26
469.32	5245.14
469.50	5158.54
469.69	5432.38
469.87	5516.64
470.05	5427.70
470.23	5446.43
470.41	5315.36
470.59	5406.64
470.77	5446.43
470.95	5434.72
471.14	5572.82
471.32	5458.13
471.50	5563.45
471.68	5575.16
471.86	5657.07
472.04	5746.02
472.22	5710.91
472.40	5561.11
472.58	5628.99
472.77	5767.08
472.95	5671.12
473.13	6012.84
473.31	5767.08
473.49	5668.78
473.67	5643.03
473.85	5884.11
474.03	6038.58
474.21	5884.11
474.39	5996.45
474.57	5980.07
474.75	6162.63
474.93	6113.48
475.12	6113.48
475.30	6235.19
475.48	6176.67
475.66	6242.21
475.84	6157.95
476.02	6223.48
476.20	6303.06
476.38	6492.65
476.56	6750.10
476.74	6511.37
476.92	6541.80
477.10	6558.18
477.28	6560.52
477.46	6523.07
477.64	6700.95
477.82	6628.40
478.00	6998.20
478.18	7014.59
478.36	7005.22
478.54	7208.85
478.72	7131.61
478.90	7112.89
479.08	7073.10
479.26	7309.49
479.44	7307.15
479.62	7330.56
479.80	7363.33
479.98	7440.56
480.16	7517.80
480.34	7602.06
480.52	7557.59
480.70	7590.36
480.88	7672.28
481.06	7623.12
481.24	7578.65
481.41	7815.05
481.59	7896.97
481.77	8006.97
481.95	8093.57
482.13	8088.89
482.31	8285.50
482.49	8229.32
482.67	8042.08
482.85	8229.32
483.03	8381.46
483.21	8580.40
483.39	8631.90
483.57	8411.89
483.74	8608.49
483.92	8493.80
484.10	8622.53
484.28	8966.59
484.46	8999.36
484.64	9217.03
484.82	8784.03
485.00	9163.20
485.18	9097.66
485.35	9387.89
485.53	9540.02
485.71	9261.50
485.89	9708.54
486.07	9490.87
486.25	9481.51
486.43	9745.99
486.61	9774.08
486.78	10010.47
486.96	9806.84
487.14	9905.15
487.32	9912.17
487.50	10263.25
487.68	10225.80
487.85	10319.42
488.03	10335.81
488.21	10525.39
488.39	10787.53
488.57	10717.31
488.75	10558.16
488.92	10518.37
489.10	10834.34
489.28	11040.31
489.46	11192.44
489.64	10899.87
489.81	11218.19
489.99	11342.24
490.17	11066.05
490.35	11391.39
490.53	11435.86
490.70	11712.04
490.88	11623.10
491.06	11833.75
491.24	11719.06
491.41	11910.99
491.59	11871.20
491.77	12112.27
491.95	12201.21
492.13	12044.40
492.30	12184.83
492.48	12507.82
492.66	12262.07
492.84	12325.26
493.01	12540.59
493.19	12697.41
493.37	12819.11
493.54	12549.95
493.72	13039.12
493.90	12966.57
494.08	12898.69
494.25	12982.95
494.43	13317.65
494.61	13418.29
494.79	13200.62
494.96	13420.63
495.14	13415.95
495.32	13614.90
495.49	13497.87
495.67	13514.25
495.85	13603.19
496.02	13844.27
496.20	13841.93
496.38	13895.76
496.55	13891.08
496.73	14438.76
496.91	14015.13
497.09	14160.24
497.26	14394.29
497.44	14370.89
497.62	14312.38
497.79	14291.31
497.97	14251.52
498.14	14560.47
498.32	14759.42
498.50	14846.02
498.67	14991.13
498.85	14956.02
499.03	14916.23
499.20	15150.29
499.38	15183.06
499.56	15138.58
499.73	15037.94
499.91	15527.11
500.08	15047.30
500.26	15190.08
500.44	14944.32
500.61	15260.29
500.79	15419.45
500.97	15723.72
501.14	15943.73
501.32	15765.85
501.49	15824.36
501.67	15948.41
501.84	15857.13
502.02	15838.41
502.20	15843.09
502.37	16248.00
502.55	15913.30
502.72	16018.63
502.90	16372.05
503.07	16259.70
503.25	16182.46
503.43	16037.35
503.60	16549.93
503.78	16664.61
503.95	16563.97
504.13	16505.46
504.30	16493.76
504.48	16783.98
504.65	16671.64
504.83	16938.46
505.01	17181.87
505.18	16819.09
505.36	16840.15
505.53	17156.13
505.71	16730.15
505.88	17022.72
506.06	17114.00
506.23	17245.07
506.41	17212.30
506.58	17460.40
506.76	17458.06
506.93	17315.28
507.11	17401.88
507.28	17558.70
507.46	17238.05
507.63	17781.05
507.81	17933.18
507.98	17664.02
508.16	18181.28
508.33	17792.75
508.50	17804.46
508.68	17841.90
508.85	18443.42
509.03	17972.97
509.20	18038.51
509.38	18515.98
509.55	18431.72
509.73	18120.43
509.90	18244.48
510.08	18242.14
510.25	18253.84
510.42	18864.72
510.60	18497.25
510.77	18621.30
510.95	18785.14
511.12	18380.23
511.30	18867.06
511.47	18733.65
511.64	18813.23
511.82	19316.44
511.99	18817.91
512.17	18841.31
512.34	18956.00
512.51	19367.93
512.69	19082.39
512.86	19222.82
513.04	19360.91
513.21	19534.11
513.38	19592.62
513.56	19466.24
513.73	19278.99
513.90	19529.43
514.08	19412.40
514.25	19676.88
514.43	19454.53
514.60	19707.31
514.77	19548.15
514.95	19960.09
515.12	19885.19
515.29	19711.99
515.47	19829.02
515.64	19999.88
515.81	20114.56
515.99	20102.86
516.16	20500.75
516.33	19892.21
516.51	19983.49
516.68	20182.44
516.85	20163.72
517.03	20095.84
517.20	20620.12
517.37	20435.22
517.54	20381.38
517.72	20517.14
517.89	20531.18
518.06	20723.10
518.24	20896.30
518.41	20629.48
518.58	20652.89
518.75	20587.35
518.93	21137.38
519.10	20989.92
519.27	21010.99
519.45	20896.30
519.62	20671.61
519.79	20851.83
519.96	21177.17
520.14	21231.00
520.31	21020.35
520.48	21270.79
520.65	20912.69
520.83	21167.80
521.00	21263.77
521.17	21153.76
521.34	21563.36
521.52	21261.43
521.69	21565.70
521.86	21383.13
522.03	21827.84
522.20	21666.34
522.38	21884.01
522.55	21846.56
522.72	21546.97
522.89	21841.88
523.07	22040.82
523.24	22036.14
523.41	22253.81
523.58	21977.63
523.75	22050.19
523.92	22274.88
524.10	22302.96
524.27	22256.15
524.44	22300.62
524.61	22122.74
524.78	21989.33
524.96	22417.65
525.13	22466.80
525.30	22256.15
525.47	22609.58
525.64	22309.99
525.81	22628.30
525.98	22766.39
526.16	22731.28
526.33	22738.30
526.50	23049.60
526.67	22682.13
526.84	22588.51
527.01	22567.45
527.18	22668.09
527.36	22803.84
527.53	23559.83
527.70	23648.77
527.87	23634.73
528.04	23087.04
528.21	23087.04
528.38	23147.90
528.55	23487.28
528.72	23398.34
528.89	23337.48
529.07	23634.73
529.24	23222.80
529.41	23438.12
529.58	23608.98
529.75	23194.71
529.92	23953.04
530.09	23714.31
530.26	23356.21
530.43	23531.75
530.60	23438.12
530.77	23515.36
530.94	24079.43
531.11	23646.43
531.28	23440.47
531.46	23953.04
531.63	24189.44
531.80	24074.75
531.97	23978.79
532.14	23920.28
532.31	23711.97
532.48	24081.77
532.65	24287.74
532.82	24198.80
532.99	23880.49
533.16	23990.49
533.33	24456.26
533.50	24414.13
533.67	24109.86
533.84	24334.55
534.01	24414.13
534.18	23931.98
534.35	24432.85
534.52	24554.56
534.69	24603.71
534.86	24795.64
535.03	24320.51
535.20	24683.29
535.37	24706.70
535.54	24498.39
535.71	24353.27
535.88	24912.66
536.05	24390.72
536.22	24947.77
536.38	25109.27
536.55	25069.48
536.72	24734.78
536.89	24966.49
537.06	24947.77
537.23	25282.47
537.40	24748.82
537.57	25083.52
537.74	24947.77
537.91	24973.52
538.08	25167.78
538.25	24723.08
538.42	25113.95
538.59	25582.06
538.75	24987.56
538.92	24907.98
539.09	25261.40
539.26	25385.45
539.43	25905.05
539.60	25432.26
539.77	25603.12
539.94	25895.69
540.11	25406.52
540.28	25652.27
540.44	25628.87
540.61	25434.60
540.78	25656.95
540.95	25525.88
541.12	25668.66
541.29	25671.00
541.46	25979.95
541.62	25685.04
541.79	25738.87
541.96	25607.80
542.13	25872.28
542.30	25694.40
542.47	26244.43
542.63	26202.30
542.80	26256.13
542.97	26242.09
543.14	26113.36
543.31	26061.87
543.48	26080.59
543.64	26314.64
543.81	26480.82
543.98	26274.85
544.15	26251.45
544.32	26443.37
544.48	26698.49
544.65	26888.07
544.82	26480.82
544.99	26157.83
545.16	26443.37
545.32	26370.82
545.49	26817.86
545.66	26698.49
545.83	26733.60
546.00	26757.00
546.16	26639.98
546.33	26466.78
546.50	26218.68
546.67	26895.10
546.83	26593.17
547.00	27194.68
547.17	26595.51
547.34	26782.75
547.50	27056.59
547.67	27515.34
547.84	26937.23
548.00	26841.26
548.17	27171.28
548.34	27363.20
548.51	27318.73
548.67	27468.53
548.84	27091.70
549.01	27281.28
549.18	27323.41
549.34	27346.82
549.51	27491.93
549.68	26991.06
549.84	27131.49
550.01	27473.21
550.18	27105.74
550.34	27351.50
550.51	27559.81
550.68	27634.71
550.84	27269.58
551.01	27517.68
551.18	27110.43
551.34	27381.93
551.51	27311.71
551.68	27417.04
551.84	27445.12
552.01	27522.36
552.18	27814.93
552.34	27878.12
552.51	27754.07
552.68	27601.94
552.84	27681.52
553.01	27789.18
553.18	27901.53
553.34	27943.66
553.51	27814.93
553.67	28163.67
553.84	27974.08
554.01	28016.21
554.17	28166.01
554.34	27866.42
554.51	27550.45
554.67	28039.62
554.84	27728.33
555.00	28329.84
555.17	28116.86
555.33	28388.36
555.50	28547.51
555.67	28098.13
555.83	28065.36
556.00	28084.09
556.16	28189.41
556.33	28243.24
556.50	28336.87
556.66	28596.67
556.83	28004.51
556.99	28400.06
557.16	28952.43
557.32	28594.32
557.49	28247.93
557.65	28107.49
557.82	28100.47
557.98	28425.81
558.15	28290.06
558.32	28599.01
558.48	28409.42
558.65	28481.98
558.81	28706.67
558.98	28339.21
559.14	28627.09
559.31	28259.63
559.47	28463.25
559.64	28758.16
559.80	28727.74
559.97	28772.21
560.13	28774.55
560.30	28692.63
560.46	28699.65
560.63	28781.57
560.79	28641.14
560.96	28547.51
561.12	28418.78
561.29	28528.79
561.45	28652.84
561.61	29010.94
561.78	28809.65
561.94	28584.96
562.11	28919.66
562.27	29209.89
562.44	28912.64
562.60	29209.89
562.77	28910.30
562.93	28898.59
563.10	29003.92
563.26	28727.74
563.42	29436.92
563.59	29205.20
563.75	29034.35
563.92	29191.16
564.08	28889.23
564.24	29003.92
564.41	28542.83
564.57	28992.22
564.74	29095.20
564.90	29207.55
565.07	28673.90
565.23	28940.72
565.39	28842.42
565.56	29069.45
565.72	28924.34
565.88	29022.64
566.05	29050.73
566.21	29240.31
566.38	29170.10
566.54	29076.48
566.70	29427.56
566.87	29317.55
567.03	29296.49
567.19	29563.31
567.36	29394.79
567.52	29205.20
567.68	29373.72
567.85	29174.78
568.01	29411.17
568.17	29240.31
568.34	29308.19
568.50	29139.67
568.66	29329.25
568.83	29230.95
568.99	29319.89
569.15	29425.22
569.32	29207.55
569.48	29043.71
569.64	29586.71
569.81	29111.58
569.97	29230.95
570.13	29656.93
570.30	29387.77
570.46	29415.85
570.62	29340.96
570.78	29425.22
570.95	29240.31
571.11	29397.13
571.27	29413.51
571.43	29001.58
571.60	29446.28
571.76	29514.16
571.92	29432.24
572.09	29280.10
572.25	29748.21
572.41	29816.08
572.57	29762.25
572.74	29788.00
572.90	29762.25
573.06	29647.57
573.22	29303.51
573.38	29397.13
573.55	29106.90
573.71	29750.55
573.87	29893.32
574.03	29516.50
574.20	29408.83
574.36	29230.95
574.52	29378.40
574.68	29635.86
574.84	29465.00
575.01	29483.73
575.17	29605.44
575.33	29628.84
575.49	29142.01
575.65	29759.91
575.82	29823.11
575.98	29661.61
576.14	29579.69
576.30	29500.11
576.46	29589.05
576.62	29397.13
576.79	29755.23
576.95	29605.44
577.11	29558.63
577.27	29247.33
577.43	29989.28
577.59	29226.27
577.75	29759.91
577.92	29535.22
578.08	29577.35
578.24	29317.55
578.40	29799.70
578.56	29495.43
578.72	29607.78
578.88	30125.04
579.04	29947.15
579.21	29591.39
579.37	29642.88
579.53	30106.31
579.69	29516.50
579.85	29661.61
580.01	29958.86
580.17	29741.19
580.33	29790.34
580.49	29921.41
580.65	29443.94
580.82	29764.59
580.98	30115.67
581.14	30106.31
581.30	30164.82
581.46	29661.61
581.62	29993.97
581.78	29457.98
581.94	29869.92
582.10	29598.41
582.26	29497.77
582.42	30068.86
582.58	29720.12
582.74	29614.80
582.90	29776.30
583.06	30054.82
583.22	29914.39
583.38	29528.20
583.54	29879.28
583.70	29502.45
583.86	29844.17
584.02	29731.83
584.18	29790.34
584.34	29631.18
584.50	30120.35
584.66	29579.69
584.82	29958.86
584.98	30235.04
585.14	29923.75
585.30	29558.63
585.46	30043.12
585.62	29916.73
585.78	30054.82
585.94	29991.62
586.10	30333.34
586.26	30096.95
586.42	29869.92
586.58	29961.20
586.74	29731.83
586.90	29937.79
587.06	29699.06
587.22	29823.11
587.38	29488.41
587.54	29755.23
587.70	30089.93
587.86	30008.01
588.02	30174.19
588.18	30384.83
588.34	29919.07
588.49	30302.92
588.65	30073.54
588.81	30078.22
588.97	29898.00
589.13	30118.01
589.29	30160.14
589.45	30010.35
589.61	29982.26
589.77	29844.17
589.93	30600.16
590.08	30195.25
590.24	30359.09
590.40	30307.60
590.56	29963.54
590.72	29893.32
590.88	29900.34
591.04	30155.46
591.20	29998.65
591.35	30581.44
591.51	30223.34
591.67	30256.11
591.83	30185.89
591.99	30459.73
