SpectraSuite Data File
++++++++++++++++++++++++++++++++++++
Date: Fri Oct 18 13:58:14 GMT-05:00 2013
User: bianchi
Dark Spectrum Present: No
Reference Spectrum Present: No
Number of Sampled Component Spectra: 1
Spectrometers: USB2+H05261
Integration Time (usec): 50000 (USB2+H05261)
Spectra Averaged: 1 (USB2+H05261)
Boxcar Smoothing: 0 (USB2+H05261)
Correct for Electrical Dark: No (USB2+H05261)
Strobe/Lamp Enabled: No (USB2+H05261)
Correct for Detector Non-linearity: No (USB2+H05261)
Correct for Stray Light: No (USB2+H05261)
Number of Pixels in Processed Spectrum: 2048
>>>>>Begin Processed Spectral Data<<<<<
365.73	0.00
365.92	0.00
366.12	0.00
366.32	0.00
366.52	0.00
366.72	0.00
366.91	0.00
367.11	0.00
367.31	0.00
367.51	0.00
367.70	0.00
367.90	0.00
368.10	0.00
368.30	0.00
368.49	0.00
368.69	0.00
368.89	0.00
369.09	0.00
369.28	0.00
369.48	0.00
369.68	0.00
369.87	0.00
370.07	0.00
370.27	0.00
370.47	0.00
370.66	74.90
370.86	74.90
371.06	100.64
371.25	159.16
371.45	133.41
371.65	217.67
371.84	65.54
372.04	88.94
372.24	175.54
372.44	177.88
372.63	194.26
372.83	205.97
373.03	170.86
373.22	154.48
373.42	177.88
373.62	259.80
373.81	191.92
374.01	184.90
374.21	196.60
374.40	170.86
374.60	266.82
374.79	334.70
374.99	273.84
375.19	203.63
375.38	215.33
375.58	196.60
375.78	278.52
375.97	215.33
376.17	325.33
376.37	243.42
376.56	271.50
376.76	180.22
376.95	271.50
377.15	250.44
377.35	287.89
377.54	297.25
377.74	257.46
377.93	212.99
378.13	294.91
378.33	334.70
378.52	217.67
378.72	248.10
378.91	393.21
379.11	231.71
379.31	308.95
379.50	327.68
379.70	360.44
379.89	332.36
380.09	269.16
380.28	264.48
380.48	327.68
380.68	280.86
380.87	344.06
381.07	327.68
381.26	315.97
381.46	374.49
381.65	266.82
381.85	294.91
382.04	332.36
382.24	304.27
382.43	280.86
382.63	337.04
382.83	334.70
383.02	334.70
383.22	393.21
383.41	374.49
383.61	388.53
383.80	423.64
384.00	294.91
384.19	353.42
384.39	322.99
384.58	348.74
384.78	341.72
384.97	447.04
385.17	351.08
385.36	332.36
385.56	341.72
385.75	341.72
385.95	372.15
386.14	425.98
386.34	409.59
386.53	418.96
386.72	402.57
386.92	470.45
387.11	444.70
387.31	325.33
387.50	379.17
387.70	322.99
387.89	451.72
388.09	437.68
388.28	407.25
388.48	390.87
388.67	444.70
388.86	393.21
389.06	395.55
389.25	365.12
389.45	447.04
389.64	437.68
389.84	435.34
390.03	442.36
390.22	519.60
390.42	433.00
390.61	477.47
390.81	543.00
391.00	535.98
391.19	528.96
391.39	575.77
391.58	447.04
391.78	510.24
391.97	575.77
392.16	461.09
392.36	578.11
392.55	561.73
392.75	505.56
392.94	510.24
393.13	491.51
393.33	552.37
393.52	575.77
393.71	606.20
393.91	538.32
394.10	526.62
394.29	627.26
394.49	566.41
394.68	550.03
394.88	564.07
395.07	486.83
395.26	606.20
395.46	594.50
395.65	624.92
395.84	692.80
396.04	690.46
396.23	624.92
396.42	671.73
396.62	692.80
396.81	620.24
397.00	685.78
397.19	699.82
397.39	671.73
397.58	660.03
397.77	606.20
397.97	587.47
398.16	699.82
398.35	653.01
398.55	727.91
398.74	720.88
398.93	748.97
399.12	636.63
399.32	674.07
399.51	688.12
399.70	718.54
399.90	751.31
400.09	753.65
400.28	713.86
400.47	706.84
400.67	737.27
400.86	793.44
401.05	760.67
401.24	725.57
401.44	802.80
401.63	800.46
401.82	758.33
402.01	767.70
402.21	812.17
402.40	882.38
402.59	755.99
402.78	765.36
402.97	805.14
403.17	812.17
403.36	758.33
403.55	912.81
403.74	922.17
403.93	997.07
404.13	847.27
404.32	858.98
404.51	840.25
404.70	875.36
404.89	842.59
405.09	910.47
405.28	987.71
405.47	933.87
405.66	917.49
405.85	896.43
406.05	980.68
406.24	1004.09
406.43	940.90
406.62	1043.88
406.81	1027.50
407.00	903.45
407.20	999.41
407.39	1018.13
407.58	1083.67
407.77	1022.81
407.96	971.32
408.15	1074.31
408.34	1107.07
408.54	1088.35
408.73	1074.31
408.92	1004.09
409.11	1132.82
409.30	1130.48
409.49	1160.91
409.68	1088.35
409.87	1123.46
410.07	1086.01
410.26	1196.01
410.45	1142.18
410.64	1242.82
410.83	1212.40
411.02	1170.27
411.21	1263.89
411.40	1198.35
411.59	1266.23
411.78	1240.48
411.98	1247.51
412.17	1284.95
412.36	1231.12
412.55	1284.95
412.74	1306.02
412.93	1357.51
413.12	1254.53
413.31	1434.75
413.50	1310.70
413.69	1380.92
413.88	1502.62
414.07	1474.54
414.26	1427.73
414.45	1322.40
414.64	1441.77
414.83	1411.34
415.02	1460.49
415.22	1413.68
415.41	1530.71
415.60	1502.62
415.79	1554.12
415.98	1554.12
416.17	1586.88
416.36	1703.91
416.55	1685.19
416.74	1605.61
416.93	1603.27
417.12	1664.12
417.31	1584.54
417.50	1755.40
417.69	1760.08
417.88	1827.96
418.07	1689.87
418.26	1743.70
418.45	1706.25
418.64	1788.17
418.83	1809.23
419.02	1837.32
419.21	1748.38
419.39	1790.51
419.58	1813.92
419.77	1952.01
419.96	1865.41
420.15	1865.41
420.34	1865.41
420.53	1715.61
420.72	1870.09
420.91	1774.13
421.10	1902.86
421.29	1996.48
421.48	1851.36
421.67	1961.37
421.86	2057.33
422.05	1926.26
422.24	1884.13
422.43	1823.28
422.61	1996.48
422.80	2005.84
422.99	2050.31
423.18	1977.75
423.37	1994.14
423.56	2108.82
423.75	1996.48
423.94	1900.52
424.13	1886.47
424.32	1877.11
424.50	2106.48
424.69	1994.14
424.88	2054.99
425.07	2029.24
425.26	2073.71
425.45	1968.39
425.64	1970.73
425.83	2062.01
426.01	2015.20
426.20	2078.40
426.39	2029.24
426.58	2092.44
426.77	2092.44
426.96	2059.67
427.15	1898.17
427.33	2113.50
427.52	2115.84
427.71	2162.66
427.90	2101.80
428.09	2064.35
428.28	2080.74
428.46	2134.57
428.65	2216.49
428.84	2190.74
429.03	2228.19
429.22	2167.34
429.40	2129.89
429.59	2251.60
429.78	2087.76
429.97	2244.57
430.16	2279.68
430.34	2263.30
430.53	2352.24
430.72	2253.94
430.91	2335.85
431.10	2359.26
431.28	2410.75
431.47	2424.80
431.66	2452.88
431.85	2275.00
432.03	2380.32
432.22	2471.61
432.41	2321.81
432.60	2438.84
432.79	2413.09
432.97	2455.22
433.16	2490.33
433.35	2420.11
433.54	2452.88
433.72	2427.14
433.91	2518.42
434.10	2499.69
434.28	2443.52
434.47	2438.84
434.66	2527.78
434.85	2473.95
435.03	2630.76
435.22	2520.76
435.41	2654.17
435.59	2593.31
435.78	2635.44
435.97	2609.70
436.16	2661.19
436.34	2644.81
436.53	2745.45
436.72	2597.99
436.90	2525.44
437.09	2710.34
437.28	2537.14
437.46	2738.43
437.65	2717.36
437.84	2857.79
438.02	2759.49
438.21	2818.00
438.40	2661.19
438.58	2796.94
438.77	2747.79
438.96	2928.01
439.14	3012.27
439.33	2853.11
439.52	3016.95
439.70	2902.26
439.89	2974.82
440.08	2953.76
440.26	2928.01
440.45	3000.57
440.63	3049.72
440.82	3075.46
441.01	3162.06
441.19	3162.06
441.38	3070.78
441.57	3201.85
441.75	3185.47
441.94	3286.11
442.12	3346.97
442.31	3201.85
442.50	3293.13
442.68	3262.71
442.87	3218.24
443.05	3304.84
443.24	3389.10
443.43	3279.09
443.61	3332.92
443.80	3342.28
443.98	3412.50
444.17	3225.26
444.35	3426.54
444.54	3353.99
444.73	3438.25
444.91	3398.46
445.10	3487.40
445.28	3368.03
445.47	3332.92
445.65	3321.22
445.84	3571.66
446.02	3515.48
446.21	3452.29
446.39	3534.21
446.58	3438.25
446.77	3440.59
446.95	3325.90
447.14	3447.61
447.32	3445.27
447.51	3452.29
447.69	3473.36
447.88	3442.93
448.06	3538.89
448.25	3435.91
448.43	3555.27
448.62	3396.12
448.80	3386.76
448.99	3454.63
449.17	3492.08
449.36	3602.08
449.54	3742.52
449.73	3730.81
449.91	3623.15
450.10	3744.86
450.28	3740.18
450.46	3786.99
450.65	3709.75
450.83	3571.66
451.02	3705.07
451.20	3763.58
451.39	3719.11
451.57	3651.24
451.76	3772.94
451.94	3758.90
452.13	3882.95
452.31	3784.65
452.49	3747.20
452.68	3861.88
452.86	3908.69
453.05	3822.09
453.23	3950.82
453.42	3896.99
453.60	3817.41
453.78	3817.41
453.97	3932.10
454.15	3950.82
454.34	3744.86
454.52	3978.91
454.70	3974.23
454.89	4077.21
455.07	3983.59
455.26	4102.96
455.44	4229.35
455.62	4168.49
455.81	4067.85
455.99	4077.21
456.17	4060.83
456.36	4135.73
456.54	4184.88
456.73	4138.07
456.91	4285.52
457.09	4191.90
457.28	4458.72
457.46	4145.09
457.64	4397.87
457.83	4440.00
458.01	4236.37
458.19	4432.97
458.38	4318.29
458.56	4393.19
458.74	4372.12
458.93	4390.84
459.11	4353.40
459.29	4315.95
459.48	4234.03
459.66	4463.40
459.84	4381.48
460.03	4669.37
460.21	4470.42
460.39	4538.30
460.57	4587.45
460.76	4538.30
460.94	4489.15
461.12	4613.20
461.31	4650.64
461.49	4645.96
461.67	4552.34
461.85	4816.82
462.04	4582.77
462.22	5041.51
462.40	4667.03
462.59	4748.95
462.77	4594.47
462.95	4767.67
463.13	4730.22
463.32	4814.48
463.50	4947.89
463.68	4835.55
463.86	4798.10
464.05	4781.71
464.23	4877.68
464.41	4802.78
464.59	4807.46
464.78	4762.99
464.96	4971.30
465.14	4861.29
465.32	4833.21
465.50	5109.39
465.69	4990.02
465.87	5090.67
466.05	4798.10
466.23	5036.83
466.41	4952.57
466.60	5081.30
466.78	4980.66
466.96	5032.15
467.14	4901.08
467.32	5048.54
467.51	5247.48
467.69	4997.04
467.87	4997.04
468.05	5107.05
468.23	5235.78
468.41	5039.17
468.60	5172.58
468.78	5254.50
468.96	5067.26
469.14	5268.55
469.32	5317.70
469.50	5076.62
469.69	5184.29
469.87	5408.98
470.05	5301.31
470.23	5401.96
470.41	5483.88
470.59	5458.13
470.77	5350.46
470.95	5446.43
471.14	5540.05
471.32	5327.06
471.50	5493.24
471.68	5626.65
471.86	5458.13
472.04	5582.18
472.22	5774.10
472.40	5633.67
472.58	5701.54
472.77	5650.05
472.95	5701.54
473.13	5928.58
473.31	5781.12
473.49	5621.97
473.67	5846.66
473.85	5900.49
474.03	5951.98
474.21	6033.90
474.39	5963.68
474.57	6059.65
474.75	6186.04
474.93	6186.04
475.12	6186.04
475.30	6197.74
475.48	6218.80
475.66	6267.95
475.84	6221.14
476.02	6324.13
476.20	6279.66
476.38	6420.09
476.56	6394.34
476.74	6434.13
476.92	6478.60
477.10	6436.47
477.28	6558.18
477.46	6654.14
477.64	6555.84
477.82	6935.01
478.00	6874.15
478.18	6771.17
478.36	6822.66
478.54	6916.28
478.72	7192.47
478.90	7112.89
479.08	6902.24
479.26	7124.59
479.44	7283.75
479.62	7253.32
479.80	7428.86
479.98	7356.30
480.16	7419.50
480.34	7693.34
480.52	7597.38
480.70	7564.61
480.88	7808.03
481.06	7651.21
481.24	7665.25
481.41	7920.37
481.59	7791.64
481.77	8025.70
481.95	8084.21
482.13	8102.93
482.31	8161.45
482.49	8079.53
482.67	8208.26
482.85	8189.53
483.03	8351.03
483.21	8535.93
483.39	8475.08
483.57	8449.33
483.74	8641.26
483.92	8732.54
484.10	8704.45
484.28	8713.81
484.46	9081.28
484.64	8896.38
484.82	8835.52
485.00	9020.42
485.18	9181.92
485.35	9397.25
485.53	9322.35
485.71	9472.15
485.89	9589.17
486.07	9493.21
486.25	9364.48
486.43	9392.57
486.61	9804.50
486.78	9764.72
486.96	9760.03
487.14	9970.68
487.32	9921.53
487.50	10101.75
487.68	9942.60
487.85	10190.69
488.03	10494.96
488.21	10511.35
488.39	10399.00
488.57	10579.22
488.75	10906.90
488.92	10775.83
489.10	10867.11
489.28	10801.57
489.46	11171.38
489.64	11096.48
489.81	11119.89
489.99	11190.10
490.17	11091.80
490.35	11342.24
490.53	11365.64
490.70	11529.48
490.88	11777.58
491.06	11585.65
491.24	11698.00
491.41	11749.49
491.59	11812.68
491.77	11805.66
491.95	11929.71
492.13	12128.66
492.30	12276.11
492.48	12084.19
492.66	12058.44
492.84	12037.38
493.01	12327.60
493.19	12554.63
493.37	12615.49
493.54	12858.90
493.72	12664.64
493.90	12716.13
494.08	13282.54
494.25	12917.42
494.43	13343.39
494.61	12982.95
494.79	13062.53
494.96	13123.38
495.14	13345.73
495.32	13467.44
495.49	13429.99
495.67	13647.66
495.85	13638.30
496.02	13673.41
496.20	13858.31
496.38	13813.84
496.55	13867.67
496.73	14003.43
496.91	13867.67
497.09	14263.22
497.26	14228.12
497.44	14382.59
497.62	14108.75
497.79	14469.19
497.97	14445.79
498.14	14796.87
498.32	14658.78
498.50	14530.05
498.67	14743.03
498.85	14883.47
499.03	14874.10
499.20	14850.70
499.38	14911.55
499.56	15136.24
499.73	15096.46
499.91	15339.87
500.08	14951.34
500.26	15419.45
500.44	15255.61
500.61	15454.56
500.79	15428.81
500.97	15482.64
501.14	15765.85
501.32	15557.54
501.49	15854.79
501.67	15810.32
501.84	15943.73
502.02	15796.28
502.20	16006.92
502.37	16353.32
502.55	16016.29
502.72	15819.68
502.90	15967.13
503.07	15946.07
503.25	16142.67
503.43	16329.92
503.60	16475.03
503.78	16259.70
503.95	16615.46
504.13	16510.14
504.30	16407.16
504.48	16755.90
504.65	16559.29
504.83	16919.73
505.01	16982.93
505.18	16947.82
505.36	17273.15
505.53	16971.22
505.71	17048.46
505.88	16893.99
506.06	17011.01
506.23	17209.96
506.41	17214.64
506.58	17390.18
506.76	17144.42
506.93	17638.28
507.11	17179.53
507.28	17507.21
507.46	17554.02
507.63	17404.22
507.81	17736.58
507.98	17820.84
508.16	17790.41
508.33	17502.53
508.50	17689.77
508.68	17886.37
508.85	18340.44
509.03	17926.16
509.20	17958.93
509.38	18356.82
509.55	18436.40
509.73	18113.41
509.90	18178.94
510.08	18171.92
510.25	18263.20
510.42	18459.81
510.60	18520.66
510.77	18267.88
510.95	18953.66
511.12	18450.44
511.30	18696.20
511.47	18733.65
511.64	18649.39
511.82	18981.74
511.99	18754.71
512.17	18974.72
512.34	18897.49
512.51	18946.64
512.69	18855.36
512.86	19204.10
513.04	19545.81
513.21	19527.09
513.38	19417.08
513.56	19562.20
513.73	19613.69
513.90	19236.86
514.08	19173.67
514.25	19709.65
514.43	19424.11
514.60	19681.56
514.77	19693.27
514.95	19803.27
515.12	19592.62
515.29	19618.37
515.47	19920.30
515.64	19857.10
515.81	19985.83
515.99	20107.54
516.16	20470.33
516.33	19976.47
516.51	20114.56
516.68	20196.48
516.85	20154.35
517.03	20512.46
517.20	20233.93
517.37	20627.14
517.54	20439.90
517.72	20369.68
517.89	20725.44
518.06	20439.90
518.24	20294.79
518.41	20465.64
518.58	20423.51
518.75	20706.72
518.93	21048.44
519.10	20898.64
519.27	20688.00
519.45	20709.06
519.62	20903.32
519.79	20964.18
519.96	21160.78
520.14	21392.50
520.31	21015.67
520.48	21202.91
520.65	21181.85
520.83	21326.96
521.00	21294.19
521.17	21427.60
521.34	21469.73
521.52	21432.29
521.69	21092.91
521.86	21460.37
522.03	21855.92
522.20	21621.87
522.38	21785.71
522.55	21692.08
522.72	21888.69
522.89	22141.47
523.07	22111.04
523.24	21991.67
523.41	22019.76
523.58	21825.50
523.75	22111.04
523.92	21640.59
524.10	21736.56
524.27	22104.02
524.44	22087.64
524.61	22045.51
524.78	22586.17
524.96	22597.87
525.13	22321.69
525.30	22478.50
525.47	22176.58
525.64	22841.29
525.81	22672.77
525.98	23000.44
526.16	22686.81
526.33	22614.26
526.50	23103.43
526.67	22979.38
526.84	22803.84
527.01	22445.74
527.18	22768.73
527.36	22913.84
527.53	22771.07
527.70	23147.90
527.87	23175.98
528.04	23194.71
528.21	22986.40
528.38	23185.35
528.55	23215.77
528.72	23124.49
528.89	23215.77
529.07	23372.59
529.24	23166.62
529.41	23527.06
529.58	23417.06
529.75	23241.52
529.92	23253.22
530.09	23131.51
530.26	23384.29
530.43	23662.82
530.60	24018.58
530.77	23372.59
530.94	23548.13
531.11	23704.95
531.28	23651.11
531.46	23889.85
531.63	23833.68
531.80	23971.77
531.97	24271.36
532.14	24130.92
532.31	24053.69
532.48	23969.43
532.65	24009.22
532.82	23908.57
532.99	24182.42
533.16	23985.81
533.33	24018.58
533.50	24093.47
533.67	24348.59
533.84	23868.78
534.01	24105.18
534.18	24240.93
534.35	24657.54
534.52	24404.77
534.69	24280.72
534.86	24388.38
535.03	24865.85
535.20	24666.91
535.37	24505.41
535.54	24980.54
535.71	24482.00
535.88	24503.07
536.05	24428.17
536.22	24851.81
536.38	24645.84
536.55	24903.30
536.72	25057.78
536.89	24671.59
537.06	24973.52
537.23	24725.42
537.40	24676.27
537.57	25270.76
537.74	25085.86
537.91	25172.46
538.08	24985.22
538.25	24959.47
538.42	25411.20
538.59	25172.46
538.75	24882.24
538.92	25495.46
539.09	25245.02
539.26	24992.24
539.43	25308.21
539.60	25235.66
539.77	25603.12
539.94	25481.41
540.11	25483.75
540.28	25598.44
540.44	25369.07
540.61	25326.94
540.78	25474.39
540.95	25577.37
541.12	25750.57
541.29	25390.13
541.46	25738.87
541.62	25745.89
541.79	25596.10
541.96	25465.03
542.13	25387.79
542.30	26019.74
542.47	26075.91
542.63	25764.62
542.80	26087.61
542.97	25942.50
543.14	26377.84
543.31	26389.54
543.48	25972.92
543.64	26600.19
543.81	26546.36
543.98	26263.15
544.15	26747.64
544.32	26389.54
544.48	26572.10
544.65	26382.52
544.82	26518.27
544.99	26616.57
545.16	26253.79
545.32	26331.03
545.49	26532.31
545.66	26696.15
545.83	26527.63
546.00	26536.99
546.16	26651.68
546.33	26441.03
546.50	26389.54
546.67	26588.49
546.83	26361.45
547.00	26408.26
547.17	26544.02
547.34	27161.92
547.50	26766.37
547.67	27026.17
547.84	26696.15
548.00	26834.24
548.17	26934.88
548.34	26993.40
548.51	27140.85
548.67	26991.06
548.84	27021.48
549.01	27005.10
549.18	27138.51
549.34	26977.01
549.51	26951.27
549.68	27117.45
549.84	27138.51
550.01	27623.00
550.18	27260.22
550.34	27388.95
550.51	27697.90
550.68	27662.79
550.84	27271.92
551.01	27351.50
551.18	27246.18
551.34	27255.54
551.51	27234.47
551.68	27660.45
551.84	27894.50
552.01	27587.89
552.18	27632.36
552.34	27477.89
552.51	27384.27
552.68	27557.47
552.84	27491.93
553.01	27606.62
553.18	27908.55
553.34	27599.60
553.51	27585.55
553.67	27931.95
553.84	27704.92
554.01	28046.64
554.17	27826.63
554.34	28135.58
554.51	27840.67
554.67	27857.06
554.84	27953.02
555.00	28278.35
555.17	27882.80
555.33	27763.43
555.50	27725.99
555.67	27955.36
555.83	27967.06
556.00	27953.02
556.16	28336.87
556.33	28503.04
556.50	28053.66
556.66	27917.91
556.83	28095.79
556.99	28453.89
557.16	28676.24
557.32	28570.92
557.49	28353.25
557.65	28056.00
557.82	28285.37
557.98	28154.30
558.15	28194.09
558.32	28268.99
558.48	28650.50
558.65	28339.21
558.81	28379.00
558.98	28435.17
559.14	28603.69
559.31	28390.70
559.47	28353.25
559.64	28439.85
559.80	28219.84
559.97	28886.89
560.13	28753.48
560.30	28910.30
560.46	28804.97
560.63	28587.30
560.79	28746.46
560.96	28627.09
561.12	28449.21
561.29	28446.87
561.45	28666.88
561.61	28704.33
561.78	28664.54
561.94	28734.76
562.11	28905.62
562.27	28945.41
562.44	28734.76
562.60	28386.02
562.77	28774.55
562.93	28671.56
563.10	28957.11
563.26	28561.56
563.42	29235.63
563.59	28870.51
563.75	28748.80
563.92	28971.15
564.08	28652.84
564.24	28999.24
564.41	28772.21
564.57	28781.57
564.74	28910.30
564.90	29186.48
565.07	28891.57
565.23	29291.80
565.39	28994.56
565.56	28884.55
565.72	28821.36
565.88	29015.62
566.05	28905.62
566.21	28889.23
566.38	29202.86
566.54	29230.95
566.70	29268.40
566.87	29216.91
567.03	29268.40
567.19	29252.02
567.36	29291.80
567.52	29191.16
567.68	29207.55
567.85	29039.03
568.01	29294.14
568.17	28814.34
568.34	29188.82
568.50	29263.72
568.66	29212.23
568.83	29514.16
568.99	29256.70
569.15	29209.89
569.32	29071.79
569.48	28865.83
569.64	29237.97
569.81	28914.98
569.97	29378.40
570.13	29488.41
570.30	29483.73
570.46	29312.87
570.62	29160.73
570.78	29165.42
570.95	28793.27
571.11	29394.79
571.27	28943.06
571.43	28900.94
571.60	29209.89
571.76	29221.59
571.92	29099.88
572.09	29788.00
572.25	29717.78
572.41	29331.59
572.57	29350.32
572.74	29450.96
572.90	29535.22
573.06	29273.08
573.22	29427.56
573.38	29385.43
573.55	29390.11
573.71	29879.28
573.87	29811.40
574.03	29607.78
574.20	29347.98
574.36	29163.08
574.52	29420.53
574.68	29483.73
574.84	29472.03
575.01	29703.74
575.17	29240.31
575.33	29366.70
575.49	29612.46
575.65	29474.37
575.82	30045.46
575.98	29418.19
576.14	29769.27
576.30	29778.64
576.46	29261.38
576.62	29390.11
576.79	29584.37
576.95	29612.46
577.11	29507.13
577.27	29509.47
577.43	29598.41
577.59	29497.77
577.75	29385.43
577.92	29338.62
578.08	29603.10
578.24	29490.75
578.40	29383.09
578.56	29532.88
578.72	29607.78
578.88	29549.26
579.04	29979.92
579.21	29741.19
579.37	29729.48
579.53	29553.94
579.69	29736.51
579.85	29713.10
580.01	29427.56
580.17	29450.96
580.33	29708.42
580.49	29617.14
580.65	29898.00
580.82	29575.01
580.98	30029.07
581.14	29968.22
581.30	29841.83
581.46	29469.69
581.62	29310.53
581.78	29343.30
581.94	29191.16
582.10	29741.19
582.26	29584.37
582.42	29680.33
582.58	29968.22
582.74	30249.08
582.90	29766.93
583.06	30146.10
583.22	29839.49
583.38	29542.24
583.54	29750.55
583.70	29586.71
583.86	29818.42
584.02	29457.98
584.18	30050.14
584.34	29764.59
584.50	29467.34
584.66	29460.32
584.82	29303.51
584.98	30012.69
585.14	29556.28
585.30	29617.14
585.46	29633.52
585.62	29261.38
585.78	29640.54
585.94	29490.75
586.10	29844.17
586.26	29956.52
586.42	29759.91
586.58	30080.56
586.74	29914.39
586.90	29441.60
587.06	29605.44
587.22	30178.87
587.38	29406.49
587.54	29773.95
587.70	29755.23
587.86	30031.41
588.02	30197.59
588.18	29989.28
588.34	30408.24
588.49	29874.60
588.65	29647.57
588.81	29792.68
588.97	29837.15
589.13	29979.92
589.29	29778.64
589.45	29811.40
589.61	30429.30
589.77	30445.69
589.93	30167.16
590.08	29975.24
590.24	30075.88
590.40	30389.52
590.56	30106.31
590.72	30146.10
590.88	30052.48
591.04	29472.03
591.20	30291.21
591.35	30286.53
591.51	30499.52
591.67	30160.14
591.83	30293.55
591.99	30335.68
