SpectraSuite Data File
++++++++++++++++++++++++++++++++++++
Date: Fri Oct 18 13:58:33 GMT-05:00 2013
User: bianchi
Dark Spectrum Present: No
Reference Spectrum Present: No
Number of Sampled Component Spectra: 1
Spectrometers: USB2+H05261
Integration Time (usec): 50000 (USB2+H05261)
Spectra Averaged: 1 (USB2+H05261)
Boxcar Smoothing: 0 (USB2+H05261)
Correct for Electrical Dark: No (USB2+H05261)
Strobe/Lamp Enabled: No (USB2+H05261)
Correct for Detector Non-linearity: No (USB2+H05261)
Correct for Stray Light: No (USB2+H05261)
Number of Pixels in Processed Spectrum: 2048
>>>>>Begin Processed Spectral Data<<<<<
365.73	0.00
365.92	0.00
366.12	0.00
366.32	0.00
366.52	0.00
366.72	0.00
366.91	0.00
367.11	0.00
367.31	0.00
367.51	0.00
367.70	0.00
367.90	0.00
368.10	0.00
368.30	0.00
368.49	0.00
368.69	0.00
368.89	0.00
369.09	0.00
369.28	0.00
369.48	0.00
369.68	0.00
369.87	0.00
370.07	0.00
370.27	0.00
370.47	0.00
370.66	100.64
370.86	121.71
371.06	131.07
371.25	77.24
371.45	124.05
371.65	147.45
371.84	88.94
372.04	124.05
372.24	133.41
372.44	205.97
372.63	170.86
372.83	196.60
373.03	210.65
373.22	175.54
373.42	248.10
373.62	194.26
373.81	266.82
374.01	245.76
374.21	273.84
374.40	234.05
374.60	315.97
374.79	203.63
374.99	224.69
375.19	222.35
375.38	308.95
375.58	311.29
375.78	294.91
375.97	238.73
376.17	264.48
376.37	224.69
376.56	273.84
376.76	304.27
376.95	238.73
377.15	372.15
377.35	245.76
377.54	285.55
377.74	304.27
377.93	304.27
378.13	257.46
378.33	264.48
378.52	320.65
378.72	297.25
378.91	285.55
379.11	304.27
379.31	290.23
379.50	241.08
379.70	332.36
379.89	283.20
380.09	273.84
380.28	301.93
380.48	266.82
380.68	238.73
380.87	215.33
381.07	341.72
381.26	276.18
381.46	348.74
381.65	257.46
381.85	212.99
382.04	337.04
382.24	322.99
382.43	313.63
382.63	360.44
382.83	334.70
383.02	416.62
383.22	346.40
383.41	339.38
383.61	411.93
383.80	308.95
384.00	400.23
384.19	353.42
384.39	390.87
384.58	374.49
384.78	383.85
384.97	376.83
385.17	355.76
385.36	325.33
385.56	381.51
385.75	421.30
385.95	393.21
386.14	355.76
386.34	421.30
386.53	454.06
386.72	444.70
386.92	500.87
387.11	400.23
387.31	344.06
387.50	433.00
387.70	418.96
387.89	430.66
388.09	386.19
388.28	423.64
388.48	449.38
388.67	449.38
388.86	332.36
389.06	416.62
389.25	475.13
389.45	531.30
389.64	425.98
389.84	418.96
390.03	580.45
390.22	519.60
390.42	493.85
390.61	447.04
390.81	486.83
391.00	428.32
391.19	505.56
391.39	503.22
391.58	496.19
391.78	489.17
391.97	519.60
392.16	564.07
392.36	566.41
392.55	580.45
392.75	596.84
392.94	564.07
393.13	524.28
393.33	559.39
393.52	610.88
393.71	561.73
393.91	634.29
394.10	524.28
394.29	568.75
394.49	559.39
394.68	601.52
394.88	580.45
395.07	594.50
395.26	613.22
395.46	540.66
395.65	636.63
395.84	582.79
396.04	704.50
396.23	599.18
396.42	674.07
396.62	678.76
396.81	690.46
397.00	585.13
397.19	657.69
397.39	594.50
397.58	662.37
397.77	692.80
397.97	741.95
398.16	620.24
398.35	727.91
398.55	678.76
398.74	697.48
398.93	746.63
399.12	702.16
399.32	655.35
399.51	699.82
399.70	727.91
399.90	751.31
400.09	702.16
400.28	800.46
400.47	711.52
400.67	807.48
400.86	795.78
401.05	737.27
401.24	819.19
401.44	753.65
401.63	837.91
401.82	758.33
402.01	734.93
402.21	774.72
402.40	741.95
402.59	833.23
402.78	814.51
402.97	856.64
403.17	844.93
403.36	802.80
403.55	821.53
403.74	826.21
403.93	889.40
404.13	889.40
404.32	968.98
404.51	833.23
404.70	884.72
404.89	826.21
405.09	940.90
405.28	933.87
405.47	990.05
405.66	952.60
405.85	917.49
406.05	973.66
406.24	1039.20
406.43	973.66
406.62	968.98
406.81	1074.31
407.00	1076.65
407.20	950.26
407.39	987.71
407.58	1078.99
407.77	1116.44
407.96	1053.24
408.15	1160.91
408.34	1118.78
408.54	1050.90
408.73	1090.69
408.92	1034.52
409.11	1130.48
409.30	1090.69
409.49	1093.03
409.68	1184.31
409.87	1083.67
410.07	1270.91
410.26	1191.33
410.45	1142.18
410.64	1137.50
410.83	1118.78
411.02	1235.80
411.21	1191.33
411.40	1240.48
411.59	1256.87
411.78	1219.42
411.98	1263.89
412.17	1306.02
412.36	1238.14
412.55	1306.02
412.74	1334.11
412.93	1373.89
413.12	1406.66
413.31	1308.36
413.50	1390.28
413.69	1345.81
413.88	1390.28
414.07	1420.71
414.26	1434.75
414.45	1355.17
414.64	1528.37
414.83	1460.49
415.02	1486.24
415.22	1371.55
415.41	1441.77
415.60	1563.48
415.79	1540.07
415.98	1554.12
416.17	1528.37
416.36	1607.95
416.55	1596.25
416.74	1739.02
416.93	1612.63
417.12	1533.05
417.31	1673.48
417.50	1750.72
417.69	1652.42
417.88	1633.69
418.07	1715.61
418.26	1734.34
418.45	1727.32
418.64	1746.04
418.83	1783.49
419.02	1856.04
419.21	1760.08
419.39	1757.74
419.58	1703.91
419.77	1706.25
419.96	1788.17
420.15	1893.49
420.34	1853.70
420.53	1926.26
420.72	1928.60
420.91	1949.67
421.10	1919.24
421.29	1858.39
421.48	1923.92
421.67	1961.37
421.86	1991.80
422.05	1919.24
422.24	1867.75
422.43	1884.13
422.61	2012.86
422.80	2043.29
422.99	1954.35
423.18	2036.27
423.37	2087.76
423.56	1919.24
423.75	1989.46
423.94	1963.71
424.13	1884.13
424.32	1928.60
424.50	1879.45
424.69	2108.82
424.88	1994.14
425.07	2066.69
425.26	1996.48
425.45	1989.46
425.64	2071.37
425.83	2038.61
426.01	1975.41
426.20	2022.22
426.39	2017.54
426.58	2045.63
426.77	2045.63
426.96	2092.44
427.15	2062.01
427.33	2071.37
427.52	2031.58
427.71	2172.02
427.90	2136.91
428.09	2120.53
428.28	2153.29
428.46	2221.17
428.65	2139.25
428.84	2127.55
429.03	2223.51
429.22	2122.87
429.40	2174.36
429.59	2289.04
429.78	2197.76
429.97	2054.99
430.16	2183.72
430.34	2134.57
430.53	2260.96
430.72	2324.15
430.91	2267.98
431.10	2356.92
431.28	2417.77
431.47	2370.96
431.66	2394.37
431.85	2314.79
432.03	2368.62
432.22	2490.33
432.41	2450.54
432.60	2537.14
432.79	2490.33
432.97	2373.30
433.16	2478.63
433.35	2462.24
433.54	2392.03
433.72	2431.82
433.91	2565.23
434.10	2476.29
434.28	2499.69
434.47	2548.84
434.66	2476.29
434.85	2651.83
435.03	2562.89
435.22	2595.65
435.41	2546.50
435.59	2581.61
435.78	2569.91
435.97	2672.89
436.16	2621.40
436.34	2619.06
436.53	2729.06
436.72	2719.70
436.90	2658.85
437.09	2745.45
437.28	2544.16
437.46	2684.59
437.65	2738.43
437.84	2743.11
438.02	2738.43
438.21	2743.11
438.40	2630.76
438.58	2871.84
438.77	2822.69
438.96	2881.20
439.14	2818.00
439.33	2942.05
439.52	3012.27
439.70	2946.73
439.89	2897.58
440.08	3005.25
440.26	3089.51
440.45	3045.04
440.63	3087.17
440.82	3089.51
441.01	3159.72
441.19	3169.09
441.38	3124.62
441.57	3222.92
441.75	3141.00
441.94	3351.65
442.12	3255.69
442.31	3190.15
442.50	3229.94
442.68	3377.39
442.87	3260.37
443.05	3269.73
443.24	3222.92
443.43	3267.39
443.61	3307.18
443.80	3349.31
443.98	3283.77
444.17	3215.90
444.35	3279.09
444.54	3438.25
444.73	3463.99
444.91	3438.25
445.10	3403.14
445.28	3302.50
445.47	3405.48
445.65	3370.37
445.84	3307.18
446.02	3426.54
446.21	3400.80
446.39	3471.01
446.58	3506.12
446.77	3466.33
446.95	3447.61
447.14	3316.54
447.32	3377.39
447.51	3426.54
447.69	3475.70
447.88	3431.23
448.06	3501.44
448.25	3527.19
448.43	3538.89
448.62	3595.06
448.80	3424.20
448.99	3489.74
449.17	3599.74
449.36	3550.59
449.54	3742.52
449.73	3669.96
449.91	3714.43
450.10	3747.20
450.28	3665.28
450.46	3676.98
450.65	3866.56
450.83	3705.07
451.02	3665.28
451.20	3836.14
451.39	3707.41
451.57	3698.05
451.76	3728.47
451.94	3742.52
452.13	3920.40
452.31	3899.33
452.49	3810.39
452.68	3817.41
452.86	3826.78
453.05	3950.82
453.23	3779.97
453.42	3789.33
453.60	3946.14
453.78	3824.44
453.97	3819.75
454.15	3850.18
454.34	3925.08
454.52	3880.61
454.70	4025.72
454.89	3859.54
455.07	3990.61
455.26	4007.00
455.44	3941.46
455.62	4028.06
455.81	3981.25
455.99	4126.36
456.17	4175.52
456.36	4163.81
456.54	4124.02
456.73	4201.26
456.91	4231.69
457.09	4297.22
457.28	4444.68
457.46	4224.67
457.64	4386.16
457.83	4170.83
458.01	4283.18
458.19	4301.90
458.38	4353.40
458.56	4322.97
458.74	4353.40
458.93	4440.00
459.11	4454.04
459.29	4447.02
459.48	4468.08
459.66	4393.19
459.84	4524.26
460.03	4510.21
460.21	4557.02
460.39	4451.70
460.57	4327.65
460.76	4416.59
460.94	4475.10
461.12	4606.17
461.31	4575.75
461.49	4580.43
461.67	4613.20
461.85	4730.22
462.04	4669.37
462.22	4732.56
462.40	4760.65
462.59	4681.07
462.77	4692.77
462.95	4739.58
463.13	4594.47
463.32	4800.44
463.50	4802.78
463.68	4786.40
463.86	4821.50
464.05	4751.29
464.23	4826.18
464.41	4826.18
464.59	4730.22
464.78	4912.78
464.96	4823.84
465.14	4889.38
465.32	4891.72
465.50	5020.45
465.69	4833.21
465.87	4978.32
466.05	4683.41
466.23	5055.56
466.41	4971.30
466.60	5111.73
466.78	4950.23
466.96	5097.69
467.14	4990.02
467.32	4992.36
467.51	5046.20
467.69	4931.51
467.87	5177.26
468.05	5088.32
468.23	5125.77
468.41	5144.50
468.60	5036.83
468.78	5240.46
468.96	5139.82
469.14	5217.05
469.32	5249.82
469.50	5144.50
469.69	5348.12
469.87	5369.19
470.05	5392.59
470.23	5240.46
470.41	5210.03
470.59	5460.47
470.77	5315.36
470.95	5556.43
471.14	5526.00
471.32	5406.64
471.50	5605.58
471.68	5640.69
471.86	5596.22
472.04	5612.60
472.22	5650.05
472.40	5621.97
472.58	5678.14
472.77	5696.86
472.95	5701.54
473.13	5951.98
473.31	5767.08
473.49	5804.53
473.67	6003.47
473.85	5710.91
474.03	5977.73
474.21	5893.47
474.39	5977.73
474.57	5982.41
474.75	6176.67
474.93	6094.76
475.12	6120.50
475.30	6127.52
475.48	6228.17
475.66	6111.14
475.84	6129.86
476.02	6186.04
476.20	6289.02
476.38	6544.14
476.56	6586.27
476.74	6513.71
476.92	6415.41
477.10	6516.05
477.28	6693.93
477.46	6551.16
477.64	6612.01
477.82	6565.20
478.00	6855.43
478.18	6984.16
478.36	6841.39
478.54	7148.00
478.72	7037.99
478.90	6923.30
479.08	7248.64
479.26	7150.34
479.44	7325.88
479.62	7377.37
479.80	7417.16
479.98	7370.35
480.16	7339.92
480.34	7440.56
480.52	7620.78
480.70	7637.17
480.88	7583.34
481.06	7620.78
481.24	7620.78
481.41	7662.91
481.59	7751.85
481.77	8072.51
481.95	7943.78
482.13	8196.56
482.31	8175.49
482.49	8187.19
482.67	8074.85
482.85	8372.10
483.03	8484.44
483.21	8514.87
483.39	8472.74
483.57	8512.53
483.74	8493.80
483.92	8636.58
484.10	8538.27
484.28	8833.18
484.46	8889.35
484.64	9116.39
484.82	8950.21
485.00	9097.66
485.18	9188.94
485.35	9312.99
485.53	9238.09
485.71	9289.59
485.89	9413.63
486.07	9371.50
486.25	9490.87
486.43	9614.92
486.61	9785.78
486.78	9748.33
486.96	9935.57
487.14	10097.07
487.32	9930.89
487.50	9937.91
487.68	10286.65
487.85	10209.42
488.03	10340.49
488.21	10480.92
488.39	10478.58
488.57	10490.28
488.75	10501.98
488.92	10707.95
489.10	10623.69
489.28	10782.85
489.46	11063.71
489.64	10871.79
489.81	11286.06
489.99	11098.82
490.17	11304.79
490.35	11421.81
490.53	11332.87
490.70	11293.08
490.88	11456.92
491.06	11578.63
491.24	11660.55
491.41	11449.90
491.59	11871.20
491.77	11742.47
491.95	11943.75
492.13	11948.43
492.30	12217.60
492.48	12173.13
492.66	12395.48
492.84	12166.10
493.01	12674.00
493.19	12264.41
493.37	12662.30
493.54	12393.14
493.72	12704.43
493.90	12741.88
494.08	12982.95
494.25	12973.59
494.43	13083.59
494.61	13137.43
494.79	13270.84
494.96	13109.34
495.14	13359.78
495.32	13160.83
495.49	13458.08
495.67	13397.23
495.85	13713.20
496.02	13451.06
496.20	13642.98
496.38	13502.55
496.55	13605.53
496.73	14256.20
496.91	14101.73
497.09	14183.65
497.26	14228.12
497.44	14071.30
497.62	14284.29
497.79	14593.24
497.97	14319.40
498.14	14787.50
498.32	14717.29
498.50	14644.73
498.67	14951.34
498.85	14642.39
499.03	14724.31
499.20	14853.04
499.38	15019.22
499.56	14993.47
499.73	15073.05
499.91	15227.53
500.08	15295.40
500.26	14909.21
500.44	15391.36
500.61	15248.59
500.79	15349.23
500.97	15580.95
501.14	15791.59
501.32	15700.31
501.49	15896.92
501.67	15962.45
501.84	15829.04
502.02	15744.78
502.20	15843.09
502.37	15953.09
502.55	16039.69
502.72	15733.08
502.90	16240.98
503.07	15784.57
503.25	16056.08
503.43	15974.16
503.60	16669.30
503.78	16423.54
503.95	16350.98
504.13	16294.81
504.30	16545.25
504.48	16589.72
504.65	16573.33
504.83	16369.71
505.01	16451.63
505.18	16582.70
505.36	17064.85
505.53	16758.24
505.71	16688.02
505.88	16893.99
506.06	16727.81
506.23	16791.00
506.41	17090.59
506.58	17348.05
506.76	17177.19
506.93	17226.34
507.11	17315.28
507.28	17357.41
507.46	17249.75
507.63	17411.25
507.81	17612.53
507.98	17099.95
508.16	17329.33
508.33	17792.75
508.50	17600.83
508.68	17661.68
508.85	17642.96
509.03	17607.85
509.20	18019.78
509.38	18270.22
509.55	17991.70
509.73	18312.35
509.90	18389.59
510.08	18614.28
510.25	17942.55
510.42	18279.58
510.60	18476.19
510.77	18455.12
510.95	18604.92
511.12	18611.94
511.30	18579.17
511.47	18710.24
511.64	18878.76
511.82	19056.64
511.99	18728.97
512.17	18864.72
512.34	18677.48
512.51	18801.52
512.69	18918.55
512.86	18869.40
513.04	19131.54
513.21	19323.46
513.38	19225.16
513.56	19166.65
513.73	19171.33
513.90	19274.31
514.08	19255.59
514.25	19609.01
514.43	19316.44
514.60	19667.52
514.77	19417.08
514.95	19751.78
515.12	19683.91
515.29	19468.58
515.47	19693.27
515.64	19962.43
515.81	19679.22
515.99	20030.30
516.16	20016.26
516.33	20009.24
516.51	19789.23
516.68	19749.44
516.85	20152.01
517.03	20219.89
517.20	20287.76
517.37	20079.46
517.54	20360.32
517.72	20350.96
517.89	20336.91
518.06	20313.51
518.24	20680.97
518.41	20643.52
518.58	20702.04
518.75	20603.74
518.93	20893.96
519.10	20631.82
519.27	20812.04
519.45	20893.96
519.62	20744.17
519.79	20840.13
519.96	21027.37
520.14	20847.15
520.31	21109.29
520.48	20734.81
520.65	21018.01
520.83	20772.25
521.00	21362.07
521.17	21099.93
521.34	21331.64
521.52	21469.73
521.69	21495.48
521.86	21635.91
522.03	21462.71
522.20	21710.81
522.38	21362.07
522.55	21575.06
522.72	21713.15
522.89	21762.30
523.07	21916.78
523.24	21582.08
523.41	21811.45
523.58	21425.26
523.75	22118.06
523.92	22038.48
524.10	21724.85
524.27	21834.86
524.44	22230.41
524.61	22312.33
524.78	22064.23
524.96	22246.79
525.13	22113.38
525.30	22207.00
525.47	22089.98
525.64	22408.29
525.81	22302.96
525.98	22473.82
526.16	22122.74
526.33	22445.74
526.50	22848.31
526.67	22501.91
526.84	22504.25
527.01	22302.96
527.18	22864.69
527.36	22733.62
527.53	22731.28
527.70	22792.14
527.87	23403.02
528.04	22852.99
528.21	22808.52
528.38	22799.16
528.55	22794.48
528.72	22951.29
528.89	22916.19
529.07	23271.95
529.24	23211.09
529.41	23197.05
529.58	23253.22
529.75	23232.16
529.92	23000.44
530.09	23044.91
530.26	23264.92
530.43	23611.32
530.60	23168.96
530.77	23122.15
530.94	23648.77
531.11	23473.23
531.28	23283.65
531.46	23318.76
531.63	23885.17
531.80	23709.63
531.97	23859.42
532.14	23690.90
532.31	23924.96
532.48	23772.82
532.65	23854.74
532.82	23597.28
532.99	23889.85
533.16	23824.31
533.33	24147.31
533.50	24222.20
533.67	24217.52
533.84	23845.38
534.01	24149.65
534.18	23915.59
534.35	24720.74
534.52	24254.97
534.69	24589.67
534.86	24456.26
535.03	24051.34
535.20	24400.08
535.37	24589.67
535.54	24402.43
535.71	24254.97
535.88	24589.67
536.05	24594.35
536.22	24746.48
536.38	24540.52
536.55	24439.87
536.72	24865.85
536.89	24528.81
537.06	24474.98
537.23	24575.62
537.40	24650.52
537.57	24716.06
537.74	24795.64
537.91	24933.73
538.08	25067.14
538.25	24706.70
538.42	24556.90
538.59	25071.82
538.75	24755.85
538.92	24727.76
539.09	25010.96
539.26	25233.32
539.43	25188.85
539.60	25326.94
539.77	25132.67
539.94	25153.74
540.11	25495.46
540.28	25287.15
540.44	25029.69
540.61	25029.69
540.78	25436.94
540.95	25429.92
541.12	25406.52
541.29	25514.18
541.46	25575.03
541.62	25575.03
541.79	25479.07
541.96	25305.87
542.13	25397.15
542.30	25443.96
542.47	25883.98
542.63	25621.84
542.80	26169.53
542.97	26125.06
543.14	26192.94
543.31	25865.26
543.48	26050.16
543.64	26078.25
543.81	25869.94
543.98	25949.52
544.15	26010.37
544.32	26511.25
544.48	26389.54
544.65	26073.57
544.82	26108.68
544.99	26176.55
545.16	26106.34
545.32	26132.08
545.49	26513.59
545.66	26462.10
545.83	26843.60
546.00	26450.39
546.16	26408.26
546.33	25926.11
546.50	25998.67
546.67	26438.69
546.83	26485.50
547.00	26356.77
547.17	26527.63
547.34	26384.86
547.50	26637.64
547.67	26684.45
547.84	26677.43
548.00	26867.01
548.17	26831.90
548.34	26490.18
548.51	27103.40
548.67	27140.85
548.84	27042.55
549.01	26941.91
549.18	27049.57
549.34	26927.86
549.51	27122.13
549.68	27496.61
549.84	26937.23
550.01	27173.62
550.18	26684.45
550.34	27269.58
550.51	27185.32
550.68	27302.35
550.84	27094.04
551.01	26955.95
551.18	26834.24
551.34	26904.46
551.51	26761.69
551.68	27126.81
551.84	27679.18
552.01	27482.57
552.18	27384.27
552.34	27491.93
552.51	27365.54
552.68	27494.27
552.84	27257.88
553.01	27098.72
553.18	27491.93
553.34	27421.72
553.51	27754.07
553.67	27538.74
553.84	27768.12
554.01	27660.45
554.17	27704.92
554.34	27751.73
554.51	27683.86
554.67	27711.94
554.84	27943.66
555.00	27597.26
555.17	27754.07
555.33	27950.68
555.50	27962.38
555.67	27845.35
555.83	27850.03
556.00	27672.15
556.16	27936.63
556.33	28173.03
556.50	27838.33
556.66	27924.93
556.83	28261.97
556.99	28453.89
557.16	28004.51
557.32	27934.29
557.49	28332.18
557.65	28016.21
557.82	28215.16
557.98	28135.58
558.15	28002.17
558.32	28306.44
558.48	28231.54
558.65	28507.72
558.81	28379.00
558.98	28421.13
559.14	28491.34
559.31	28507.72
559.47	28222.18
559.64	28119.20
559.80	28276.01
559.97	28713.69
560.13	28173.03
560.30	28510.07
560.46	28561.56
560.63	28608.37
560.79	28479.64
560.96	28498.36
561.12	28404.74
561.29	28238.56
561.45	28819.02
561.61	28725.39
561.78	28297.08
561.94	28247.93
562.11	28826.04
562.27	28346.23
562.44	28624.75
562.60	28430.49
562.77	28336.87
562.93	28608.37
563.10	28407.08
563.26	28666.88
563.42	28631.77
563.59	28617.73
563.75	28673.90
563.92	28774.55
564.08	28594.32
564.24	28746.46
564.41	28723.05
564.57	28641.14
564.74	28610.71
564.90	29106.90
565.07	28676.24
565.23	28854.12
565.39	28477.30
565.56	28861.15
565.72	28617.73
565.88	28950.09
566.05	28968.81
566.21	28716.03
566.38	28648.16
566.54	28858.81
566.70	29212.23
566.87	28950.09
567.03	29017.96
567.19	29528.20
567.36	28898.59
567.52	28723.05
567.68	29083.50
567.85	29074.13
568.01	28936.04
568.17	28945.41
568.34	29425.22
568.50	29474.37
568.66	28779.23
568.83	29106.90
568.99	29469.69
569.15	28975.83
569.32	29027.32
569.48	28725.39
569.64	28884.55
569.81	29057.75
569.97	28898.59
570.13	29301.17
570.30	29113.92
570.46	29099.88
570.62	28863.49
570.78	28966.47
570.95	29069.45
571.11	29385.43
571.27	29006.26
571.43	28734.76
571.60	29244.99
571.76	29357.34
571.92	29404.15
572.09	29378.40
572.25	29413.51
572.41	29359.68
572.57	29331.59
572.74	29153.71
572.90	29165.42
573.06	29195.84
573.22	29378.40
573.38	29202.86
573.55	29076.48
573.71	29413.51
573.87	29472.03
574.03	29205.20
574.20	29219.25
574.36	29261.38
574.52	29188.82
574.68	29319.89
574.84	28896.25
575.01	29376.06
575.17	29385.43
575.33	29256.70
575.49	29256.70
575.65	29436.92
575.82	29516.50
575.98	28788.59
576.14	29415.85
576.30	29404.15
576.46	29652.25
576.62	29252.02
576.79	29252.02
576.95	29392.45
577.11	29373.72
577.27	29600.76
577.43	29640.54
577.59	29252.02
577.75	29298.83
577.92	29064.77
578.08	28945.41
578.24	29261.38
578.40	29490.75
578.56	29282.44
578.72	29427.56
578.88	29610.12
579.04	29839.49
579.21	29125.63
579.37	29628.84
579.53	29397.13
579.69	29233.29
579.85	29436.92
580.01	29266.06
580.17	29041.37
580.33	29153.71
580.49	29551.60
580.65	29347.98
580.82	29685.01
580.98	29359.68
581.14	29490.75
581.30	29694.38
581.46	29434.58
581.62	29256.70
581.78	29591.39
581.94	29867.58
582.10	29497.77
582.26	29659.27
582.42	30010.35
582.58	29827.79
582.74	29703.74
582.90	29226.27
583.06	29614.80
583.22	29394.79
583.38	29338.62
583.54	29631.18
583.70	29696.72
583.86	29252.02
584.02	29366.70
584.18	29434.58
584.34	29736.51
584.50	29633.52
584.66	29443.94
584.82	29413.51
584.98	29640.54
585.14	29755.23
585.30	29212.23
585.46	29408.83
585.62	29633.52
585.78	29474.37
585.94	29233.29
586.10	29862.90
586.26	29825.45
586.42	29773.95
586.58	29633.52
586.74	29495.43
586.90	29296.49
587.06	29511.81
587.22	29572.67
587.38	29790.34
587.54	29656.93
587.70	29486.07
587.86	29666.29
588.02	29511.81
588.18	29895.66
588.34	29446.28
588.49	29865.24
588.65	29701.40
588.81	29689.70
588.97	29797.36
589.13	29263.72
589.29	29500.11
589.45	29699.06
589.61	29799.70
589.77	29804.38
589.93	29371.38
590.08	29713.10
590.24	29764.59
590.40	29881.62
590.56	29951.84
590.72	29696.72
590.88	29755.23
591.04	29392.45
591.20	29921.41
591.35	30036.09
591.51	30148.44
591.67	29851.19
591.83	30359.09
591.99	30080.56
