SpectraSuite Data File
++++++++++++++++++++++++++++++++++++
Date: Fri Oct 18 13:57:58 GMT-05:00 2013
User: bianchi
Dark Spectrum Present: No
Reference Spectrum Present: No
Number of Sampled Component Spectra: 1
Spectrometers: USB2+H05261
Integration Time (usec): 50000 (USB2+H05261)
Spectra Averaged: 1 (USB2+H05261)
Boxcar Smoothing: 0 (USB2+H05261)
Correct for Electrical Dark: No (USB2+H05261)
Strobe/Lamp Enabled: No (USB2+H05261)
Correct for Detector Non-linearity: No (USB2+H05261)
Correct for Stray Light: No (USB2+H05261)
Number of Pixels in Processed Spectrum: 2048
>>>>>Begin Processed Spectral Data<<<<<
365.73	0.00
365.92	0.00
366.12	0.00
366.32	0.00
366.52	0.00
366.72	0.00
366.91	0.00
367.11	0.00
367.31	0.00
367.51	0.00
367.70	0.00
367.90	0.00
368.10	0.00
368.30	0.00
368.49	0.00
368.69	0.00
368.89	0.00
369.09	0.00
369.28	0.00
369.48	0.00
369.68	0.00
369.87	0.00
370.07	0.00
370.27	0.00
370.47	0.00
370.66	37.45
370.86	112.35
371.06	88.94
371.25	154.48
371.45	170.86
371.65	140.43
371.84	147.45
372.04	220.01
372.24	173.20
372.44	184.90
372.63	175.54
372.83	217.67
373.03	189.58
373.22	138.09
373.42	124.05
373.62	161.50
373.81	234.05
374.01	259.80
374.21	280.86
374.40	163.84
374.60	259.80
374.79	330.02
374.99	189.58
375.19	245.76
375.38	255.12
375.58	271.50
375.78	222.35
375.97	217.67
376.17	217.67
376.37	292.57
376.56	259.80
376.76	250.44
376.95	231.71
377.15	334.70
377.35	344.06
377.54	264.48
377.74	332.36
377.93	259.80
378.13	243.42
378.33	355.76
378.52	234.05
378.72	287.89
378.91	273.84
379.11	299.59
379.31	367.46
379.50	215.33
379.70	273.84
379.89	308.95
380.09	306.61
380.28	308.95
380.48	285.55
380.68	285.55
380.87	367.46
381.07	320.65
381.26	344.06
381.46	238.73
381.65	337.04
381.85	264.48
382.04	311.29
382.24	315.97
382.43	374.49
382.63	365.12
382.83	332.36
383.02	437.68
383.22	334.70
383.41	400.23
383.61	337.04
383.80	379.17
384.00	358.10
384.19	332.36
384.39	376.83
384.58	348.74
384.78	404.91
384.97	322.99
385.17	423.64
385.36	294.91
385.56	475.13
385.75	334.70
385.95	390.87
386.14	404.91
386.34	395.55
386.53	386.19
386.72	348.74
386.92	416.62
387.11	423.64
387.31	465.77
387.50	414.27
387.70	456.40
387.89	456.40
388.09	454.06
388.28	397.89
388.48	421.30
388.67	477.47
388.86	477.47
389.06	512.58
389.25	454.06
389.45	484.49
389.64	447.04
389.84	510.24
390.03	498.53
390.22	486.83
390.42	451.72
390.61	538.32
390.81	447.04
391.00	514.92
391.19	482.15
391.39	521.94
391.58	468.11
391.78	627.26
391.97	533.64
392.16	538.32
392.36	571.09
392.55	564.07
392.75	514.92
392.94	564.07
393.13	638.97
393.33	594.50
393.52	638.97
393.71	601.52
393.91	601.52
394.10	589.82
394.29	526.62
394.49	629.60
394.68	648.33
394.88	725.57
395.07	589.82
395.26	662.37
395.46	521.94
395.65	671.73
395.84	580.45
396.04	723.23
396.23	636.63
396.42	650.67
396.62	624.92
396.81	615.56
397.00	695.14
397.19	629.60
397.39	692.80
397.58	645.99
397.77	653.01
397.97	704.50
398.16	657.69
398.35	699.82
398.55	716.20
398.74	678.76
398.93	681.10
399.12	751.31
399.32	648.33
399.51	758.33
399.70	713.86
399.90	739.61
400.09	751.31
400.28	826.21
400.47	851.96
400.67	727.91
400.86	777.06
401.05	781.74
401.24	779.40
401.44	884.72
401.63	894.08
401.82	765.36
402.01	772.38
402.21	842.59
402.40	816.85
402.59	891.74
402.78	873.02
402.97	833.23
403.17	905.79
403.36	861.32
403.55	882.38
403.74	938.55
403.93	863.66
404.13	945.58
404.32	947.92
404.51	943.24
404.70	964.30
404.89	894.08
405.09	994.73
405.28	924.51
405.47	940.90
405.66	976.00
405.85	1093.03
406.05	1046.22
406.24	987.71
406.43	947.92
406.62	1121.12
406.81	1123.46
407.00	1041.54
407.20	1048.56
407.39	1039.20
407.58	1057.92
407.77	1095.37
407.96	1174.95
408.15	1107.07
408.34	1097.71
408.54	1123.46
408.73	1109.41
408.92	1135.16
409.11	1107.07
409.30	1097.71
409.49	1231.12
409.68	1200.69
409.87	1212.40
410.07	1226.44
410.26	1214.74
410.45	1193.67
410.64	1188.99
410.83	1273.25
411.02	1261.55
411.21	1254.53
411.40	1280.27
411.59	1329.42
411.78	1268.57
411.98	1364.53
412.17	1235.80
412.36	1322.40
412.55	1378.58
412.74	1385.60
412.93	1373.89
413.12	1322.40
413.31	1444.11
413.50	1448.79
413.69	1530.71
413.88	1476.88
414.07	1537.73
414.26	1474.54
414.45	1476.88
414.64	1493.26
414.83	1437.09
415.02	1497.94
415.22	1467.52
415.41	1495.60
415.60	1589.22
415.79	1605.61
415.98	1701.57
416.17	1575.18
416.36	1607.95
416.55	1614.97
416.74	1626.67
416.93	1748.38
417.12	1638.38
417.31	1626.67
417.50	1631.35
417.69	1771.79
417.88	1734.34
418.07	1767.10
418.26	1722.63
418.45	1767.10
418.64	1827.96
418.83	1825.62
419.02	1846.68
419.21	1898.17
419.39	1916.90
419.58	1825.62
419.77	1799.87
419.96	1907.54
420.15	1860.73
420.34	1884.13
420.53	1919.24
420.72	1956.69
420.91	1856.04
421.10	2054.99
421.29	2029.24
421.48	1923.92
421.67	2043.29
421.86	1975.41
422.05	1919.24
422.24	2146.27
422.43	2040.95
422.61	2047.97
422.80	1921.58
422.99	2017.54
423.18	1987.11
423.37	2167.34
423.56	2111.16
423.75	1982.43
423.94	2036.27
424.13	1989.46
424.32	1905.20
424.50	2108.82
424.69	2087.76
424.88	2106.48
425.07	2113.50
425.26	2017.54
425.45	2038.61
425.64	2106.48
425.83	2099.46
426.01	2076.06
426.20	2190.74
426.39	2087.76
426.58	2169.68
426.77	2157.97
426.96	2169.68
427.15	2179.04
427.33	2239.89
427.52	2141.59
427.71	2267.98
427.90	2167.34
428.09	2172.02
428.28	2200.10
428.46	2188.40
428.65	2200.10
428.84	2211.81
429.03	2307.77
429.22	2324.15
429.40	2331.17
429.59	2258.62
429.78	2146.27
429.97	2176.70
430.16	2246.91
430.34	2385.01
430.53	2298.41
430.72	2399.05
430.91	2293.72
431.10	2354.58
431.28	2382.67
431.47	2377.98
431.66	2495.01
431.85	2286.70
432.03	2487.99
432.22	2548.84
432.41	2516.08
432.60	2656.51
432.79	2523.10
432.97	2527.78
433.16	2525.44
433.35	2429.48
433.54	2628.42
433.72	2602.68
433.91	2565.23
434.10	2551.18
434.28	2621.40
434.47	2551.18
434.66	2626.08
434.85	2698.64
435.03	2637.78
435.22	2583.95
435.41	2731.41
435.59	2752.47
435.78	2630.76
435.97	2747.79
436.16	2768.85
436.34	2722.04
436.53	2733.75
436.72	2836.73
436.90	2726.72
437.09	2841.41
437.28	2731.41
437.46	2766.51
437.65	2860.13
437.84	2904.60
438.02	2829.71
438.21	2689.28
438.40	2836.73
438.58	2923.33
438.77	2899.92
438.96	2918.65
439.14	3030.99
439.33	2930.35
439.52	2930.35
439.70	2984.18
439.89	3183.13
440.08	3131.64
440.26	3096.53
440.45	3028.65
440.63	3084.83
440.82	3192.49
441.01	3262.71
441.19	3215.90
441.38	3311.86
441.57	3339.94
441.75	3318.88
441.94	3370.37
442.12	3342.28
442.31	3475.70
442.50	3419.52
442.68	3405.48
442.87	3283.77
443.05	3508.46
443.24	3466.33
443.43	3494.42
443.61	3400.80
443.80	3583.36
443.98	3365.69
444.17	3363.35
444.35	3515.48
444.54	3606.77
444.73	3534.21
444.91	3517.83
445.10	3442.93
445.28	3316.54
445.47	3578.68
445.65	3494.42
445.84	3655.92
446.02	3609.11
446.21	3597.40
446.39	3485.06
446.58	3557.61
446.77	3538.89
446.95	3524.85
447.14	3501.44
447.32	3595.06
447.51	3536.55
447.69	3538.89
447.88	3569.32
448.06	3623.15
448.25	3590.38
448.43	3719.11
448.62	3583.36
448.80	3527.19
448.99	3672.30
449.17	3688.68
449.36	3719.11
449.54	3660.60
449.73	3775.28
449.91	3754.22
450.10	3817.41
450.28	3810.39
450.46	3889.97
450.65	3798.69
450.83	3838.48
451.02	3843.16
451.20	3927.42
451.39	3934.44
451.57	3838.48
451.76	3840.82
451.94	3770.60
452.13	4016.36
452.31	3948.48
452.49	3845.50
452.68	3969.55
452.86	3896.99
453.05	4018.70
453.23	4147.43
453.42	4070.19
453.60	3974.23
453.78	4086.58
453.97	3936.78
454.15	4004.66
454.34	4042.11
454.52	4077.21
454.70	4053.81
454.89	4032.74
455.07	4159.13
455.26	4166.15
455.44	4177.86
455.62	4194.24
455.81	4149.77
455.99	4297.22
456.17	4301.90
456.36	4266.80
456.54	4308.93
456.73	4423.61
456.91	4339.35
457.09	4397.87
457.28	4568.73
457.46	4449.36
457.64	4386.16
457.83	4369.78
458.01	4334.67
458.19	4456.38
458.38	4524.26
458.56	4430.63
458.74	4610.86
458.93	4442.34
459.11	4486.81
459.29	4573.41
459.48	4606.17
459.66	4484.47
459.84	4606.17
460.03	4592.13
460.21	4833.21
460.39	4638.94
460.57	4634.26
460.76	4781.71
460.94	4667.03
461.12	4868.31
461.31	4812.14
461.49	4674.05
461.67	4652.98
461.85	4816.82
462.04	4746.61
462.22	5186.63
462.40	5020.45
462.59	4800.44
462.77	4950.23
462.95	5022.79
463.13	4807.46
463.32	4854.27
463.50	5004.07
463.68	4992.36
463.86	4851.93
464.05	4877.68
464.23	4908.10
464.41	5027.47
464.59	5036.83
464.78	5125.77
464.96	4983.00
465.14	5053.22
465.32	5181.95
465.50	5074.28
465.69	5212.37
465.87	5022.79
466.05	5132.79
466.23	5078.96
466.41	5074.28
466.60	5310.68
466.78	5219.39
466.96	5359.83
467.14	5277.91
467.32	5249.82
467.51	5242.80
467.69	5081.30
467.87	5207.69
468.05	5392.59
468.23	5158.54
468.41	5425.36
468.60	5275.57
468.78	5364.51
468.96	5289.61
469.14	5408.98
469.32	5441.75
469.50	5331.74
469.69	5582.18
469.87	5586.86
470.05	5420.68
470.23	5488.56
470.41	5689.84
470.59	5631.33
470.77	5397.28
470.95	5654.73
471.14	5680.48
471.32	5600.90
471.50	5720.27
471.68	5664.10
471.86	5778.78
472.04	5783.46
472.22	5977.73
472.40	5827.93
472.58	5959.00
472.77	5874.74
472.95	5884.11
473.13	6036.24
473.31	6050.28
473.49	6097.10
473.67	6076.03
473.85	5942.62
474.03	6148.59
474.21	6097.10
474.39	6445.84
474.57	6274.98
474.75	6279.66
474.93	6300.72
475.12	6307.74
475.30	6401.37
475.48	6413.07
475.66	6352.21
475.84	6471.58
476.02	6567.54
476.20	6509.03
476.38	6604.99
476.56	6848.41
476.74	6626.06
476.92	6682.23
477.10	6724.36
477.28	6724.36
477.46	6773.51
477.64	6993.52
477.82	7030.97
478.00	7136.29
478.18	7098.84
478.36	7220.55
478.54	7236.94
478.72	7213.53
478.90	7276.73
479.08	7283.75
479.26	7349.28
479.44	7648.87
479.62	7641.85
479.80	7613.76
479.98	7602.06
480.16	7712.07
480.34	7644.19
480.52	7925.05
480.70	7906.33
480.88	7499.08
481.06	7939.10
481.24	7838.45
481.41	7964.84
481.59	8177.83
481.77	8063.15
481.95	8332.31
482.13	8397.84
482.31	8346.35
482.49	8407.20
482.67	8517.21
482.85	8578.06
483.03	8769.99
483.21	8833.18
483.39	8716.16
483.57	8662.32
483.74	8997.02
483.92	8699.77
484.10	8844.88
484.28	9146.81
484.46	9172.56
484.64	9455.76
484.82	9088.30
485.00	9502.58
485.18	9579.81
485.35	9668.75
485.53	9760.03
485.71	9640.67
485.89	9825.57
486.07	9647.69
486.25	9818.55
486.43	9949.62
486.61	9930.89
486.78	10010.47
486.96	10127.50
487.14	10150.90
487.32	10366.23
487.50	10354.53
487.68	10644.76
487.85	10745.40
488.03	10864.77
488.21	10822.64
488.39	10939.66
488.57	10942.00
488.75	11056.69
488.92	11014.56
489.10	11323.51
489.28	11229.89
489.46	11576.29
489.64	11293.08
489.81	11452.24
489.99	11559.91
490.17	11555.22
490.35	11557.57
490.53	11548.20
490.70	11922.69
490.88	11625.44
491.06	12051.42
491.24	11840.77
491.41	12126.32
491.59	12306.54
491.77	12409.52
491.95	12540.59
492.13	12297.17
492.30	12482.08
492.48	12659.96
492.66	12805.07
492.84	12755.92
493.01	12781.67
493.19	12905.71
493.37	12971.25
493.54	13006.36
493.72	12957.21
493.90	13163.17
494.08	13497.87
494.25	13357.44
494.43	13532.98
494.61	13635.96
494.79	13792.78
494.96	13699.16
495.14	13851.29
495.32	13965.98
495.49	13984.70
495.67	14148.54
495.85	13965.98
496.02	14190.67
496.20	14490.26
496.38	14181.31
496.55	14307.69
496.73	14546.43
496.91	14555.79
497.09	14649.41
497.26	14754.74
497.44	14904.53
497.62	14773.46
497.79	15033.26
497.97	14930.28
498.14	15159.65
498.32	15159.65
498.50	15019.22
498.67	15428.81
498.85	15150.29
499.03	15499.03
499.20	15613.71
499.38	15431.15
499.56	15435.83
499.73	15599.67
499.91	15534.14
500.08	15735.42
500.26	15770.53
500.44	15796.28
500.61	15997.56
500.79	15896.92
500.97	16116.93
501.14	15992.88
501.32	16215.23
501.49	16379.07
501.67	16266.72
501.84	16425.88
502.02	16168.42
502.20	16463.33
502.37	16397.79
502.55	16589.72
502.72	16681.00
502.90	16531.20
503.07	16435.24
503.25	16559.29
503.43	16650.57
503.60	17146.76
503.78	16863.56
503.95	16580.36
504.13	17270.81
504.30	17200.60
504.48	16800.37
504.65	17418.27
504.83	17240.39
505.01	17242.73
505.18	17420.61
505.36	17603.17
505.53	17312.94
505.71	17685.09
505.88	17413.59
506.06	17603.17
506.23	17954.25
506.41	17942.55
506.58	17848.93
506.76	17481.46
506.93	17853.61
507.11	17881.69
507.28	17961.27
507.46	17731.90
507.63	18391.93
507.81	18263.20
507.98	18230.43
508.16	18094.68
508.33	18127.45
508.50	18127.45
508.68	18249.16
508.85	18441.08
509.03	18450.44
509.20	18595.56
509.38	18857.70
509.55	19066.00
509.73	19122.18
509.90	19080.05
510.08	19129.20
510.25	18787.48
510.42	19199.41
510.60	19325.80
510.77	19332.82
510.95	19239.20
511.12	19314.10
511.30	19187.71
511.47	19393.68
511.64	19243.88
511.82	19606.67
511.99	19630.07
512.17	19866.47
512.34	19576.24
512.51	19719.01
512.69	19936.68
512.86	19695.61
513.04	19859.45
513.21	20002.22
513.38	19805.61
513.56	19777.53
513.73	19950.73
513.90	20034.99
514.08	20196.48
514.25	19978.81
514.43	20416.49
514.60	20568.63
514.77	20512.46
514.95	20421.17
515.12	20524.16
515.29	20416.49
515.47	20388.41
515.64	20575.65
515.81	20793.32
515.99	20959.50
516.16	21046.10
516.33	20744.17
516.51	20826.09
516.68	20865.88
516.85	21120.99
517.03	20978.22
517.20	21261.43
517.37	21322.28
517.54	21156.10
517.72	21277.81
517.89	21326.96
518.06	21097.59
518.24	20959.50
518.41	21186.53
518.58	21081.21
518.75	21465.05
518.93	21310.58
519.10	21570.38
519.27	21879.33
519.45	21481.44
519.62	21490.80
519.79	21682.72
519.96	21619.53
520.14	21624.21
520.31	21848.90
520.48	21970.61
520.65	21738.90
520.83	21954.22
521.00	21942.52
521.17	22085.30
521.34	22019.76
521.52	22207.00
521.69	22029.12
521.86	22363.82
522.03	22551.06
522.20	22317.01
522.38	22272.54
522.55	22497.23
522.72	22307.65
522.89	22396.59
523.07	22789.80
523.24	22869.37
523.41	23175.98
523.58	22714.90
523.75	22815.54
523.92	22675.11
524.10	22890.44
524.27	23035.55
524.44	22913.84
524.61	23260.24
524.78	23262.58
524.96	23285.99
525.13	23314.08
525.30	22852.99
525.47	23180.67
525.64	23154.92
525.81	23304.71
525.98	23513.02
526.16	23585.58
526.33	23704.95
526.50	23529.41
526.67	23297.69
526.84	23524.72
527.01	23772.82
527.18	23978.79
527.36	23688.56
527.53	23833.68
527.70	24194.12
527.87	23936.66
528.04	23763.46
528.21	23892.19
528.38	23580.90
528.55	23957.72
528.72	23957.72
528.89	24184.76
529.07	24219.86
529.24	24299.44
529.41	24128.58
529.58	24184.76
529.75	24233.91
529.92	24231.57
530.09	24177.73
530.26	24100.50
530.43	24280.72
530.60	24554.56
530.77	24673.93
530.94	24589.67
531.11	24364.98
531.28	24126.24
531.46	24519.45
531.63	24503.07
531.80	24432.85
531.97	24868.19
532.14	24795.64
532.31	24650.52
532.48	24858.83
532.65	24945.43
532.82	24872.87
532.99	25214.59
533.16	24992.24
533.33	25202.89
533.50	25198.21
533.67	25083.52
533.84	25010.96
534.01	25207.57
534.18	25085.86
534.35	25261.40
534.52	25102.25
534.69	25303.53
534.86	25544.61
535.03	25474.39
535.20	25090.54
535.37	25551.63
535.54	25425.24
535.71	25415.88
535.88	25717.81
536.05	25717.81
536.22	25603.12
536.38	25844.20
536.55	25586.74
536.72	25598.44
536.89	25687.38
537.06	25743.55
537.23	25649.93
537.40	25748.23
537.57	25532.90
537.74	25776.32
537.91	26216.34
538.08	26223.36
538.25	25663.97
538.42	25942.50
538.59	26232.72
538.75	25888.67
538.92	26431.67
539.09	25986.97
539.26	26302.94
539.43	26164.85
539.60	26286.56
539.77	26010.37
539.94	26314.64
540.11	26096.97
540.28	26174.21
540.44	26483.16
540.61	26370.82
540.78	26230.38
540.95	26525.29
541.12	26553.38
541.29	26422.31
541.46	26410.60
541.62	26611.89
541.79	26434.01
541.96	26190.59
542.13	26649.34
542.30	26541.68
542.47	27222.77
542.63	27042.55
542.80	27070.64
542.97	26969.99
543.14	27344.48
543.31	26911.48
543.48	27000.42
543.64	27236.81
543.81	27576.19
543.98	27428.74
544.15	27250.86
544.32	27714.28
544.48	27400.65
544.65	27119.79
544.82	27417.04
544.99	27136.17
545.16	27138.51
545.32	27353.84
545.49	27578.53
545.66	27550.45
545.83	27847.69
546.00	27758.75
546.16	27803.22
546.33	27119.79
546.50	27524.70
546.67	27999.83
546.83	26955.95
547.00	27695.56
547.17	27461.51
547.34	27475.55
547.50	27915.57
547.67	27915.57
547.84	27910.89
548.00	27850.03
548.17	28203.46
548.34	28011.53
548.51	28142.60
548.67	28458.57
548.84	27969.40
549.01	27896.85
549.18	28100.47
549.34	28048.98
549.51	27903.87
549.68	28128.56
549.84	27950.68
550.01	28210.48
550.18	28156.64
550.34	28336.87
550.51	28308.78
550.68	28327.50
550.84	27798.54
551.01	28542.83
551.18	28467.94
551.34	28311.12
551.51	28620.07
551.68	28603.69
551.84	28599.01
552.01	28407.08
552.18	28407.08
552.34	28528.79
552.51	29027.32
552.68	28542.83
552.84	28652.84
553.01	28933.70
553.18	28676.24
553.34	28994.56
553.51	28804.97
553.67	29209.89
553.84	29153.71
554.01	29198.18
554.17	29050.73
554.34	29233.29
554.51	28837.74
554.67	28786.25
554.84	29081.16
555.00	28898.59
555.17	29006.26
555.33	28751.14
555.50	29350.32
555.67	29256.70
555.83	29165.42
556.00	28992.22
556.16	29401.81
556.33	29322.23
556.50	29289.46
556.66	29186.48
556.83	29385.43
556.99	29638.20
557.16	28989.88
557.32	29465.00
557.49	29376.06
557.65	29088.18
557.82	29331.59
557.98	29284.78
558.15	29275.42
558.32	29511.81
558.48	29336.27
558.65	29642.88
558.81	29673.31
558.98	29677.99
559.14	29582.03
559.31	29247.33
559.47	29296.49
559.64	29567.99
559.80	29488.41
559.97	29392.45
560.13	29582.03
560.30	29788.00
560.46	29436.92
560.63	29846.51
560.79	29734.17
560.96	29647.57
561.12	29968.22
561.29	29596.07
561.45	29790.34
561.61	29975.24
561.78	29902.68
561.94	30188.23
562.11	29860.55
562.27	29783.32
562.44	29816.08
562.60	30017.37
562.77	29682.67
562.93	29624.16
563.10	29811.40
563.26	29462.66
563.42	30150.78
563.59	29715.44
563.75	30211.64
563.92	29869.92
564.08	29745.87
564.24	30120.35
564.41	29649.91
564.57	29956.52
564.74	29893.32
564.90	30103.97
565.07	30150.78
565.23	30221.00
565.39	29982.26
565.56	30178.87
565.72	29989.28
565.88	29895.66
566.05	29921.41
566.21	30183.55
566.38	30277.17
566.54	30565.06
566.70	30415.26
566.87	30316.96
567.03	30705.49
567.19	30670.38
567.36	30363.77
567.52	30181.21
567.68	30471.43
567.85	30164.82
568.01	30333.34
568.17	30132.06
568.34	30450.37
568.50	30284.19
568.66	30419.94
568.83	30335.68
568.99	30197.59
569.15	30555.69
569.32	30242.06
569.48	30361.43
569.64	30389.52
569.81	30389.52
569.97	30473.78
570.13	30464.41
570.30	30511.22
570.46	30431.65
570.62	30331.00
570.78	30155.46
570.95	30190.57
571.11	30515.90
571.27	30331.00
571.43	30394.20
571.60	30597.82
571.76	30782.73
571.92	30300.58
572.09	30555.69
572.25	30190.57
572.41	30567.40
572.57	30813.15
572.74	30869.33
572.90	30408.24
573.06	30827.20
573.22	30431.65
573.38	30527.61
573.55	30328.66
573.71	30993.37
573.87	30794.43
574.03	30766.34
574.20	30682.08
574.36	30539.31
574.52	30675.06
574.68	30232.70
574.84	30794.43
575.01	30529.95
575.17	30852.94
575.33	30611.87
575.49	30881.03
575.65	30906.77
575.82	30698.47
575.98	30799.11
576.14	30813.15
576.30	30541.65
576.46	30543.99
576.62	30333.34
576.79	30721.87
576.95	30068.86
577.11	30639.95
577.27	30586.12
577.43	30710.17
577.59	30829.54
577.75	30834.22
577.92	30663.36
578.08	30487.82
578.24	30546.33
578.40	30665.70
578.56	30918.48
578.72	30888.05
578.88	30932.52
579.04	30834.22
579.21	30654.00
579.37	30969.97
579.53	30955.93
579.69	30635.27
579.85	30593.14
580.01	30981.67
580.17	30677.40
580.33	30962.95
580.49	31091.68
580.65	30567.40
580.82	30967.63
580.98	30984.01
581.14	31072.95
581.30	30855.28
581.46	30581.44
581.62	30801.45
581.78	30850.60
581.94	30654.00
582.10	30780.39
582.26	30930.18
582.42	30754.64
582.58	30698.47
582.74	31243.81
582.90	30972.31
583.06	30967.63
583.22	30742.94
583.38	30930.18
583.54	31175.94
583.70	30923.16
583.86	30665.70
584.02	30684.42
584.18	31290.62
584.34	30939.54
584.50	31019.12
584.66	30831.88
584.82	30719.53
584.98	30955.93
585.14	30843.58
585.30	30375.47
585.46	30836.56
585.62	30948.90
585.78	30738.26
585.94	30773.36
586.10	30888.05
586.26	31147.85
586.42	31222.75
586.58	31166.57
586.74	30904.43
586.90	30658.68
587.06	30913.80
587.22	30871.67
587.38	30710.17
587.54	30670.38
587.70	30766.34
587.86	31012.10
588.02	31140.83
588.18	31220.41
588.34	31400.63
588.49	31030.82
588.65	31431.05
588.81	31150.19
588.97	31040.18
589.13	30960.61
589.29	31194.66
589.45	31133.81
589.61	31234.45
589.77	31557.44
589.93	31339.77
590.08	31639.36
590.24	31276.58
590.40	31747.03
590.56	31257.85
590.72	31197.00
590.88	30937.20
591.04	31299.98
591.20	31377.22
591.35	31295.30
591.51	31501.27
591.67	31688.51
591.83	31548.08
591.99	31323.39
