SpectraSuite Data File
++++++++++++++++++++++++++++++++++++
Date: Fri Oct 18 13:58:29 GMT-05:00 2013
User: bianchi
Dark Spectrum Present: No
Reference Spectrum Present: No
Number of Sampled Component Spectra: 1
Spectrometers: USB2+H05261
Integration Time (usec): 50000 (USB2+H05261)
Spectra Averaged: 1 (USB2+H05261)
Boxcar Smoothing: 0 (USB2+H05261)
Correct for Electrical Dark: No (USB2+H05261)
Strobe/Lamp Enabled: No (USB2+H05261)
Correct for Detector Non-linearity: No (USB2+H05261)
Correct for Stray Light: No (USB2+H05261)
Number of Pixels in Processed Spectrum: 2048
>>>>>Begin Processed Spectral Data<<<<<
365.73	0.00
365.92	0.00
366.12	0.00
366.32	0.00
366.52	0.00
366.72	0.00
366.91	0.00
367.11	0.00
367.31	0.00
367.51	0.00
367.70	0.00
367.90	0.00
368.10	0.00
368.30	0.00
368.49	0.00
368.69	0.00
368.89	0.00
369.09	0.00
369.28	0.00
369.48	0.00
369.68	0.00
369.87	0.00
370.07	0.00
370.27	0.00
370.47	0.00
370.66	112.35
370.86	124.05
371.06	95.96
371.25	175.54
371.45	156.82
371.65	93.62
371.84	154.48
372.04	91.28
372.24	205.97
372.44	227.03
372.63	166.18
372.83	285.55
373.03	128.73
373.22	203.63
373.42	175.54
373.62	184.90
373.81	170.86
374.01	203.63
374.21	262.14
374.40	222.35
374.60	236.39
374.79	215.33
374.99	266.82
375.19	236.39
375.38	203.63
375.58	191.92
375.78	236.39
375.97	184.90
376.17	210.65
376.37	250.44
376.56	278.52
376.76	212.99
376.95	224.69
377.15	339.38
377.35	341.72
377.54	332.36
377.74	278.52
377.93	318.31
378.13	231.71
378.33	250.44
378.52	224.69
378.72	297.25
378.91	234.05
379.11	292.57
379.31	283.20
379.50	283.20
379.70	238.73
379.89	248.10
380.09	325.33
380.28	271.50
380.48	227.03
380.68	290.23
380.87	264.48
381.07	304.27
381.26	311.29
381.46	330.02
381.65	215.33
381.85	280.86
382.04	353.42
382.24	351.08
382.43	339.38
382.63	304.27
382.83	358.10
383.02	348.74
383.22	376.83
383.41	388.53
383.61	400.23
383.80	407.25
384.00	348.74
384.19	430.66
384.39	315.97
384.58	376.83
384.78	447.04
384.97	400.23
385.17	416.62
385.36	409.59
385.56	390.87
385.75	353.42
385.95	409.59
386.14	402.57
386.34	386.19
386.53	421.30
386.72	461.09
386.92	404.91
387.11	414.27
387.31	376.83
387.50	320.65
387.70	449.38
387.89	400.23
388.09	409.59
388.28	433.00
388.48	493.85
388.67	470.45
388.86	489.17
389.06	458.74
389.25	444.70
389.45	444.70
389.64	517.26
389.84	533.64
390.03	414.27
390.22	491.51
390.42	435.34
390.61	535.98
390.81	430.66
391.00	482.15
391.19	496.19
391.39	475.13
391.58	512.58
391.78	573.43
391.97	531.30
392.16	535.98
392.36	514.92
392.55	554.71
392.75	458.74
392.94	573.43
393.13	559.39
393.33	608.54
393.52	526.62
393.71	627.26
393.91	634.29
394.10	603.86
394.29	585.13
394.49	608.54
394.68	697.48
394.88	599.18
395.07	589.82
395.26	585.13
395.46	617.90
395.65	662.37
395.84	603.86
396.04	674.07
396.23	578.11
396.42	566.41
396.62	702.16
396.81	615.56
397.00	664.71
397.19	603.86
397.39	653.01
397.58	655.35
397.77	589.82
397.97	669.39
398.16	594.50
398.35	809.83
398.55	655.35
398.74	709.18
398.93	697.48
399.12	674.07
399.32	744.29
399.51	664.71
399.70	781.74
399.90	662.37
400.09	755.99
400.28	779.40
400.47	699.82
400.67	767.70
400.86	786.42
401.05	821.53
401.24	692.80
401.44	774.72
401.63	765.36
401.82	760.67
402.01	739.61
402.21	849.61
402.40	847.27
402.59	870.68
402.78	814.51
402.97	828.55
403.17	851.96
403.36	830.89
403.55	854.30
403.74	945.58
403.93	905.79
404.13	887.06
404.32	891.74
404.51	910.47
404.70	915.15
404.89	884.72
405.09	1020.47
405.28	994.73
405.47	940.90
405.66	1001.75
405.85	875.36
406.05	931.53
406.24	894.08
406.43	980.68
406.62	924.51
406.81	1062.60
407.00	1029.84
407.20	915.15
407.39	1053.24
407.58	1097.71
407.77	1050.90
407.96	1093.03
408.15	1067.28
408.34	994.73
408.54	1090.69
408.73	1067.28
408.92	1111.75
409.11	1165.59
409.30	1153.88
409.49	1212.40
409.68	1093.03
409.87	1179.63
410.07	1188.99
410.26	1123.46
410.45	1186.65
410.64	1146.86
410.83	1146.86
411.02	1179.63
411.21	1277.93
411.40	1210.06
411.59	1336.45
411.78	1188.99
411.98	1235.80
412.17	1306.02
412.36	1327.08
412.55	1338.79
412.74	1315.38
412.93	1357.51
413.12	1371.55
413.31	1362.19
413.50	1277.93
413.69	1371.55
413.88	1313.04
414.07	1273.25
414.26	1434.75
414.45	1448.79
414.64	1399.64
414.83	1453.47
415.02	1460.49
415.22	1469.86
415.41	1500.28
415.60	1533.05
415.79	1490.92
415.98	1598.59
416.17	1640.72
416.36	1591.56
416.55	1579.86
416.74	1713.27
416.93	1631.35
417.12	1661.78
417.31	1659.44
417.50	1692.21
417.69	1741.36
417.88	1788.17
418.07	1629.01
418.26	1680.50
418.45	1776.47
418.64	1771.79
418.83	1893.49
419.02	1844.34
419.21	1797.53
419.39	1774.13
419.58	1816.26
419.77	1877.11
419.96	1947.33
420.15	1944.99
420.34	1830.30
420.53	1888.81
420.72	1816.26
420.91	1891.15
421.10	1954.35
421.29	2012.86
421.48	1867.75
421.67	1905.20
421.86	1996.48
422.05	1935.62
422.24	1977.75
422.43	2036.27
422.61	1856.04
422.80	2052.65
422.99	1977.75
423.18	2045.63
423.37	2076.06
423.56	2062.01
423.75	1987.11
423.94	2059.67
424.13	1891.15
424.32	1926.26
424.50	2005.84
424.69	2038.61
424.88	2183.72
425.07	2015.20
425.26	1998.82
425.45	1977.75
425.64	2001.16
425.83	1930.94
426.01	2108.82
426.20	2083.08
426.39	2019.88
426.58	2036.27
426.77	2106.48
426.96	2071.37
427.15	2057.33
427.33	2174.36
427.52	2141.59
427.71	2197.76
427.90	2099.46
428.09	2118.18
428.28	2129.89
428.46	2197.76
428.65	2101.80
428.84	2169.68
429.03	2354.58
429.22	2204.78
429.40	2228.19
429.59	2256.28
429.78	2139.25
429.97	2120.53
430.16	2181.38
430.34	2125.21
430.53	2359.26
430.72	2312.45
430.91	2363.94
431.10	2284.36
431.28	2282.02
431.47	2406.07
431.66	2394.37
431.85	2368.62
432.03	2448.20
432.22	2516.08
432.41	2469.27
432.60	2396.71
432.79	2396.71
432.97	2471.61
433.16	2399.05
433.35	2394.37
433.54	2525.44
433.72	2466.92
433.91	2387.35
434.10	2450.54
434.28	2422.45
434.47	2434.16
434.66	2548.84
434.85	2569.91
435.03	2665.87
435.22	2574.59
435.41	2708.00
435.59	2644.81
435.78	2693.96
435.97	2565.23
436.16	2684.59
436.34	2640.12
436.53	2569.91
436.72	2839.07
436.90	2708.00
437.09	2715.02
437.28	2623.74
437.46	2619.06
437.65	2787.58
437.84	2675.23
438.02	2832.05
438.21	2752.47
438.40	2752.47
438.58	2743.11
438.77	2892.90
438.96	2897.58
439.14	2963.12
439.33	2949.08
439.52	2883.54
439.70	2942.05
439.89	3101.21
440.08	2902.26
440.26	3080.14
440.45	3019.29
440.63	3126.96
440.82	3152.70
441.01	3103.55
441.19	3192.49
441.38	3293.13
441.57	3220.58
441.75	3251.00
441.94	3300.16
442.12	3265.05
442.31	3386.76
442.50	3361.01
442.68	3260.37
442.87	3166.74
443.05	3311.86
443.24	3379.73
443.43	3279.09
443.61	3414.84
443.80	3480.38
443.98	3407.82
444.17	3187.81
444.35	3468.67
444.54	3412.50
444.73	3396.12
444.91	3351.65
445.10	3372.71
445.28	3342.28
445.47	3389.10
445.65	3482.72
445.84	3524.85
446.02	3538.89
446.21	3557.61
446.39	3463.99
446.58	3452.29
446.77	3454.63
446.95	3449.95
447.14	3494.42
447.32	3522.51
447.51	3471.01
447.69	3555.27
447.88	3536.55
448.06	3428.88
448.25	3361.01
448.43	3550.59
448.62	3492.08
448.80	3447.61
448.99	3461.65
449.17	3637.19
449.36	3531.87
449.54	3693.37
449.73	3705.07
449.91	3559.95
450.10	3576.34
450.28	3789.33
450.46	3705.07
450.65	3709.75
450.83	3719.11
451.02	3875.93
451.20	3882.95
451.39	3721.45
451.57	3721.45
451.76	3758.90
451.94	3646.55
452.13	3761.24
452.31	3861.88
452.49	3810.39
452.68	3889.97
452.86	3805.71
453.05	3845.50
453.23	3829.12
453.42	3974.23
453.60	3796.35
453.78	3971.89
453.97	3969.55
454.15	3878.27
454.34	3929.76
454.52	3971.89
454.70	3899.33
454.89	3990.61
455.07	3920.40
455.26	3925.08
455.44	4039.76
455.62	4079.55
455.81	4112.32
455.99	4014.02
456.17	4023.38
456.36	4138.07
456.54	4236.37
456.73	4056.15
456.91	4250.41
457.09	4315.95
457.28	4425.95
457.46	4217.65
457.64	4264.46
457.83	4234.03
458.01	4287.86
458.19	4369.78
458.38	4264.46
458.56	4393.19
458.74	4430.63
458.93	4418.93
459.11	4442.34
459.29	4414.25
459.48	4421.27
459.66	4493.83
459.84	4503.19
460.03	4629.58
460.21	4636.60
460.39	4512.55
460.57	4458.72
460.76	4447.02
460.94	4514.89
461.12	4662.35
461.31	4681.07
461.49	4702.14
461.67	4552.34
461.85	4720.86
462.04	4753.63
462.22	4713.84
462.40	4755.97
462.59	4695.11
462.77	4786.40
462.95	4755.97
463.13	4765.33
463.32	4936.19
463.50	4737.24
463.68	4688.09
463.86	4697.46
464.05	4854.27
464.23	4849.59
464.41	4669.37
464.59	4770.01
464.78	4957.25
464.96	4842.57
465.14	4830.87
465.32	4819.16
465.50	4992.36
465.69	4795.76
465.87	4795.76
466.05	4915.12
466.23	4922.15
466.41	5067.26
466.60	5177.26
466.78	5004.07
466.96	4992.36
467.14	4966.62
467.32	5050.88
467.51	5114.07
467.69	5039.17
467.87	5165.56
468.05	5156.20
468.23	5186.63
468.41	5235.78
468.60	5027.47
468.78	5083.64
468.96	5275.57
469.14	5287.27
469.32	5217.05
469.50	5228.76
469.69	5418.34
469.87	5231.10
470.05	5266.21
470.23	5437.06
470.41	5479.19
470.59	5439.40
470.77	5448.77
470.95	5416.00
471.14	5544.73
471.32	5341.10
471.50	5619.63
471.68	5565.79
471.86	5497.92
472.04	5563.45
472.22	5652.39
472.40	5514.30
472.58	5624.31
472.77	5678.14
472.95	5860.70
473.13	5905.17
473.31	5741.33
473.49	5626.65
473.67	5722.61
473.85	5795.17
474.03	5980.07
474.21	5959.00
474.39	6003.47
474.57	6127.52
474.75	6160.29
474.93	6139.23
475.12	6239.87
475.30	6186.04
475.48	6270.30
475.66	6174.33
475.84	6146.25
476.02	6291.36
476.20	6260.93
476.38	6380.30
476.56	6565.20
476.74	6396.68
476.92	6513.71
477.10	6359.24
477.28	6707.98
477.46	6609.67
477.64	6574.56
477.82	6822.66
478.00	6885.86
478.18	6881.18
478.36	6942.03
478.54	7112.89
478.72	6995.86
478.90	7049.69
479.08	7262.68
479.26	7007.56
479.44	7281.41
479.62	7180.76
479.80	7063.74
479.98	7356.30
480.16	7407.80
480.34	7398.43
480.52	7508.44
480.70	7482.69
480.88	7590.36
481.06	7683.98
481.24	7693.34
481.41	7878.24
481.59	7906.33
481.77	7801.01
481.95	8004.63
482.13	7969.52
482.31	7920.37
482.49	8184.85
482.67	8229.32
482.85	8379.12
483.03	8468.06
483.21	8655.30
483.39	8622.53
483.57	8250.39
483.74	8465.72
483.92	8430.61
484.10	8847.22
484.28	8688.07
484.46	9013.40
484.64	9067.24
484.82	8849.57
485.00	9011.06
485.18	9240.44
485.35	9174.90
485.53	9231.07
485.71	9231.07
485.89	9516.62
486.07	9322.35
486.25	9518.96
486.43	9816.21
486.61	9633.64
486.78	9781.10
486.96	9844.29
487.14	10146.22
487.32	9860.68
487.50	10223.46
487.68	10015.15
487.85	10225.80
488.03	10565.18
488.21	10473.90
488.39	10520.71
488.57	10394.32
488.75	10597.95
488.92	10988.82
489.10	10970.09
489.28	10853.06
489.46	11026.26
489.64	10911.58
489.81	11136.27
489.99	11255.64
490.17	11250.96
490.35	11360.96
490.53	11349.26
490.70	11466.28
490.88	11536.50
491.06	11595.01
491.24	11662.89
491.41	11609.06
491.59	11978.86
491.77	11833.75
491.95	12107.59
492.13	12116.95
492.30	12100.57
492.48	12294.83
492.66	12273.77
492.84	12210.57
493.01	12538.25
493.19	12430.59
493.37	12931.46
493.54	12765.28
493.72	12662.30
493.90	12683.36
494.08	12971.25
494.25	12858.90
494.43	13123.38
494.61	13434.68
494.79	13287.22
494.96	13160.83
495.14	13380.84
495.32	13401.91
495.49	13535.32
495.67	13839.59
495.85	13563.40
496.02	14008.11
496.20	13867.67
496.38	13722.56
496.55	13933.21
496.73	14038.53
496.91	13987.04
497.09	13984.70
497.26	14181.31
497.44	14242.16
497.62	14321.74
497.79	14558.13
497.97	14492.60
498.14	14773.46
498.32	14822.61
498.50	14707.93
498.67	14710.27
498.85	14705.59
499.03	14864.74
499.20	14757.08
499.38	14874.10
499.56	15066.03
499.73	15208.80
499.91	15059.01
500.08	15152.63
500.26	15370.30
500.44	15389.02
500.61	15609.03
500.79	15140.93
500.97	15431.15
501.14	15735.42
501.32	15786.91
501.49	15573.92
501.67	15403.07
501.84	15543.50
502.02	15768.19
502.20	15925.00
502.37	16170.76
502.55	15983.52
502.72	16184.80
502.90	16065.44
503.07	15962.45
503.25	16077.14
503.43	16182.46
503.60	16224.59
503.78	16381.41
503.95	16418.86
504.13	16573.33
504.30	16468.01
504.48	16219.91
504.65	16610.78
504.83	16519.50
505.01	16814.41
505.18	16978.25
505.36	17137.40
505.53	16868.24
505.71	17036.76
505.88	17095.27
506.06	16905.69
506.23	17317.62
506.41	17109.32
506.58	17556.36
506.76	17057.82
506.93	17280.18
507.11	17200.60
507.28	17446.35
507.46	17177.19
507.63	17467.42
507.81	17675.73
507.98	17434.65
508.16	17593.81
508.33	17652.32
508.50	17872.33
508.68	17975.31
508.85	18054.89
509.03	17900.42
509.20	18111.07
509.38	17937.87
509.55	18183.62
509.73	17855.95
509.90	18092.34
510.08	18223.41
510.25	18169.58
510.42	18263.20
510.60	18448.10
510.77	18815.57
510.95	18530.02
511.12	18490.23
511.30	18635.35
511.47	18808.54
511.64	18520.66
511.82	19000.47
511.99	18672.79
512.17	18918.55
512.34	18867.06
512.51	19070.68
512.69	19213.46
512.86	19019.19
513.04	19248.57
513.21	19173.67
513.38	19246.23
513.56	19236.86
513.73	19288.35
513.90	19126.86
514.08	19349.21
514.25	19620.71
514.43	19604.33
514.60	19281.33
514.77	19491.98
514.95	19829.02
515.12	19590.28
515.29	19929.66
515.47	19571.56
515.64	20379.04
515.81	19761.14
515.99	19864.13
516.16	20299.47
516.33	19967.11
516.51	20208.19
516.68	20109.88
516.85	19960.09
517.03	20395.43
517.20	20484.37
517.37	20439.90
517.54	20519.48
517.72	20467.98
517.89	20266.70
518.06	20531.18
518.24	20357.98
518.41	20535.86
518.58	20561.61
518.75	20755.87
518.93	20900.98
519.10	20683.31
519.27	20908.01
519.45	20996.95
519.62	20767.57
519.79	21015.67
519.96	20896.30
520.14	21060.14
520.31	21034.39
520.48	21287.17
520.65	21123.33
520.83	21027.37
521.00	21247.38
521.17	21036.74
521.34	21284.83
521.52	21060.14
521.69	21413.56
521.86	21514.20
522.03	21717.83
522.20	21532.93
522.38	21703.79
522.55	21502.50
522.72	21806.77
522.89	21568.04
523.07	22052.53
523.24	21720.17
523.41	21827.84
523.58	21626.55
523.75	21881.67
523.92	22024.44
524.10	22160.19
524.27	22225.73
524.44	22225.73
524.61	22199.98
524.78	22466.80
524.96	22129.77
525.13	22473.82
525.30	22684.47
525.47	22499.57
525.64	22302.96
525.81	22583.83
525.98	22628.30
526.16	22375.52
526.33	22569.79
526.50	22738.30
526.67	22246.79
526.84	22703.20
527.01	22511.27
527.18	22628.30
527.36	23009.81
527.53	23201.73
527.70	23143.22
527.87	23269.61
528.04	22937.25
528.21	22925.55
528.38	22714.90
528.55	22855.33
528.72	23077.68
528.89	23094.07
529.07	22911.50
529.24	23503.66
529.41	23463.87
529.58	23323.44
529.75	23037.89
529.92	23461.53
530.09	23281.31
530.26	23498.98
530.43	23489.62
530.60	23351.52
530.77	23569.19
530.94	23529.41
531.11	23421.74
531.28	23386.63
531.46	23644.09
531.63	23585.58
531.80	23730.69
531.97	24189.44
532.14	23508.34
532.31	23695.58
532.48	23791.55
532.65	24034.96
532.82	23730.69
532.99	24144.97
533.16	24130.92
533.33	24283.06
533.50	24161.35
533.67	24231.57
533.84	23805.59
534.01	24269.01
534.18	24030.28
534.35	24245.61
534.52	24205.82
534.69	24161.35
534.86	24233.91
535.03	24313.48
535.20	24629.46
535.37	24453.92
535.54	24449.24
535.71	24411.79
535.88	24587.33
536.05	24652.86
536.22	24973.52
536.38	24776.91
536.55	24879.89
536.72	24746.48
536.89	24596.69
537.06	24587.33
537.23	24842.45
537.40	24531.15
537.57	25085.86
537.74	24720.74
537.91	25205.23
538.08	25186.50
538.25	24800.32
538.42	25102.25
538.59	25034.37
538.75	24814.36
538.92	25123.31
539.09	25518.86
539.26	25165.44
539.43	24847.13
539.60	25219.27
539.77	25249.70
539.94	25631.21
540.11	25315.23
540.28	25060.12
540.44	25219.27
540.61	25483.75
540.78	25420.56
540.95	25252.04
541.12	25324.60
541.29	25343.32
541.46	25656.95
541.62	25579.71
541.79	25329.28
541.96	25558.65
542.13	25135.01
542.30	25696.74
542.47	25989.31
542.63	25486.09
542.80	25989.31
542.97	25986.97
543.14	25788.02
543.31	26174.21
543.48	25991.65
543.64	26487.84
543.81	26209.32
543.98	26223.36
544.15	26075.91
544.32	26668.06
544.48	26560.40
544.65	26562.74
544.82	26368.48
544.99	26256.13
545.16	26211.66
545.32	26221.02
545.49	26223.36
545.66	26934.88
545.83	26689.13
546.00	26759.34
546.16	26712.53
546.33	26129.74
546.50	26094.63
546.67	26459.76
546.83	26302.94
547.00	26618.91
547.17	26710.19
547.34	26635.30
547.50	27108.08
547.67	26497.20
547.84	26740.62
548.00	26930.20
548.17	26991.06
548.34	27234.47
548.51	27190.00
548.67	26930.20
548.84	27152.55
549.01	26663.38
549.18	27033.19
549.34	27241.50
549.51	27037.87
549.68	27351.50
549.84	26562.74
550.01	26944.25
550.18	26871.69
550.34	27323.41
550.51	27395.97
550.68	27632.36
550.84	26885.73
551.01	27290.65
551.18	27243.84
551.34	26906.80
551.51	27204.05
551.68	27363.20
551.84	27381.93
552.01	27353.84
552.18	27733.01
552.34	27417.04
552.51	27433.42
552.68	27290.65
552.84	27459.16
553.01	27218.09
553.18	27740.03
553.34	27498.95
553.51	27316.39
553.67	27482.57
553.84	27990.47
554.01	27845.35
554.17	27896.85
554.34	27435.76
554.51	27775.14
554.67	27948.34
554.84	27908.55
555.00	27707.26
555.17	27800.88
555.33	27796.20
555.50	28226.86
555.67	27513.00
555.83	27896.85
556.00	27800.88
556.16	28765.18
556.33	28194.09
556.50	28109.83
556.66	28257.29
556.83	27903.87
556.99	27763.43
557.16	28573.26
557.32	28304.10
557.49	28367.29
557.65	28086.43
557.82	27803.22
557.98	28086.43
558.15	27941.32
558.32	28329.84
558.48	28161.33
558.65	28283.03
558.81	28311.12
558.98	28458.57
559.14	28556.88
559.31	27960.04
559.47	28458.57
559.64	28346.23
559.80	28428.15
559.97	28273.67
560.13	28467.94
560.30	28376.66
560.46	28395.38
560.63	28318.14
560.79	28713.69
560.96	28627.09
561.12	28465.60
561.29	28481.98
561.45	28903.28
561.61	28500.70
561.78	28533.47
561.94	28219.84
562.11	28650.50
562.27	28893.91
562.44	28959.45
562.60	28690.29
562.77	28575.60
562.93	28617.73
563.10	28432.83
563.26	28865.83
563.42	28900.94
563.59	28919.66
563.75	28725.39
563.92	28685.61
564.08	28591.98
564.24	28657.52
564.41	28514.75
564.57	28671.56
564.74	28802.63
564.90	28767.52
565.07	29041.37
565.23	29015.62
565.39	28774.55
565.56	29221.59
565.72	28826.04
565.88	28816.68
566.05	28861.15
566.21	29006.26
566.38	28479.64
566.54	28982.85
566.70	29090.52
566.87	29420.53
567.03	29237.97
567.19	29120.95
567.36	29130.31
567.52	29022.64
567.68	28968.81
567.85	28945.41
568.01	28994.56
568.17	28996.90
568.34	29132.65
568.50	29060.09
568.66	29324.57
568.83	29308.19
568.99	29216.91
569.15	29036.69
569.32	28996.90
569.48	28994.56
569.64	29301.17
569.81	28938.38
569.97	29551.60
570.13	29055.41
570.30	28828.38
570.46	28844.76
570.62	29071.79
570.78	28669.22
570.95	29249.67
571.11	29099.88
571.27	29193.50
571.43	28964.13
571.60	29134.99
571.76	29062.43
571.92	29345.64
572.09	29343.30
572.25	29205.20
572.41	29137.33
572.57	29319.89
572.74	29366.70
572.90	29195.84
573.06	29132.65
573.22	29083.50
573.38	29305.85
573.55	29020.30
573.71	29305.85
573.87	29563.31
574.03	29490.75
574.20	29336.27
574.36	29563.31
574.52	29046.05
574.68	29069.45
574.84	29315.21
575.01	29413.51
575.17	29244.99
575.33	29219.25
575.49	29060.09
575.65	29741.19
575.82	29282.44
575.98	29212.23
576.14	29193.50
576.30	29434.58
576.46	29352.66
576.62	29670.97
576.79	29415.85
576.95	29706.08
577.11	29682.67
577.27	29528.20
577.43	29362.02
577.59	29401.81
577.75	29345.64
577.92	29184.14
578.08	29315.21
578.24	29242.65
578.40	29649.91
578.56	29329.25
578.72	29598.41
578.88	29532.88
579.04	29521.18
579.21	29252.02
579.37	29584.37
579.53	29914.39
579.69	29252.02
579.85	29560.97
580.01	29130.31
580.17	29315.21
580.33	29731.83
580.49	29619.48
580.65	29670.97
580.82	29525.86
580.98	29876.94
581.14	29549.26
581.30	29645.23
581.46	29209.89
581.62	29383.09
581.78	29373.72
581.94	29965.88
582.10	29446.28
582.26	29797.36
582.42	29127.97
582.58	29687.36
582.74	29383.09
582.90	29858.21
583.06	29935.45
583.22	29467.34
583.38	29827.79
583.54	29184.14
583.70	29404.15
583.86	29462.66
584.02	29521.18
584.18	29422.87
584.34	29947.15
584.50	29511.81
584.66	29837.15
584.82	29572.67
584.98	29776.30
585.14	29333.93
585.30	29647.57
585.46	29507.13
585.62	29776.30
585.78	29748.21
585.94	29673.31
586.10	29614.80
586.26	29776.30
586.42	30094.61
586.58	29832.47
586.74	29420.53
586.90	29347.98
587.06	28877.53
587.22	29614.80
587.38	29647.57
587.54	29816.08
587.70	29769.27
587.86	29670.97
588.02	29872.26
588.18	29832.47
588.34	29860.55
588.49	29729.48
588.65	29493.09
588.81	29626.50
588.97	29926.09
589.13	29436.92
589.29	29795.02
589.45	29790.34
589.61	29813.74
589.77	30047.80
589.93	30094.61
590.08	30209.29
590.24	29949.50
590.40	30188.23
590.56	30141.42
590.72	29909.71
590.88	29844.17
591.04	29841.83
591.20	29818.42
591.35	29844.17
591.51	30342.70
591.67	30169.51
591.83	30075.88
591.99	30068.86
