SpectraSuite Data File
++++++++++++++++++++++++++++++++++++
Date: Fri Oct 18 13:58:24 GMT-05:00 2013
User: bianchi
Dark Spectrum Present: No
Reference Spectrum Present: No
Number of Sampled Component Spectra: 1
Spectrometers: USB2+H05261
Integration Time (usec): 50000 (USB2+H05261)
Spectra Averaged: 1 (USB2+H05261)
Boxcar Smoothing: 0 (USB2+H05261)
Correct for Electrical Dark: No (USB2+H05261)
Strobe/Lamp Enabled: No (USB2+H05261)
Correct for Detector Non-linearity: No (USB2+H05261)
Correct for Stray Light: No (USB2+H05261)
Number of Pixels in Processed Spectrum: 2048
>>>>>Begin Processed Spectral Data<<<<<
365.73	0.00
365.92	0.00
366.12	0.00
366.32	0.00
366.52	0.00
366.72	0.00
366.91	0.00
367.11	0.00
367.31	0.00
367.51	0.00
367.70	0.00
367.90	0.00
368.10	0.00
368.30	0.00
368.49	0.00
368.69	0.00
368.89	0.00
369.09	0.00
369.28	0.00
369.48	0.00
369.68	0.00
369.87	0.00
370.07	0.00
370.27	0.00
370.47	0.00
370.66	65.54
370.86	102.98
371.06	147.45
371.25	117.03
371.45	114.69
371.65	121.71
371.84	156.82
372.04	203.63
372.24	147.45
372.44	121.71
372.63	184.90
372.83	184.90
373.03	252.78
373.22	184.90
373.42	299.59
373.62	210.65
373.81	182.56
374.01	250.44
374.21	156.82
374.40	248.10
374.60	271.50
374.79	215.33
374.99	294.91
375.19	304.27
375.38	243.42
375.58	229.37
375.78	334.70
375.97	269.16
376.17	304.27
376.37	264.48
376.56	290.23
376.76	264.48
376.95	241.08
377.15	266.82
377.35	290.23
377.54	217.67
377.74	194.26
377.93	245.76
378.13	299.59
378.33	292.57
378.52	238.73
378.72	306.61
378.91	259.80
379.11	322.99
379.31	259.80
379.50	367.46
379.70	297.25
379.89	341.72
380.09	297.25
380.28	325.33
380.48	327.68
380.68	313.63
380.87	313.63
381.07	355.76
381.26	360.44
381.46	468.11
381.65	287.89
381.85	304.27
382.04	294.91
382.24	367.46
382.43	355.76
382.63	358.10
382.83	369.80
383.02	472.79
383.22	404.91
383.41	395.55
383.61	294.91
383.80	308.95
384.00	369.80
384.19	341.72
384.39	430.66
384.58	411.93
384.78	355.76
384.97	376.83
385.17	330.02
385.36	325.33
385.56	400.23
385.75	294.91
385.95	341.72
386.14	404.91
386.34	386.19
386.53	365.12
386.72	372.15
386.92	463.43
387.11	421.30
387.31	346.40
387.50	372.15
387.70	355.76
387.89	461.09
388.09	433.00
388.28	418.96
388.48	442.36
388.67	376.83
388.86	521.94
389.06	512.58
389.25	514.92
389.45	475.13
389.64	519.60
389.84	524.28
390.03	503.22
390.22	496.19
390.42	484.49
390.61	461.09
390.81	444.70
391.00	477.47
391.19	503.22
391.39	461.09
391.58	552.37
391.78	440.02
391.97	461.09
392.16	589.82
392.36	496.19
392.55	547.69
392.75	547.69
392.94	568.75
393.13	507.90
393.33	456.40
393.52	631.94
393.71	671.73
393.91	512.58
394.10	561.73
394.29	578.11
394.49	559.39
394.68	559.39
394.88	571.09
395.07	627.26
395.26	571.09
395.46	601.52
395.65	622.58
395.84	629.60
396.04	645.99
396.23	631.94
396.42	620.24
396.62	676.41
396.81	620.24
397.00	667.05
397.19	645.99
397.39	688.12
397.58	669.39
397.77	613.22
397.97	704.50
398.16	655.35
398.35	622.58
398.55	685.78
398.74	751.31
398.93	615.56
399.12	709.18
399.32	662.37
399.51	662.37
399.70	627.26
399.90	720.88
400.09	755.99
400.28	765.36
400.47	748.97
400.67	753.65
400.86	760.67
401.05	753.65
401.24	842.59
401.44	891.74
401.63	861.32
401.82	851.96
402.01	828.55
402.21	781.74
402.40	791.10
402.59	870.68
402.78	816.85
402.97	873.02
403.17	863.66
403.36	807.48
403.55	870.68
403.74	802.80
403.93	891.74
404.13	880.04
404.32	851.96
404.51	873.02
404.70	959.62
404.89	863.66
405.09	957.28
405.28	990.05
405.47	926.85
405.66	915.15
405.85	1006.43
406.05	1011.11
406.24	1050.90
406.43	1027.50
406.62	1015.79
406.81	1083.67
407.00	1011.11
407.20	1048.56
407.39	1027.50
407.58	1088.35
407.77	1027.50
407.96	1083.67
408.15	1053.24
408.34	1046.22
408.54	1116.44
408.73	1062.60
408.92	1067.28
409.11	1188.99
409.30	1165.59
409.49	1172.61
409.68	1128.14
409.87	1097.71
410.07	1116.44
410.26	1233.46
410.45	1203.04
410.64	1226.44
410.83	1186.65
411.02	1172.61
411.21	1296.66
411.40	1266.23
411.59	1270.91
411.78	1313.04
411.98	1231.12
412.17	1301.34
412.36	1313.04
412.55	1287.29
412.74	1376.24
412.93	1331.76
413.12	1306.02
413.31	1392.62
413.50	1378.58
413.69	1406.66
413.88	1523.69
414.07	1409.00
414.26	1446.45
414.45	1523.69
414.64	1516.67
414.83	1500.28
415.02	1523.69
415.22	1486.24
415.41	1549.43
415.60	1551.78
415.79	1507.30
415.98	1584.54
416.17	1582.20
416.36	1507.30
416.55	1593.90
416.74	1687.53
416.93	1619.65
417.12	1659.44
417.31	1682.85
417.50	1696.89
417.69	1652.42
417.88	1746.04
418.07	1687.53
418.26	1809.23
418.45	1832.64
418.64	1724.97
418.83	1771.79
419.02	1748.38
419.21	1823.28
419.39	1767.10
419.58	1774.13
419.77	1778.81
419.96	1856.04
420.15	1944.99
420.34	1905.20
420.53	1863.07
420.72	1853.70
420.91	1977.75
421.10	1956.69
421.29	1975.41
421.48	1856.04
421.67	1944.99
421.86	1970.73
422.05	2022.22
422.24	2003.50
422.43	1980.09
422.61	1982.43
422.80	2010.52
422.99	1954.35
423.18	1963.71
423.37	2160.31
423.56	2132.23
423.75	2064.35
423.94	1952.01
424.13	1942.64
424.32	1827.96
424.50	2127.55
424.69	2064.35
424.88	1998.82
425.07	2010.52
425.26	1942.64
425.45	2043.29
425.64	1996.48
425.83	2097.12
426.01	2040.95
426.20	2069.03
426.39	2017.54
426.58	1973.07
426.77	2057.33
426.96	2122.87
427.15	2076.06
427.33	2200.10
427.52	2085.42
427.71	2038.61
427.90	2209.47
428.09	2188.40
428.28	2235.21
428.46	2143.93
428.65	2244.57
428.84	2232.87
429.03	2275.00
429.22	2054.99
429.40	2242.23
429.59	2132.23
429.78	2054.99
429.97	2211.81
430.16	2282.02
430.34	2380.32
430.53	2347.56
430.72	2427.14
430.91	2307.77
431.10	2258.62
431.28	2389.69
431.47	2392.03
431.66	2368.62
431.85	2448.20
432.03	2487.99
432.22	2478.63
432.41	2396.71
432.60	2466.92
432.79	2392.03
432.97	2420.11
433.16	2532.46
433.35	2450.54
433.54	2513.74
433.72	2513.74
433.91	2469.27
434.10	2565.23
434.28	2612.04
434.47	2523.10
434.66	2633.10
434.85	2642.46
435.03	2537.14
435.22	2546.50
435.41	2649.49
435.59	2712.68
435.78	2654.17
435.97	2530.12
436.16	2759.49
436.34	2541.82
436.53	2764.17
436.72	2747.79
436.90	2576.93
437.09	2726.72
437.28	2654.17
437.46	2712.68
437.65	2855.45
437.84	2710.34
438.02	2836.73
438.21	2839.07
438.40	2932.69
438.58	2850.77
438.77	2949.08
438.96	2846.09
439.14	2883.54
439.33	2881.20
439.52	3009.93
439.70	3000.57
439.89	3126.96
440.08	3101.21
440.26	3019.29
440.45	3021.63
440.63	3091.85
440.82	3220.58
441.01	3117.59
441.19	3030.99
441.38	3169.09
441.57	3178.45
441.75	3304.84
441.94	3318.88
442.12	3269.73
442.31	3318.88
442.50	3241.64
442.68	3323.56
442.87	3337.60
443.05	3403.14
443.24	3396.12
443.43	3414.84
443.61	3325.90
443.80	3541.23
443.98	3368.03
444.17	3276.75
444.35	3506.12
444.54	3536.55
444.73	3417.18
444.91	3454.63
445.10	3445.27
445.28	3370.37
445.47	3503.78
445.65	3452.29
445.84	3595.06
446.02	3496.76
446.21	3524.85
446.39	3361.01
446.58	3548.25
446.77	3522.51
446.95	3412.50
447.14	3513.14
447.32	3494.42
447.51	3501.44
447.69	3485.06
447.88	3585.70
448.06	3489.74
448.25	3524.85
448.43	3604.42
448.62	3536.55
448.80	3562.30
448.99	3665.28
449.17	3637.19
449.36	3709.75
449.54	3719.11
449.73	3695.71
449.91	3693.37
450.10	3782.31
450.28	3932.10
450.46	3742.52
450.65	3819.75
450.83	3824.44
451.02	3918.06
451.20	3861.88
451.39	3974.23
451.57	3768.26
451.76	3765.92
451.94	3838.48
452.13	3791.67
452.31	3861.88
452.49	3761.24
452.68	3873.59
452.86	3866.56
453.05	4065.51
453.23	4278.50
453.42	3997.64
453.60	3794.01
453.78	3913.38
453.97	3918.06
454.15	4044.45
454.34	3953.16
454.52	4049.13
454.70	3920.40
454.89	3833.80
455.07	3997.64
455.26	3911.04
455.44	4184.88
455.62	4065.51
455.81	3990.61
455.99	4262.12
456.17	4152.11
456.36	4058.49
456.54	4208.28
456.73	4196.58
456.91	4470.42
457.09	4329.99
457.28	4299.56
457.46	4227.01
457.64	4409.57
457.83	4297.22
458.01	4287.86
458.19	4409.57
458.38	4400.21
458.56	4397.87
458.74	4472.76
458.93	4395.53
459.11	4535.96
459.29	4517.23
459.48	4500.85
459.66	4386.16
459.84	4690.43
460.03	4676.39
460.21	4535.96
460.39	4610.86
460.57	4557.02
460.76	4564.04
460.94	4720.86
461.12	4664.69
461.31	4615.54
461.49	4631.92
461.67	4699.80
461.85	4823.84
462.04	4744.27
462.22	4891.72
462.40	4835.55
462.59	4830.87
462.77	4741.93
462.95	4807.46
463.13	4777.03
463.32	4826.18
463.50	4997.04
463.68	4964.28
463.86	4929.17
464.05	4765.33
464.23	4882.36
464.41	4833.21
464.59	4901.08
464.78	5158.54
464.96	4954.91
465.14	4957.25
465.32	4961.94
465.50	5104.71
465.69	5118.75
465.87	4950.23
466.05	5116.41
466.23	4954.91
466.41	5060.24
466.60	5109.39
466.78	5188.97
466.96	4861.29
467.14	5123.43
467.32	4917.47
467.51	5327.06
467.69	5167.90
467.87	5153.86
468.05	5167.90
468.23	5022.79
468.41	5097.69
468.60	5181.95
468.78	5212.37
468.96	5156.20
469.14	5245.14
469.32	5233.44
469.50	5078.96
469.69	5343.44
469.87	5540.05
470.05	5570.48
470.23	5385.57
470.41	5327.06
470.59	5504.94
470.77	5514.30
470.95	5582.18
471.14	5458.13
471.32	5476.85
471.50	5734.31
471.68	5511.96
471.86	5617.29
472.04	5640.69
472.22	5731.97
472.40	5680.48
472.58	5638.35
472.77	5692.18
472.95	5930.92
473.13	6195.40
473.31	5781.12
473.49	5764.74
473.67	5781.12
473.85	5954.32
474.03	6134.54
474.21	5940.28
474.39	6235.19
474.57	6090.07
474.75	6136.88
474.93	6195.40
475.12	6256.25
475.30	6218.80
475.48	6368.60
475.66	6403.71
475.84	6267.95
476.02	6333.49
476.20	6186.04
476.38	6459.88
476.56	6649.46
476.74	6651.80
476.92	6593.29
477.10	6506.69
477.28	6724.36
477.46	6527.75
477.64	6682.23
477.82	6876.49
478.00	6860.11
478.18	6991.18
478.36	6984.16
478.54	7084.80
478.72	7000.54
478.90	7185.44
479.08	7229.91
479.26	7286.09
479.44	7466.31
479.62	7208.85
479.80	7529.50
479.98	7545.89
480.16	7566.95
480.34	7695.68
480.52	7798.66
480.70	7791.64
480.88	7627.81
481.06	7660.57
481.24	7854.84
481.41	7854.84
481.59	7929.74
481.77	8175.49
481.95	7990.59
482.13	8257.41
482.31	8215.28
482.49	8128.68
482.67	8248.05
482.85	8388.48
483.03	8484.44
483.21	8662.32
483.39	8578.06
483.57	8772.33
483.74	8758.28
483.92	8699.77
484.10	8872.97
484.28	8847.22
484.46	9046.17
484.64	9039.15
484.82	9123.41
485.00	9146.81
485.18	9228.73
485.35	9717.90
485.53	9441.72
485.71	9631.30
485.89	9802.16
486.07	9472.15
486.25	9790.46
486.43	9598.54
486.61	9891.10
486.78	10038.56
486.96	10104.09
487.14	10015.15
487.32	10455.17
487.50	10347.51
487.68	10333.47
487.85	10640.08
488.03	10670.50
488.21	10642.42
488.39	10534.75
488.57	10736.04
488.75	10916.26
488.92	10895.19
489.10	11073.07
489.28	11140.95
489.46	11194.78
489.64	11091.80
489.81	11330.53
489.99	11452.24
490.17	11417.13
490.35	11477.99
490.53	11721.40
490.70	11901.62
490.88	11573.95
491.06	11754.17
491.24	11852.47
491.41	11845.45
491.59	12049.08
491.77	12039.72
491.95	12365.05
492.13	12177.81
492.30	12355.69
492.48	12491.44
492.66	12255.04
492.84	12287.81
493.01	12575.70
493.19	12662.30
493.37	12835.50
493.54	12945.50
493.72	12875.29
493.90	12936.14
494.08	12919.76
494.25	13142.11
494.43	13259.13
494.61	13427.65
494.79	13219.35
494.96	13453.40
495.14	13453.40
495.32	13518.93
495.49	13572.77
495.67	13720.22
495.85	13834.91
496.02	13734.26
496.20	14052.58
496.38	14019.81
496.55	14134.50
496.73	14326.42
496.91	14375.57
497.09	14340.46
497.26	14429.40
497.44	14118.11
497.62	14452.81
497.79	14501.96
497.97	14476.21
498.14	14890.49
498.32	14855.38
498.50	14724.31
498.67	15005.17
498.85	15016.88
499.03	15077.73
499.20	15187.74
499.38	15154.97
499.56	15169.01
499.73	15559.88
499.91	15353.91
500.08	15414.77
500.26	15154.97
500.44	15410.09
500.61	15845.43
500.79	15613.71
500.97	15529.45
501.14	15815.00
501.32	15941.39
501.49	15878.19
501.67	15932.03
501.84	16020.97
502.02	16280.77
502.20	16362.69
502.37	15955.43
502.55	16212.89
502.72	16283.11
502.90	16173.10
503.07	16255.02
503.25	16491.41
503.43	16367.37
503.60	16563.97
503.78	16540.57
503.95	16886.97
504.13	16666.95
504.30	16922.07
504.48	16879.94
504.65	16814.41
504.83	16886.97
505.01	17104.64
505.18	17085.91
505.36	17153.79
505.53	17034.42
505.71	17216.98
505.88	17137.40
506.06	17301.24
506.23	17221.66
506.41	17270.81
506.58	17715.51
506.76	17617.21
506.93	17612.53
507.11	17273.15
507.28	17511.89
507.46	17635.94
507.63	17902.76
507.81	18064.25
507.98	18085.32
508.16	18050.21
508.33	17886.37
508.50	17947.23
508.68	18066.60
508.85	18099.36
509.03	18511.30
509.20	18424.70
509.38	18471.51
509.55	18424.70
509.73	18436.40
509.90	18806.20
510.08	18375.55
510.25	18422.36
510.42	18733.65
510.60	19145.58
510.77	18633.00
510.95	19028.56
511.12	18703.22
511.30	18820.25
511.47	19246.23
511.64	18883.44
511.82	19332.82
511.99	19183.03
512.17	19058.98
512.34	18981.74
512.51	19468.58
512.69	19676.88
512.86	19250.91
513.04	19506.02
513.21	19587.94
513.38	19768.16
513.56	19541.13
513.73	19520.07
513.90	19962.43
514.08	19777.53
514.25	19857.10
514.43	19882.85
514.60	19683.91
514.77	19829.02
514.95	20152.01
515.12	19871.15
515.29	19924.98
515.47	20517.14
515.64	20327.55
515.81	20313.51
515.99	20226.91
516.16	20329.89
516.33	20350.96
516.51	20706.72
516.68	20334.57
516.85	20723.10
517.03	20395.43
517.20	20477.35
517.37	20746.51
517.54	20657.57
517.72	20725.44
517.89	20500.75
518.06	20823.75
518.24	20933.75
518.41	20575.65
518.58	20842.47
518.75	20908.01
518.93	20985.24
519.10	21205.25
519.27	21186.53
519.45	21039.08
519.62	21125.68
519.79	20966.52
519.96	20893.96
520.14	21165.46
520.31	21322.28
520.48	21558.67
520.65	21446.33
520.83	21654.64
521.00	21572.72
521.17	21568.04
521.34	21549.31
521.52	21783.37
521.69	21881.67
521.86	21919.12
522.03	21872.31
522.20	21884.01
522.38	21748.26
522.55	22071.25
522.72	21834.86
522.89	22001.04
523.07	22167.21
523.24	22448.08
523.41	22363.82
523.58	22258.49
523.75	22595.53
523.92	22258.49
524.10	22204.66
524.27	22494.89
524.44	22574.47
524.61	22569.79
524.78	22787.46
524.96	22712.56
525.13	22487.87
525.30	22668.09
525.47	22604.89
525.64	22810.86
525.81	22668.09
525.98	23061.30
526.16	22808.52
526.33	23058.96
526.50	22960.66
526.67	22883.42
526.84	22995.76
527.01	22672.77
527.18	23330.46
527.36	22843.63
527.53	23180.67
527.70	23264.92
527.87	23744.73
528.04	23304.71
528.21	23487.28
528.38	23262.58
528.55	23414.72
528.72	23253.22
528.89	23576.22
529.07	23690.90
529.24	23494.30
529.41	23913.25
529.58	23513.02
529.75	23608.98
529.92	23704.95
530.09	23721.33
530.26	23655.79
530.43	23796.23
530.60	23789.20
530.77	24016.24
530.94	24266.67
531.11	23889.85
531.28	24247.95
531.46	23929.64
531.63	23920.28
531.80	24144.97
531.97	24308.80
532.14	24376.68
532.31	24060.71
532.48	24350.93
532.65	24233.91
532.82	24163.69
532.99	24297.10
533.16	24301.78
533.33	24587.33
533.50	24776.91
533.67	24072.41
533.84	24638.82
534.01	24409.45
534.18	24613.07
534.35	24496.05
534.52	24594.35
534.69	24687.97
534.86	24797.98
535.03	24599.03
535.20	25219.27
535.37	24856.49
535.54	24947.77
535.71	24669.25
535.88	25104.59
536.05	24837.76
536.22	24893.94
536.38	25242.68
536.55	25025.01
536.72	25266.08
536.89	24800.32
537.06	25357.36
537.23	25163.10
537.40	25259.06
537.57	25174.80
537.74	25394.81
537.91	25717.81
538.08	25029.69
538.25	25006.28
538.42	25511.84
538.59	25429.92
538.75	25544.61
538.92	25355.02
539.09	25635.89
539.26	25610.14
539.43	25778.66
539.60	25968.24
539.77	25544.61
539.94	25528.22
540.11	25692.06
540.28	25429.92
540.44	25741.21
540.61	25645.25
540.78	25535.24
540.95	25783.34
541.12	25837.17
541.29	25989.31
541.46	26188.25
541.62	25986.97
541.79	26129.74
541.96	25963.56
542.13	25610.14
542.30	25919.09
542.47	26202.30
542.63	26094.63
542.80	26340.39
542.97	26639.98
543.14	26478.48
543.31	26445.71
543.48	26551.04
543.64	26824.88
543.81	26874.03
543.98	26878.71
544.15	26553.38
544.32	26609.55
544.48	26991.06
544.65	26649.34
544.82	26536.99
544.99	26316.98
545.16	26932.54
545.32	26569.76
545.49	26665.72
545.66	27335.12
545.83	27154.90
546.00	26735.94
546.16	26883.39
546.33	26986.38
546.50	26838.92
546.67	27225.11
546.83	26586.15
547.00	27044.89
547.17	26639.98
547.34	27264.90
547.50	27239.15
547.67	27510.66
547.84	27138.51
548.00	27360.86
548.17	27702.58
548.34	27257.88
548.51	27367.88
548.67	27473.21
548.84	27222.77
549.01	27281.28
549.18	27433.42
549.34	27431.08
549.51	27522.36
549.68	27342.14
549.84	27611.30
550.01	27145.53
550.18	27524.70
550.34	27761.09
550.51	27981.10
550.68	27828.97
550.84	27295.33
551.01	27592.58
551.18	27456.82
551.34	27239.15
551.51	27620.66
551.68	27791.52
551.84	27796.20
552.01	27894.50
552.18	28371.97
552.34	27782.16
552.51	28025.57
552.68	28140.26
552.84	28158.99
553.01	28048.98
553.18	28203.46
553.34	28130.90
553.51	27800.88
553.67	28430.49
553.84	28341.55
554.01	28388.36
554.17	28353.25
554.34	27901.53
554.51	28271.33
554.67	28032.60
554.84	28084.09
555.00	28393.04
555.17	28315.80
555.33	28236.22
555.50	28046.64
555.67	28301.76
555.83	28709.01
556.00	28577.94
556.16	28552.20
556.33	28173.03
556.50	28575.60
556.66	28734.76
556.83	28439.85
556.99	28816.68
557.16	28856.46
557.32	28423.47
557.49	28980.51
557.65	28531.13
557.82	28570.92
557.98	28367.29
558.15	28879.87
558.32	28512.41
558.48	28547.51
558.65	28851.78
558.81	29144.35
558.98	28844.76
559.14	28566.24
559.31	28568.58
559.47	28542.83
559.64	28966.47
559.80	28643.48
559.97	28884.55
560.13	28861.15
560.30	29156.05
560.46	29055.41
560.63	28975.83
560.79	29277.76
560.96	29273.08
561.12	28912.64
561.29	28982.85
561.45	29003.92
561.61	29151.37
561.78	28975.83
561.94	29027.32
562.11	29090.52
562.27	29357.34
562.44	28896.25
562.60	29244.99
562.77	28994.56
562.93	28961.79
563.10	29312.87
563.26	28973.49
563.42	29736.51
563.59	29324.57
563.75	28914.98
563.92	29518.84
564.08	29254.36
564.24	29694.38
564.41	29099.88
564.57	29034.35
564.74	29450.96
564.90	29322.23
565.07	29261.38
565.23	29624.16
565.39	29818.42
565.56	29177.12
565.72	29509.47
565.88	29621.82
566.05	28926.68
566.21	28978.17
566.38	29553.94
566.54	29582.03
566.70	29710.76
566.87	29680.33
567.03	29495.43
567.19	29582.03
567.36	29497.77
567.52	29553.94
567.68	29722.46
567.85	29453.30
568.01	29296.49
568.17	29235.63
568.34	29722.46
568.50	29586.71
568.66	29572.67
568.83	29949.50
568.99	29848.85
569.15	29474.37
569.32	29472.03
569.48	29216.91
569.64	29516.50
569.81	29656.93
569.97	29600.76
570.13	29949.50
570.30	29724.80
570.46	29827.79
570.62	29694.38
570.78	29600.76
570.95	29589.05
571.11	29305.85
571.27	29514.16
571.43	29909.71
571.60	29312.87
571.76	29584.37
571.92	29872.26
572.09	29600.76
572.25	29631.18
572.41	29661.61
572.57	29673.31
572.74	29846.51
572.90	29376.06
573.06	29830.13
573.22	29825.45
573.38	29935.45
573.55	29509.47
573.71	30043.12
573.87	30087.59
574.03	29909.71
574.20	30143.76
574.36	29462.66
574.52	29832.47
574.68	29881.62
574.84	29680.33
575.01	29795.02
575.17	30192.91
575.33	29909.71
575.49	29886.30
575.65	30092.27
575.82	30174.19
575.98	29937.79
576.14	29979.92
576.30	29509.47
576.46	30033.75
576.62	29738.85
576.79	29823.11
576.95	30050.14
577.11	30010.35
577.27	29759.91
577.43	30331.00
577.59	30089.93
577.75	30059.50
577.92	29465.00
578.08	29914.39
578.24	29647.57
578.40	30071.20
578.56	29965.88
578.72	30291.21
578.88	30167.16
579.04	30293.55
579.21	29841.83
579.37	30148.44
579.53	30225.68
579.69	29900.34
579.85	30359.09
580.01	30113.33
580.17	30000.99
580.33	29579.69
580.49	30059.50
580.65	30015.03
580.82	30110.99
580.98	30064.18
581.14	29947.15
581.30	29893.32
581.46	29617.14
581.62	30284.19
581.78	29860.55
581.94	30195.25
582.10	30176.53
582.26	30103.97
582.42	30043.12
582.58	29940.13
582.74	30113.33
582.90	30319.30
583.06	30270.15
583.22	30024.39
583.38	30176.53
583.54	30300.58
583.70	30204.61
583.86	30047.80
584.02	30157.80
584.18	30089.93
584.34	30146.10
584.50	30380.15
584.66	30216.32
584.82	30129.72
584.98	30110.99
585.14	29668.63
585.30	29734.17
585.46	30038.44
585.62	29841.83
585.78	30216.32
585.94	29802.04
586.10	30235.04
586.26	30272.49
586.42	29961.20
586.58	30185.89
586.74	29970.56
586.90	29912.05
587.06	30115.67
587.22	30185.89
587.38	29888.64
587.54	30654.00
587.70	30773.36
587.86	30426.96
588.02	30464.41
588.18	30422.28
588.34	30197.59
588.49	30258.45
588.65	30181.21
588.81	30305.26
588.97	30178.87
589.13	30183.55
589.29	30244.40
589.45	30513.56
589.61	30164.82
589.77	30426.96
589.93	30845.92
590.08	30712.51
590.24	30630.59
590.40	30382.49
590.56	30473.78
590.72	30288.87
590.88	30228.02
591.04	30307.60
591.20	30551.01
591.35	30410.58
591.51	30899.75
591.67	30597.82
591.83	31012.10
