SpectraSuite Data File
++++++++++++++++++++++++++++++++++++
Date: Fri Oct 18 13:58:30 GMT-05:00 2013
User: bianchi
Dark Spectrum Present: No
Reference Spectrum Present: No
Number of Sampled Component Spectra: 1
Spectrometers: USB2+H05261
Integration Time (usec): 50000 (USB2+H05261)
Spectra Averaged: 1 (USB2+H05261)
Boxcar Smoothing: 0 (USB2+H05261)
Correct for Electrical Dark: No (USB2+H05261)
Strobe/Lamp Enabled: No (USB2+H05261)
Correct for Detector Non-linearity: No (USB2+H05261)
Correct for Stray Light: No (USB2+H05261)
Number of Pixels in Processed Spectrum: 2048
>>>>>Begin Processed Spectral Data<<<<<
365.73	0.00
365.92	0.00
366.12	0.00
366.32	0.00
366.52	0.00
366.72	0.00
366.91	0.00
367.11	0.00
367.31	0.00
367.51	0.00
367.70	0.00
367.90	0.00
368.10	0.00
368.30	0.00
368.49	0.00
368.69	0.00
368.89	0.00
369.09	0.00
369.28	0.00
369.48	0.00
369.68	0.00
369.87	0.00
370.07	0.00
370.27	0.00
370.47	0.00
370.66	105.32
370.86	121.71
371.06	86.60
371.25	145.11
371.45	163.84
371.65	121.71
371.84	182.56
372.04	124.05
372.24	88.94
372.44	189.58
372.63	191.92
372.83	138.09
373.03	191.92
373.22	175.54
373.42	156.82
373.62	189.58
373.81	290.23
374.01	250.44
374.21	280.86
374.40	201.29
374.60	266.82
374.79	243.42
374.99	182.56
375.19	243.42
375.38	227.03
375.58	198.95
375.78	252.78
375.97	266.82
376.17	287.89
376.37	243.42
376.56	271.50
376.76	259.80
376.95	315.97
377.15	297.25
377.35	271.50
377.54	229.37
377.74	276.18
377.93	224.69
378.13	252.78
378.33	245.76
378.52	339.38
378.72	222.35
378.91	299.59
379.11	248.10
379.31	271.50
379.50	271.50
379.70	308.95
379.89	264.48
380.09	351.08
380.28	280.86
380.48	259.80
380.68	322.99
380.87	262.14
381.07	355.76
381.26	276.18
381.46	276.18
381.65	355.76
381.85	285.55
382.04	210.65
382.24	339.38
382.43	376.83
382.63	362.78
382.83	299.59
383.02	374.49
383.22	344.06
383.41	301.93
383.61	306.61
383.80	332.36
384.00	311.29
384.19	353.42
384.39	353.42
384.58	358.10
384.78	362.78
384.97	395.55
385.17	351.08
385.36	341.72
385.56	327.68
385.75	313.63
385.95	337.04
386.14	383.85
386.34	381.51
386.53	397.89
386.72	365.12
386.92	407.25
387.11	411.93
387.31	421.30
387.50	465.77
387.70	341.72
387.89	465.77
388.09	433.00
388.28	433.00
388.48	416.62
388.67	472.79
388.86	425.98
389.06	465.77
389.25	416.62
389.45	355.76
389.64	437.68
389.84	369.80
390.03	489.17
390.22	510.24
390.42	475.13
390.61	493.85
390.81	465.77
391.00	482.15
391.19	486.83
391.39	538.32
391.58	477.47
391.78	514.92
391.97	510.24
392.16	533.64
392.36	512.58
392.55	517.26
392.75	477.47
392.94	484.49
393.13	587.47
393.33	596.84
393.52	498.53
393.71	517.26
393.91	580.45
394.10	575.77
394.29	617.90
394.49	510.24
394.68	587.47
394.88	606.20
395.07	594.50
395.26	545.34
395.46	599.18
395.65	564.07
395.84	519.60
396.04	704.50
396.23	571.09
396.42	575.77
396.62	629.60
396.81	613.22
397.00	650.67
397.19	657.69
397.39	657.69
397.58	653.01
397.77	662.37
397.97	725.57
398.16	559.39
398.35	730.25
398.55	566.41
398.74	636.63
398.93	596.84
399.12	631.94
399.32	638.97
399.51	634.29
399.70	739.61
399.90	753.65
400.09	751.31
400.28	772.38
400.47	732.59
400.67	751.31
400.86	763.01
401.05	748.97
401.24	767.70
401.44	835.57
401.63	763.01
401.82	713.86
402.01	779.40
402.21	713.86
402.40	849.61
402.59	779.40
402.78	805.14
402.97	730.25
403.17	765.36
403.36	816.85
403.55	929.19
403.74	847.27
403.93	795.78
404.13	938.55
404.32	889.40
404.51	870.68
404.70	884.72
404.89	800.46
405.09	915.15
405.28	903.45
405.47	896.43
405.66	966.64
405.85	929.19
406.05	973.66
406.24	987.71
406.43	990.05
406.62	933.87
406.81	1041.54
407.00	1008.77
407.20	929.19
407.39	964.30
407.58	1006.43
407.77	1008.77
407.96	1046.22
408.15	1069.62
408.34	1076.65
408.54	1093.03
408.73	1076.65
408.92	1128.14
409.11	1034.52
409.30	1107.07
409.49	1086.01
409.68	1086.01
409.87	1118.78
410.07	1130.48
410.26	1142.18
410.45	1214.74
410.64	1256.87
410.83	1121.12
411.02	1191.33
411.21	1144.52
411.40	1235.80
411.59	1273.25
411.78	1252.19
411.98	1128.14
412.17	1277.93
412.36	1268.57
412.55	1266.23
412.74	1301.34
412.93	1261.55
413.12	1282.61
413.31	1352.83
413.50	1413.68
413.69	1378.58
413.88	1343.47
414.07	1376.24
414.26	1493.26
414.45	1385.60
414.64	1387.94
414.83	1497.94
415.02	1439.43
415.22	1427.73
415.41	1558.80
415.60	1547.09
415.79	1479.22
415.98	1626.67
416.17	1572.84
416.36	1589.22
416.55	1488.58
416.74	1647.74
416.93	1659.44
417.12	1626.67
417.31	1790.51
417.50	1575.18
417.69	1750.72
417.88	1614.97
418.07	1703.91
418.26	1732.00
418.45	1753.06
418.64	1865.41
418.83	1732.00
419.02	1783.49
419.21	1713.27
419.39	1846.68
419.58	1827.96
419.77	1771.79
419.96	1788.17
420.15	1757.74
420.34	1750.72
420.53	1905.20
420.72	1867.75
420.91	1935.62
421.10	1856.04
421.29	1963.71
421.48	2022.22
421.67	1977.75
421.86	2001.16
422.05	1987.11
422.24	1944.99
422.43	2005.84
422.61	1961.37
422.80	1966.05
422.99	2038.61
423.18	1970.73
423.37	1975.41
423.56	2071.37
423.75	1928.60
423.94	2010.52
424.13	1921.58
424.32	1884.13
424.50	2012.86
424.69	1949.67
424.88	2029.24
425.07	2076.06
425.26	1926.26
425.45	1963.71
425.64	1933.28
425.83	2043.29
426.01	2076.06
426.20	2097.12
426.39	2036.27
426.58	2078.40
426.77	2062.01
426.96	2083.08
427.15	2029.24
427.33	2160.31
427.52	2001.16
427.71	2162.66
427.90	2141.59
428.09	2108.82
428.28	2167.34
428.46	2237.55
428.65	2080.74
428.84	2202.44
429.03	2279.68
429.22	2085.42
429.40	2176.70
429.59	2190.74
429.78	2099.46
429.97	2043.29
430.16	2195.42
430.34	2349.90
430.53	2324.15
430.72	2319.47
430.91	2366.28
431.10	2300.75
431.28	2286.70
431.47	2242.23
431.66	2319.47
431.85	2387.35
432.03	2511.39
432.22	2537.14
432.41	2445.86
432.60	2518.42
432.79	2492.67
432.97	2443.52
433.16	2422.45
433.35	2436.50
433.54	2572.25
433.72	2513.74
433.91	2438.84
434.10	2459.90
434.28	2450.54
434.47	2499.69
434.66	2558.21
434.85	2626.08
435.03	2588.63
435.22	2534.80
435.41	2576.93
435.59	2565.23
435.78	2588.63
435.97	2633.10
436.16	2523.10
436.34	2513.74
436.53	2558.21
436.72	2689.28
436.90	2600.34
437.09	2675.23
437.28	2621.40
437.46	2729.06
437.65	2808.64
437.84	2661.19
438.02	2806.30
438.21	2864.82
438.40	2736.09
438.58	2785.24
438.77	2794.60
438.96	2825.03
439.14	2895.24
439.33	2906.95
439.52	2911.63
439.70	2939.71
439.89	2925.67
440.08	2918.65
440.26	2920.99
440.45	3014.61
440.63	2963.12
440.82	3122.27
441.01	3007.59
441.19	2944.39
441.38	3098.87
441.57	3145.68
441.75	3178.45
441.94	3162.06
442.12	3173.77
442.31	3297.81
442.50	3281.43
442.68	3178.45
442.87	3229.94
443.05	3307.18
443.24	3276.75
443.43	3330.58
443.61	3281.43
443.80	3478.04
443.98	3302.50
444.17	3145.68
444.35	3358.67
444.54	3506.12
444.73	3328.24
444.91	3276.75
445.10	3421.86
445.28	3323.56
445.47	3274.41
445.65	3370.37
445.84	3351.65
446.02	3424.20
446.21	3384.41
446.39	3375.05
446.58	3489.74
446.77	3396.12
446.95	3496.76
447.14	3412.50
447.32	3496.76
447.51	3396.12
447.69	3384.41
447.88	3646.55
448.06	3585.70
448.25	3499.10
448.43	3480.38
448.62	3557.61
448.80	3461.65
448.99	3466.33
449.17	3627.83
449.36	3407.82
449.54	3719.11
449.73	3693.37
449.91	3581.02
450.10	3475.70
450.28	3707.41
450.46	3611.45
450.65	3646.55
450.83	3571.66
451.02	3571.66
451.20	3749.54
451.39	3733.15
451.57	3613.79
451.76	3592.72
451.94	3700.39
452.13	3861.88
452.31	3791.67
452.49	3840.82
452.68	3824.44
452.86	3838.48
453.05	3716.77
453.23	3751.88
453.42	3700.39
453.60	3784.65
453.78	3819.75
453.97	3735.50
454.15	3892.31
454.34	3854.86
454.52	3857.20
454.70	3819.75
454.89	3885.29
455.07	3896.99
455.26	3974.23
455.44	3927.42
455.62	4028.06
455.81	4098.28
455.99	4060.83
456.17	4074.87
456.36	3983.59
456.54	4102.96
456.73	4133.39
456.91	4245.73
457.09	4327.65
457.28	4255.09
457.46	4030.40
457.64	4259.78
457.83	4294.88
458.01	4119.34
458.19	4306.59
458.38	4217.65
458.56	4421.27
458.74	4376.80
458.93	4107.64
459.11	4388.50
459.29	4252.75
459.48	4374.46
459.66	4393.19
459.84	4409.57
460.03	4571.07
460.21	4496.17
460.39	4465.74
460.57	4400.21
460.76	4346.37
460.94	4622.56
461.12	4547.66
461.31	4620.22
461.49	4578.09
461.67	4505.53
461.85	4613.20
462.04	4528.94
462.22	4571.07
462.40	4657.67
462.59	4519.57
462.77	4533.62
462.95	4669.37
463.13	4823.84
463.32	4643.62
463.50	4762.99
463.68	4849.59
463.86	4655.33
464.05	4844.91
464.23	4589.79
464.41	4884.70
464.59	4770.01
464.78	4889.38
464.96	4706.82
465.14	4725.54
465.32	4746.61
465.50	4980.66
465.69	4868.31
465.87	4755.97
466.05	4945.55
466.23	4952.57
466.41	4884.70
466.60	5107.05
466.78	4980.66
466.96	5046.20
467.14	4814.48
467.32	5050.88
467.51	5107.05
467.69	4915.12
467.87	5020.45
468.05	5146.84
468.23	4959.60
468.41	5001.72
468.60	5055.56
468.78	5118.75
468.96	5146.84
469.14	5188.97
469.32	5128.11
469.50	5252.16
469.69	5259.18
469.87	5359.83
470.05	5252.16
470.23	5266.21
470.41	5397.28
470.59	5385.57
470.77	5282.59
470.95	5263.86
471.14	5589.20
471.32	5315.36
471.50	5390.25
471.68	5380.89
471.86	5535.37
472.04	5490.90
472.22	5699.20
472.40	5521.32
472.58	5633.67
472.77	5652.39
472.95	5750.70
473.13	5891.13
473.31	5614.95
473.49	5469.83
473.67	5724.95
473.85	5743.67
474.03	5834.96
474.21	6059.65
474.39	6040.92
474.57	5881.77
474.75	6113.48
474.93	5994.11
475.12	6078.37
475.30	6010.50
475.48	6143.91
475.66	6066.67
475.84	6230.51
476.02	6183.70
476.20	6321.79
476.38	6256.25
476.56	6319.45
476.74	6251.57
476.92	6363.92
477.10	6384.98
477.28	6675.21
477.46	6324.13
477.64	6647.12
477.82	6527.75
478.00	6834.36
478.18	6848.41
478.36	6740.74
478.54	6712.66
478.72	6951.39
478.90	7014.59
479.08	7033.31
479.26	7068.42
479.44	7232.26
479.62	7124.59
479.80	7138.63
479.98	7201.83
480.16	7536.52
480.34	7379.71
480.52	7536.52
480.70	7438.22
480.88	7485.03
481.06	7573.97
481.24	7548.23
481.41	7681.64
481.59	7742.49
481.77	7920.37
481.95	8044.42
482.13	7843.14
482.31	7901.65
482.49	8182.51
482.67	7864.20
482.85	8257.41
483.03	8149.75
483.21	8407.20
483.39	8454.02
483.57	8404.86
483.74	8549.98
483.92	8566.36
484.10	8393.16
484.28	8929.14
484.46	8711.47
484.64	8973.61
484.82	9081.28
485.00	8933.82
485.18	8882.33
485.35	9289.59
485.53	9137.45
485.71	9305.97
485.89	9572.79
486.07	9460.45
486.25	9399.59
486.43	9373.85
486.61	9671.09
486.78	9640.67
486.96	9762.37
487.14	10115.80
487.32	9811.53
487.50	9966.00
487.68	9771.74
487.85	10146.22
488.03	10232.82
488.21	10289.00
488.39	10270.27
488.57	10431.77
488.75	10494.96
488.92	10670.50
489.10	10630.71
489.28	10834.34
489.46	10743.06
489.64	10829.66
489.81	11035.63
489.99	11316.49
490.17	11091.80
490.35	11293.08
490.53	11211.17
490.70	11286.06
490.88	11255.64
491.06	11506.07
491.24	11580.97
491.41	11681.61
491.59	11824.39
491.77	11709.70
491.95	11936.73
492.13	12018.65
492.30	12079.50
492.48	12170.79
492.66	12095.89
492.84	12259.73
493.01	12301.86
493.19	12205.89
493.37	12650.60
493.54	12821.45
493.72	12652.94
493.90	12437.61
494.08	12814.43
494.25	13013.38
494.43	12961.89
494.61	13027.42
494.79	13146.79
494.96	12798.05
495.14	13067.21
495.32	13397.23
495.49	13289.56
495.67	13612.56
495.85	13488.51
496.02	13444.04
496.20	13518.93
496.38	13694.47
496.55	13767.03
496.73	13774.05
496.91	13970.66
497.09	13902.78
497.26	13958.96
497.44	14162.58
497.62	13909.80
497.79	14031.51
497.97	14361.53
498.14	14267.91
498.32	14532.39
498.50	14190.67
498.67	14649.41
498.85	14520.68
499.03	14663.46
499.20	14548.77
499.38	14902.19
499.56	14534.73
499.73	14911.55
499.91	14934.96
500.08	15176.03
500.26	15044.96
500.44	15260.29
500.61	15087.09
500.79	15236.89
500.97	15232.21
501.14	15770.53
501.32	15442.85
501.49	15447.54
501.67	15466.26
501.84	15552.86
502.02	15470.94
502.20	15662.86
502.37	15693.29
502.55	16009.26
502.72	15744.78
502.90	15772.87
503.07	16004.58
503.25	15864.15
503.43	16180.12
503.60	16271.40
503.78	16142.67
503.95	16395.45
504.13	16154.38
504.30	16416.52
504.48	16035.01
504.65	16409.50
504.83	16610.78
505.01	16563.97
505.18	16657.59
505.36	16919.73
505.53	16327.58
505.71	16669.30
505.88	16456.31
506.06	16580.36
506.23	17247.41
506.41	17027.40
506.58	17081.23
506.76	17156.13
506.93	17046.12
507.11	17013.35
507.28	17020.38
507.46	17018.04
507.63	17095.27
507.81	17764.67
507.98	17135.06
508.16	17577.42
508.33	17827.86
508.50	17488.48
508.68	17671.04
508.85	18012.76
509.03	17675.73
509.20	17891.06
509.38	18008.08
509.55	17965.95
509.73	18092.34
509.90	18354.48
510.08	17991.70
510.25	17987.02
510.42	18396.61
510.60	18370.86
510.77	18160.22
510.95	18171.92
511.12	18363.84
511.30	18466.83
511.47	18693.86
511.64	18445.76
511.82	18792.16
511.99	18700.88
512.17	18743.01
512.34	18630.66
512.51	18829.61
512.69	18562.79
512.86	19002.81
513.04	19030.90
513.21	18745.35
513.38	19246.23
513.56	19208.78
513.73	19117.50
513.90	19293.04
514.08	18775.78
514.25	19140.90
514.43	19590.28
514.60	19342.19
514.77	19262.61
514.95	19377.30
515.12	19456.87
515.29	19520.07
515.47	19506.02
515.64	19662.84
515.81	19913.28
515.99	19672.20
516.16	19819.66
516.33	19854.76
516.51	19969.45
516.68	19740.08
516.85	19723.69
517.03	19866.47
517.20	19988.18
517.37	19943.70
517.54	20152.01
517.72	20161.37
517.89	20327.55
518.06	20065.41
518.24	20404.79
518.41	20262.02
518.58	20400.11
518.75	20680.97
518.93	20606.08
519.10	20723.10
519.27	20549.90
519.45	20446.92
519.62	20592.03
519.79	20812.04
519.96	20442.24
520.14	20971.20
520.31	20748.85
520.48	20790.98
520.65	20849.49
520.83	20882.26
521.00	20889.28
521.17	21043.76
521.34	21106.95
521.52	20994.61
521.69	21036.74
521.86	21158.44
522.03	21568.04
522.20	21336.32
522.38	21460.37
522.55	21369.09
522.72	21378.45
522.89	21273.13
523.07	21577.40
523.24	21750.60
523.41	21642.93
523.58	21579.74
523.75	21949.54
523.92	21591.44
524.10	21401.86
524.27	21879.33
524.44	21858.26
524.61	22181.26
524.78	22043.17
524.96	21759.96
525.13	22120.40
525.30	21982.31
525.47	22125.08
525.64	22132.11
525.81	22242.11
525.98	22494.89
526.16	22450.42
526.33	22455.10
526.50	22609.58
526.67	22120.40
526.84	22366.16
527.01	22115.72
527.18	22515.95
527.36	22682.13
527.53	22492.55
527.70	22834.27
527.87	22881.08
528.04	22829.59
528.21	22604.89
528.38	22829.59
528.55	22918.53
528.72	23014.49
528.89	22698.52
529.07	23000.44
529.24	22806.18
529.41	22932.57
529.58	22831.93
529.75	22843.63
529.92	22906.82
530.09	23140.88
530.26	23129.17
530.43	23639.41
530.60	22836.61
530.77	23276.63
530.94	23332.80
531.11	23227.48
531.28	23302.37
531.46	23477.91
531.63	23403.02
531.80	23627.71
531.97	23850.06
532.14	23405.36
532.31	23674.52
532.48	23529.41
532.65	23470.89
532.82	23496.64
532.99	23604.30
533.16	23644.09
533.33	23571.54
533.50	24339.23
533.67	23899.21
533.84	23578.56
534.01	23660.48
534.18	23749.42
534.35	24074.75
534.52	23873.46
534.69	24360.30
534.86	24154.33
535.03	24187.10
535.20	23819.63
535.37	23953.04
535.54	24049.00
535.71	23950.70
535.88	24439.87
536.05	24350.93
536.22	24563.92
536.38	24657.54
536.55	24343.91
536.72	24362.64
536.89	24240.93
537.06	24236.25
537.23	24807.34
537.40	24524.13
537.57	24652.86
537.74	24559.24
537.91	24929.05
538.08	24680.95
538.25	24395.40
538.42	24528.81
538.59	24655.20
538.75	24297.10
538.92	24765.21
539.09	24809.68
539.26	24959.47
539.43	25120.97
539.60	25043.73
539.77	25078.84
539.94	25228.63
540.11	24924.36
540.28	25116.29
540.44	24999.26
540.61	24940.75
540.78	25191.19
540.95	25303.53
541.12	25383.11
541.29	25193.53
541.46	25172.46
541.62	25146.72
541.79	25277.79
541.96	24837.76
542.13	25490.77
542.30	25280.13
542.47	25357.36
542.63	25542.27
542.80	25865.26
542.97	25965.90
543.14	25855.90
543.31	25645.25
543.48	25582.06
543.64	25649.93
543.81	25804.41
543.98	25876.96
544.15	26150.81
544.32	26003.35
544.48	26492.52
544.65	26164.85
544.82	26010.37
544.99	25848.88
545.16	25825.47
545.32	25806.75
545.49	26057.18
545.66	26302.94
545.83	26239.75
546.00	26445.71
546.16	26057.18
546.33	26111.02
546.50	25832.49
546.67	26185.91
546.83	25659.29
547.00	26551.04
547.17	26588.49
547.34	26038.46
547.50	26618.91
547.67	26707.85
547.84	26569.76
548.00	26455.08
548.17	26436.35
548.34	26445.71
548.51	26991.06
548.67	26614.23
548.84	26693.81
549.01	26801.47
549.18	26586.15
549.34	26494.86
549.51	26223.36
549.68	26628.27
549.84	26820.20
550.01	26494.86
550.18	26920.84
550.34	26831.90
550.51	27356.18
550.68	26874.03
550.84	27159.58
551.01	27271.92
551.18	27117.45
551.34	26696.15
551.51	26932.54
551.68	26930.20
551.84	26967.65
552.01	26757.00
552.18	27044.89
552.34	27108.08
552.51	27204.05
552.68	27356.18
552.84	26785.09
553.01	27197.02
553.18	27187.66
553.34	27257.88
553.51	27215.75
553.67	27239.15
553.84	27473.21
554.01	27253.20
554.17	27192.34
554.34	27199.37
554.51	27374.91
554.67	27358.52
554.84	27594.92
555.00	27461.51
555.17	27541.08
555.33	27871.10
555.50	27405.33
555.67	27594.92
555.83	27262.56
556.00	27370.22
556.16	27782.16
556.33	27569.17
556.50	27311.71
556.66	27812.59
556.83	27395.97
556.99	28290.06
557.16	28238.56
557.32	27597.26
557.49	28154.30
557.65	27693.22
557.82	27878.12
557.98	27541.08
558.15	27592.58
558.32	28432.83
558.48	28070.04
558.65	28088.77
558.81	27817.27
558.98	27632.36
559.14	28009.19
559.31	28044.30
559.47	27725.99
559.64	27782.16
559.80	27943.66
559.97	28109.83
560.13	28154.30
560.30	28334.53
560.46	28091.11
560.63	28201.11
560.79	27992.81
560.96	28301.76
561.12	28030.26
561.29	28116.86
561.45	28371.97
561.61	28236.22
561.78	28107.49
561.94	28058.34
562.11	28453.89
562.27	28135.58
562.44	28329.84
562.60	28077.07
562.77	28063.02
562.93	28126.22
563.10	28297.08
563.26	28168.35
563.42	28521.77
563.59	27791.52
563.75	27990.47
563.92	28294.74
564.08	28222.18
564.24	28458.57
564.41	28142.60
564.57	28325.16
564.74	28514.75
564.90	28884.55
565.07	28496.02
565.23	28346.23
565.39	28769.86
565.56	28486.66
565.72	28439.85
565.88	28584.96
566.05	28566.24
566.21	28465.60
566.38	28507.72
566.54	28701.99
566.70	28840.08
566.87	28613.05
567.03	28662.20
567.19	28709.01
567.36	28526.45
567.52	28879.87
567.68	28552.20
567.85	28526.45
568.01	28819.02
568.17	28329.84
568.34	28381.34
568.50	28870.51
568.66	28690.29
568.83	28800.29
568.99	28755.82
569.15	28306.44
569.32	28556.88
569.48	28400.06
569.64	28802.63
569.81	28783.91
569.97	28947.75
570.13	28882.21
570.30	28982.85
570.46	28760.50
570.62	28563.90
570.78	28713.69
570.95	29055.41
571.11	28430.49
571.27	28418.78
571.43	28533.47
571.60	28823.70
571.76	28868.17
571.92	28666.88
572.09	28826.04
572.25	28811.99
572.41	28875.19
572.57	29125.63
572.74	29113.92
572.90	28847.10
573.06	28833.06
573.22	28694.97
573.38	28706.67
573.55	29247.33
573.71	29127.97
573.87	29081.16
574.03	28886.89
574.20	29071.79
574.36	28800.29
574.52	29001.58
574.68	29163.08
574.84	28978.17
575.01	29212.23
575.17	28933.70
575.33	28837.74
575.49	28912.64
575.65	29027.32
575.82	28945.41
575.98	28727.74
576.14	29146.69
576.30	28830.72
576.46	28716.03
576.62	28968.81
576.79	29252.02
576.95	28882.21
577.11	29420.53
577.27	29095.20
577.43	29338.62
577.59	29020.30
577.75	28802.63
577.92	28999.24
578.08	28989.88
578.24	28620.07
578.40	29118.60
578.56	29209.89
578.72	29076.48
578.88	29296.49
579.04	29399.47
579.21	29214.57
579.37	29120.95
579.53	29291.80
579.69	28985.19
579.85	28924.34
580.01	28959.45
580.17	29144.35
580.33	28566.24
580.49	29422.87
580.65	29275.42
580.82	29254.36
580.98	29469.69
581.14	29242.65
581.30	29013.28
581.46	29523.52
581.62	28858.81
581.78	29071.79
581.94	29631.18
582.10	28648.16
582.26	29340.96
582.42	29132.65
582.58	29170.10
582.74	29165.42
582.90	29415.85
583.06	29422.87
583.22	29109.24
583.38	29001.58
583.54	29223.93
583.70	29277.76
583.86	29277.76
584.02	29256.70
584.18	29338.62
584.34	29228.61
584.50	29401.81
584.66	29275.42
584.82	29039.03
584.98	29053.07
585.14	29020.30
585.30	28975.83
585.46	29296.49
585.62	29252.02
585.78	29474.37
585.94	29156.05
586.10	29179.46
586.26	29106.90
586.42	29565.65
586.58	29610.12
586.74	29160.73
586.90	29081.16
587.06	29212.23
587.22	29296.49
587.38	28980.51
587.54	29352.66
587.70	29305.85
587.86	29635.86
588.02	29584.37
588.18	29797.36
588.34	29317.55
588.49	29113.92
588.65	29207.55
588.81	29127.97
588.97	29036.69
589.13	29593.73
589.29	29336.27
589.45	29345.64
589.61	29518.84
589.77	29713.10
589.93	29242.65
590.08	29617.14
590.24	29610.12
590.40	29621.82
590.56	29909.71
590.72	29467.34
590.88	29156.05
591.04	29167.76
591.20	29560.97
591.35	29919.07
591.51	29816.08
591.67	29502.45
591.83	29816.08
591.99	29923.75
