SpectraSuite Data File
++++++++++++++++++++++++++++++++++++
Date: Fri Oct 18 13:58:08 GMT-05:00 2013
User: bianchi
Dark Spectrum Present: No
Reference Spectrum Present: No
Number of Sampled Component Spectra: 1
Spectrometers: USB2+H05261
Integration Time (usec): 50000 (USB2+H05261)
Spectra Averaged: 1 (USB2+H05261)
Boxcar Smoothing: 0 (USB2+H05261)
Correct for Electrical Dark: No (USB2+H05261)
Strobe/Lamp Enabled: No (USB2+H05261)
Correct for Detector Non-linearity: No (USB2+H05261)
Correct for Stray Light: No (USB2+H05261)
Number of Pixels in Processed Spectrum: 2048
>>>>>Begin Processed Spectral Data<<<<<
365.73	0.00
365.92	0.00
366.12	0.00
366.32	0.00
366.52	0.00
366.72	0.00
366.91	0.00
367.11	0.00
367.31	0.00
367.51	0.00
367.70	0.00
367.90	0.00
368.10	0.00
368.30	0.00
368.49	0.00
368.69	0.00
368.89	0.00
369.09	0.00
369.28	0.00
369.48	0.00
369.68	0.00
369.87	0.00
370.07	0.00
370.27	0.00
370.47	0.00
370.66	145.11
370.86	105.32
371.06	198.95
371.25	198.95
371.45	131.07
371.65	142.77
371.84	149.79
372.04	149.79
372.24	126.39
372.44	177.88
372.63	210.65
372.83	227.03
373.03	241.08
373.22	238.73
373.42	170.86
373.62	257.46
373.81	224.69
374.01	229.37
374.21	304.27
374.40	273.84
374.60	201.29
374.79	224.69
374.99	191.92
375.19	248.10
375.38	299.59
375.58	250.44
375.78	248.10
375.97	294.91
376.17	315.97
376.37	222.35
376.56	203.63
376.76	248.10
376.95	367.46
377.15	255.12
377.35	236.39
377.54	308.95
377.74	201.29
377.93	229.37
378.13	311.29
378.33	287.89
378.52	201.29
378.72	325.33
378.91	344.06
379.11	285.55
379.31	257.46
379.50	269.16
379.70	278.52
379.89	243.42
380.09	346.40
380.28	369.80
380.48	346.40
380.68	266.82
380.87	308.95
381.07	322.99
381.26	325.33
381.46	287.89
381.65	241.08
381.85	369.80
382.04	308.95
382.24	250.44
382.43	337.04
382.63	283.20
382.83	269.16
383.02	367.46
383.22	297.25
383.41	339.38
383.61	264.48
383.80	383.85
384.00	348.74
384.19	404.91
384.39	313.63
384.58	322.99
384.78	414.27
384.97	383.85
385.17	367.46
385.36	313.63
385.56	362.78
385.75	395.55
385.95	435.34
386.14	418.96
386.34	372.15
386.53	402.57
386.72	414.27
386.92	444.70
387.11	451.72
387.31	477.47
387.50	486.83
387.70	442.36
387.89	437.68
388.09	484.49
388.28	437.68
388.48	444.70
388.67	475.13
388.86	463.43
389.06	440.02
389.25	489.17
389.45	454.06
389.64	458.74
389.84	566.41
390.03	526.62
390.22	479.81
390.42	489.17
390.61	442.36
390.81	498.53
391.00	528.96
391.19	587.47
391.39	507.90
391.58	531.30
391.78	500.87
391.97	543.00
392.16	493.85
392.36	568.75
392.55	559.39
392.75	552.37
392.94	575.77
393.13	461.09
393.33	582.79
393.52	475.13
393.71	564.07
393.91	613.22
394.10	592.16
394.29	552.37
394.49	608.54
394.68	594.50
394.88	683.44
395.07	645.99
395.26	615.56
395.46	671.73
395.65	636.63
395.84	669.39
396.04	739.61
396.23	641.31
396.42	629.60
396.62	620.24
396.81	720.88
397.00	664.71
397.19	662.37
397.39	699.82
397.58	746.63
397.77	620.24
397.97	681.10
398.16	720.88
398.35	695.14
398.55	711.52
398.74	676.41
398.93	667.05
399.12	741.95
399.32	753.65
399.51	739.61
399.70	779.40
399.90	716.20
400.09	798.12
400.28	786.42
400.47	753.65
400.67	816.85
400.86	753.65
401.05	807.48
401.24	887.06
401.44	847.27
401.63	802.80
401.82	835.57
402.01	854.30
402.21	809.83
402.40	858.98
402.59	833.23
402.78	854.30
402.97	814.51
403.17	882.38
403.36	931.53
403.55	779.40
403.74	945.58
403.93	887.06
404.13	933.87
404.32	966.64
404.51	866.00
404.70	978.34
404.89	929.19
405.09	1034.52
405.28	945.58
405.47	866.00
405.66	1025.15
405.85	973.66
406.05	922.17
406.24	983.02
406.43	973.66
406.62	1046.22
406.81	1093.03
407.00	997.07
407.20	952.60
407.39	994.73
407.58	1086.01
407.77	1055.58
407.96	1025.15
408.15	1111.75
408.34	1064.94
408.54	1214.74
408.73	1107.07
408.92	1193.67
409.11	1177.29
409.30	1095.37
409.49	1167.93
409.68	1146.86
409.87	1102.39
410.07	1170.27
410.26	1245.16
410.45	1184.31
410.64	1128.14
410.83	1212.40
411.02	1245.16
411.21	1352.83
411.40	1130.48
411.59	1291.98
411.78	1273.25
411.98	1217.08
412.17	1299.00
412.36	1275.59
412.55	1275.59
412.74	1334.11
412.93	1392.62
413.12	1345.81
413.31	1394.96
413.50	1345.81
413.69	1369.21
413.88	1392.62
414.07	1439.43
414.26	1472.20
414.45	1479.22
414.64	1423.05
414.83	1490.92
415.02	1444.11
415.22	1530.71
415.41	1511.99
415.60	1547.09
415.79	1633.69
415.98	1614.97
416.17	1652.42
416.36	1565.82
416.55	1582.20
416.74	1614.97
416.93	1617.31
417.12	1764.76
417.31	1612.63
417.50	1720.29
417.69	1776.47
417.88	1685.19
418.07	1736.68
418.26	1778.81
418.45	1785.83
418.64	1818.60
418.83	1994.14
419.02	1790.51
419.21	1837.32
419.39	1839.66
419.58	1842.00
419.77	1888.81
419.96	1867.75
420.15	1809.23
420.34	1860.73
420.53	1872.43
420.72	1902.86
420.91	1879.45
421.10	2052.65
421.29	1923.92
421.48	1947.33
421.67	1977.75
421.86	1916.90
422.05	2001.16
422.24	1937.96
422.43	2040.95
422.61	2045.63
422.80	1994.14
422.99	1987.11
423.18	2057.33
423.37	2076.06
423.56	1994.14
423.75	2045.63
423.94	2108.82
424.13	1916.90
424.32	1977.75
424.50	2001.16
424.69	2136.91
424.88	2139.25
425.07	2033.93
425.26	2047.97
425.45	2062.01
425.64	2040.95
425.83	2022.22
426.01	2129.89
426.20	1991.80
426.39	2038.61
426.58	2001.16
426.77	2066.69
426.96	2052.65
427.15	2188.40
427.33	2160.31
427.52	2125.21
427.71	2136.91
427.90	2099.46
428.09	2193.08
428.28	2015.20
428.46	2099.46
428.65	2122.87
428.84	2200.10
429.03	2272.66
429.22	2211.81
429.40	2335.85
429.59	2441.18
429.78	2209.47
429.97	2246.91
430.16	2352.24
430.34	2265.64
430.53	2427.14
430.72	2277.34
430.91	2207.13
431.10	2314.79
431.28	2417.77
431.47	2464.58
431.66	2455.22
431.85	2370.96
432.03	2448.20
432.22	2466.92
432.41	2480.97
432.60	2602.68
432.79	2469.27
432.97	2597.99
433.16	2534.80
433.35	2525.44
433.54	2546.50
433.72	2616.72
433.91	2567.57
434.10	2567.57
434.28	2534.80
434.47	2576.93
434.66	2553.52
434.85	2574.59
435.03	2567.57
435.22	2548.84
435.41	2780.56
435.59	2708.00
435.78	2736.09
435.97	2747.79
436.16	2663.53
436.34	2602.68
436.53	2799.28
436.72	2785.24
436.90	2619.06
437.09	2874.18
437.28	2684.59
437.46	2789.92
437.65	2696.30
437.84	2768.85
438.02	2785.24
438.21	2726.72
438.40	2923.33
438.58	2967.80
438.77	2820.35
438.96	2902.26
439.14	2956.10
439.33	2995.89
439.52	3014.61
439.70	2939.71
439.89	3030.99
440.08	3012.27
440.26	3075.46
440.45	3054.40
440.63	3066.10
440.82	3131.64
441.01	3143.34
441.19	3241.64
441.38	3274.41
441.57	3311.86
441.75	3286.11
441.94	3262.71
442.12	3293.13
442.31	3431.23
442.50	3473.36
442.68	3302.50
442.87	3332.92
443.05	3318.88
443.24	3459.31
443.43	3379.73
443.61	3358.67
443.80	3461.65
443.98	3337.60
444.17	3290.79
444.35	3419.52
444.54	3527.19
444.73	3545.91
444.91	3412.50
445.10	3431.23
445.28	3449.95
445.47	3405.48
445.65	3475.70
445.84	3562.30
446.02	3597.40
446.21	3499.10
446.39	3574.00
446.58	3538.89
446.77	3461.65
446.95	3454.63
447.14	3602.08
447.32	3609.11
447.51	3473.36
447.69	3480.38
447.88	3576.34
448.06	3632.51
448.25	3688.68
448.43	3637.19
448.62	3660.60
448.80	3592.72
448.99	3602.08
449.17	3634.85
449.36	3719.11
449.54	3592.72
449.73	3669.96
449.91	3695.71
450.10	3946.14
450.28	3751.88
450.46	3744.86
450.65	3838.48
450.83	3831.46
451.02	3803.37
451.20	3845.50
451.39	3894.65
451.57	3709.75
451.76	3735.50
451.94	3761.24
452.13	3941.46
452.31	3913.38
452.49	3906.35
452.68	3817.41
452.86	3964.87
453.05	3992.95
453.23	3892.31
453.42	3850.18
453.60	3925.08
453.78	4081.89
453.97	3868.91
454.15	3955.51
454.34	4009.34
454.52	3995.29
454.70	4088.92
454.89	4037.42
455.07	4081.89
455.26	4058.49
455.44	4264.46
455.62	4042.11
455.81	4168.49
455.99	4152.11
456.17	4304.25
456.36	4145.09
456.54	4257.43
456.73	4360.42
456.91	4425.95
457.09	4227.01
457.28	4493.83
457.46	4280.84
457.64	4269.14
457.83	4517.23
458.01	4271.48
458.19	4585.11
458.38	4348.72
458.56	4547.66
458.74	4430.63
458.93	4344.03
459.11	4414.25
459.29	4414.25
459.48	4552.34
459.66	4550.00
459.84	4627.24
460.03	4643.62
460.21	4683.41
460.39	4662.35
460.57	4582.77
460.76	4629.58
460.94	4657.67
461.12	4622.56
461.31	4725.54
461.49	4692.77
461.67	4697.46
461.85	4723.20
462.04	4718.52
462.22	5001.72
462.40	4807.46
462.59	4802.78
462.77	4840.23
462.95	4777.03
463.13	4793.42
463.32	4802.78
463.50	4849.59
463.68	4889.38
463.86	4971.30
464.05	4870.65
464.23	4999.38
464.41	4992.36
464.59	4821.50
464.78	5100.03
464.96	4952.57
465.14	4882.36
465.32	5027.47
465.50	5259.18
465.69	5032.15
465.87	5118.75
466.05	5022.79
466.23	5043.85
466.41	5067.26
466.60	5249.82
466.78	5121.09
466.96	5050.88
467.14	4999.38
467.32	5289.61
467.51	5238.12
467.69	5151.52
467.87	5228.76
468.05	5331.74
468.23	5076.62
468.41	5200.67
468.60	5224.08
468.78	5352.81
468.96	5043.85
469.14	5174.92
469.32	5394.93
469.50	5259.18
469.69	5441.75
469.87	5420.68
470.05	5638.35
470.23	5469.83
470.41	5558.77
470.59	5554.09
470.77	5488.56
470.95	5652.39
471.14	5558.77
471.32	5327.06
471.50	5563.45
471.68	5584.52
471.86	5841.98
472.04	5792.83
472.22	5944.96
472.40	5692.18
472.58	5799.85
472.77	5806.87
472.95	5966.03
473.13	6024.54
473.31	5937.94
473.49	5846.66
473.67	5870.06
473.85	6012.84
474.03	6155.61
474.21	5980.07
474.39	6001.13
474.57	6289.02
474.75	6176.67
474.93	6356.90
475.12	6270.30
475.30	6258.59
475.48	6270.30
475.66	6377.96
475.84	6373.28
476.02	6314.77
476.20	6408.39
476.38	6399.02
476.56	6539.46
476.74	6651.80
476.92	6595.63
477.10	6581.59
477.28	6841.39
477.46	7002.88
477.64	6829.68
477.82	6857.77
478.00	7115.23
478.18	7206.51
478.36	7063.74
478.54	7063.74
478.72	7183.10
478.90	7241.62
479.08	7297.79
479.26	7405.46
479.44	7550.57
479.62	7468.65
479.80	7522.48
479.98	7449.93
480.16	7695.68
480.34	7606.74
480.52	7805.69
480.70	7639.51
480.88	7840.79
481.06	7641.85
481.24	7744.83
481.41	7995.27
481.59	8070.17
481.77	8086.55
481.95	8093.57
482.13	8231.66
482.31	8234.00
482.49	8376.78
482.67	8226.98
482.85	8439.97
483.03	8594.45
483.21	8716.16
483.39	8826.16
483.57	8706.79
483.74	8903.40
483.92	8931.48
484.10	8940.85
484.28	9116.39
484.46	9355.12
484.64	9345.76
484.82	9048.51
485.00	9202.99
485.18	9224.05
485.35	9678.12
485.53	9610.24
485.71	9582.15
485.89	9958.98
486.07	9572.79
486.25	9827.91
486.43	9533.00
486.61	9830.25
486.78	9895.78
486.96	10087.71
487.14	10532.41
487.32	10504.32
487.50	10033.88
487.68	10310.06
487.85	10497.30
488.03	10544.11
488.21	10703.27
488.39	10757.10
488.57	10581.56
488.75	10714.97
488.92	10911.58
489.10	11014.56
489.28	11082.44
489.46	11339.90
489.64	11281.38
489.81	11309.47
489.99	11281.38
490.17	11569.27
490.35	11831.41
490.53	11447.56
490.70	11705.02
490.88	11655.87
491.06	11768.21
491.24	12042.06
491.41	11969.50
491.59	12152.06
491.77	12056.10
491.95	12215.26
492.13	12348.67
492.30	12222.28
492.48	12266.75
492.66	12671.66
492.84	12596.76
493.01	12564.00
493.19	12847.20
493.37	13069.55
493.54	12922.10
493.72	13076.57
493.90	12734.85
494.08	12985.29
494.25	13125.72
494.43	13504.89
494.61	13437.02
494.79	13692.13
494.96	13781.07
495.14	13509.57
495.32	13600.85
495.49	13752.99
495.67	13956.61
495.85	13687.45
496.02	14118.11
496.20	14038.53
496.38	14232.80
496.55	14155.56
496.73	14251.52
496.91	14352.16
497.09	14487.92
497.26	14600.26
497.44	14602.60
497.62	14647.07
497.79	14867.08
497.97	14581.54
498.14	15154.97
498.32	15084.75
498.50	15103.48
498.67	15084.75
498.85	14944.32
499.03	15386.68
499.20	15248.59
499.38	15232.21
499.56	15365.62
499.73	15557.54
499.91	15786.91
500.08	15405.41
500.26	15293.06
500.44	15784.57
500.61	15815.00
500.79	15625.42
500.97	15969.48
501.14	16109.91
501.32	16100.55
501.49	15978.84
501.67	15910.96
501.84	16224.59
502.02	16343.96
502.20	16269.06
502.37	16570.99
502.55	16306.51
502.72	16238.64
502.90	16690.36
503.07	16201.19
503.25	16512.48
503.43	16329.92
503.60	16943.14
503.78	16638.87
503.95	16772.28
504.13	16765.26
504.30	16966.54
504.48	16631.85
504.65	16917.39
504.83	17034.42
505.01	17252.09
505.18	17270.81
505.36	17242.73
505.53	17607.85
505.71	17261.45
505.88	17729.56
506.06	17275.49
506.23	17708.49
506.41	17652.32
506.58	17497.84
506.76	17759.98
506.93	17734.24
507.11	17764.67
507.28	17825.52
507.46	17844.24
507.63	18125.11
507.81	18284.26
507.98	18052.55
508.16	18118.09
508.33	18127.45
508.50	17998.72
508.68	18134.47
508.85	18171.92
509.03	18515.98
509.20	18368.52
509.38	18473.85
509.55	18576.83
509.73	18733.65
509.90	18719.60
510.08	18621.30
510.25	18487.89
510.42	18581.51
510.60	18885.78
510.77	18963.02
510.95	18869.40
511.12	18848.33
511.30	19178.35
511.47	19197.07
511.64	19314.10
511.82	19396.02
511.99	19058.98
512.17	19632.41
512.34	19264.95
512.51	19421.77
512.69	19583.26
512.86	19522.41
513.04	19847.74
513.21	19618.37
513.38	19716.67
513.56	19885.19
513.73	19421.77
513.90	19899.23
514.08	19690.93
514.25	19917.96
514.43	19929.66
514.60	20400.11
514.77	20189.46
514.95	20255.00
515.12	20056.05
515.29	20266.70
515.47	20350.96
515.64	20575.65
515.81	19915.62
515.99	20685.65
516.16	20783.96
516.33	20723.10
516.51	20790.98
516.68	20798.00
516.85	20751.19
517.03	20573.31
517.20	20489.05
517.37	20589.69
517.54	20657.57
517.72	21188.87
517.89	21106.95
518.06	20959.50
518.24	20975.88
518.41	21163.12
518.58	21235.68
518.75	21188.87
518.93	21441.65
519.10	21523.57
519.27	21530.59
519.45	21565.70
519.62	21427.60
519.79	21261.43
519.96	21497.82
520.14	21823.16
520.31	21631.23
520.48	21558.67
520.65	21694.43
520.83	22094.66
521.00	21656.98
521.17	21448.67
521.34	21802.09
521.52	21692.08
521.69	22019.76
521.86	22087.64
522.03	22277.22
522.20	22286.58
522.38	22214.02
522.55	22155.51
522.72	21996.35
522.89	22249.13
523.07	22710.22
523.24	22644.68
523.41	22679.79
523.58	22270.20
523.75	22548.72
523.92	22199.98
524.10	22555.74
524.27	22810.86
524.44	22766.39
524.61	23164.28
524.78	22852.99
524.96	22782.77
525.13	22810.86
525.30	23215.77
525.47	23229.82
525.64	22857.67
525.81	22995.76
525.98	23248.54
526.16	23089.38
526.33	23166.62
526.50	23232.16
526.67	23250.88
526.84	23098.75
527.01	22995.76
527.18	23426.42
527.36	23037.89
527.53	23620.69
527.70	24070.07
527.87	23616.01
528.04	23662.82
528.21	23433.44
528.38	23168.96
528.55	23573.88
528.72	23793.89
528.89	23777.50
529.07	23697.92
529.24	23283.65
529.41	24053.69
529.58	23723.67
529.75	23845.38
529.92	24051.34
530.09	24304.12
530.26	24144.97
530.43	24369.66
530.60	24271.36
530.77	23978.79
530.94	23960.06
531.11	24170.71
531.28	24084.11
531.46	23880.49
531.63	24137.94
531.80	24121.56
531.97	24217.52
532.14	24449.24
532.31	24374.34
532.48	24510.09
532.65	24409.45
532.82	23997.51
532.99	24545.20
533.16	24360.30
533.33	24828.40
533.50	25071.82
533.67	24783.93
533.84	24294.76
534.01	24823.72
534.18	24723.08
534.35	25139.69
534.52	24844.79
534.69	24938.41
534.86	24945.43
535.03	25064.80
535.20	24978.20
535.37	25069.48
535.54	25041.39
535.71	24989.90
535.88	24992.24
536.05	25212.25
536.22	25348.00
536.38	25600.78
536.55	25472.05
536.72	25432.26
536.89	25205.23
537.06	25525.88
537.23	25621.84
537.40	25539.93
537.57	25645.25
537.74	25773.98
537.91	25741.21
538.08	25813.77
538.25	25516.52
538.42	25596.10
538.59	25853.56
538.75	25518.86
538.92	25556.31
539.09	25972.92
539.26	25752.91
539.43	25883.98
539.60	26057.18
539.77	25846.54
539.94	26263.15
540.11	25900.37
540.28	26115.70
540.44	25928.45
540.61	26176.55
540.78	25935.48
540.95	26429.33
541.12	25898.03
541.29	26366.13
541.46	26103.99
541.62	25982.29
541.79	26391.88
541.96	26139.10
542.13	26202.30
542.30	26059.52
542.47	26693.81
542.63	26331.03
542.80	26448.05
542.97	26874.03
543.14	26749.98
543.31	26651.68
543.48	26630.62
543.64	27248.52
543.81	27330.44
543.98	26904.46
544.15	27047.23
544.32	27075.32
544.48	27047.23
544.65	26991.06
544.82	26869.35
544.99	26831.90
545.16	27143.19
545.32	27091.70
545.49	27473.21
545.66	27110.43
545.83	27517.68
546.00	27229.79
546.16	27098.72
546.33	27232.13
546.50	27124.47
546.67	27131.49
546.83	27168.94
547.00	27374.91
547.17	27122.13
547.34	27316.39
547.50	27365.54
547.67	27566.83
547.84	27700.24
548.00	27618.32
548.17	27896.85
548.34	27388.95
548.51	27810.25
548.67	27817.27
548.84	27644.07
549.01	27665.13
549.18	27583.21
549.34	27658.11
549.51	27651.09
549.68	27709.60
549.84	27630.02
550.01	27674.49
550.18	27583.21
550.34	27779.82
550.51	28266.65
550.68	28056.00
550.84	27672.15
551.01	28170.69
551.18	28154.30
551.34	27840.67
551.51	28177.71
551.68	27791.52
551.84	28409.42
552.01	28088.77
552.18	28381.34
552.34	28224.52
552.51	28367.29
552.68	27997.49
552.84	28381.34
553.01	28554.54
553.18	28137.92
553.34	28123.88
553.51	28065.36
553.67	28940.72
553.84	28613.05
554.01	28664.54
554.17	28526.45
554.34	28507.72
554.51	28966.47
554.67	28224.52
554.84	28496.02
555.00	28645.82
555.17	28566.24
555.33	28781.57
555.50	28577.94
555.67	28751.14
555.83	28996.90
556.00	28910.30
556.16	28783.91
556.33	28758.16
556.50	28816.68
556.66	29144.35
556.83	28758.16
556.99	29013.28
557.16	28982.85
557.32	28741.78
557.49	29015.62
557.65	28783.91
557.82	29022.64
557.98	28753.48
558.15	28924.34
558.32	29139.67
558.48	29214.57
558.65	29064.77
558.81	29230.95
558.98	29472.03
559.14	28968.81
559.31	29198.18
559.47	28992.22
559.64	29612.46
559.80	29357.34
559.97	29617.14
560.13	29291.80
560.30	29366.70
560.46	29186.48
560.63	28926.68
560.79	29123.29
560.96	29240.31
561.12	28973.49
561.29	29172.44
561.45	28994.56
561.61	29453.30
561.78	29404.15
561.94	29649.91
562.11	29771.61
562.27	29399.47
562.44	29624.16
562.60	29827.79
562.77	29439.26
562.93	29406.49
563.10	29699.06
563.26	29469.69
563.42	29743.53
563.59	29624.16
563.75	29972.90
563.92	29277.76
564.08	29565.65
564.24	29577.35
564.41	29401.81
564.57	29343.30
564.74	29596.07
564.90	29654.59
565.07	30113.33
565.23	29734.17
565.39	29951.84
565.56	29706.08
565.72	29738.85
565.88	29628.84
566.05	29806.72
566.21	29881.62
566.38	29560.97
566.54	29717.78
566.70	30068.86
566.87	30015.03
567.03	29963.54
567.19	30015.03
567.36	30148.44
567.52	29839.49
567.68	29907.37
567.85	29921.41
568.01	29809.06
568.17	29741.19
568.34	30113.33
568.50	29858.21
568.66	29832.47
568.83	30052.48
568.99	29575.01
569.15	30003.33
569.32	30115.67
569.48	29771.61
569.64	30064.18
569.81	29776.30
569.97	29933.11
570.13	29970.56
570.30	29993.97
570.46	30286.53
570.62	30003.33
570.78	30012.69
570.95	30026.73
571.11	30356.75
571.27	29837.15
571.43	29888.64
571.60	29736.51
571.76	29797.36
571.92	29900.34
572.09	30164.82
572.25	30361.43
572.41	30209.29
572.57	30387.18
572.74	30382.49
572.90	30431.65
573.06	30120.35
573.22	30188.23
573.38	30146.10
573.55	30253.76
573.71	30649.32
573.87	30441.01
574.03	30202.27
574.20	29923.75
574.36	29930.77
574.52	30078.22
574.68	30204.61
574.84	30408.24
575.01	30284.19
575.17	30398.88
575.33	30008.01
575.49	30223.34
575.65	30574.42
575.82	30539.31
575.98	30239.72
576.14	30457.39
576.30	30506.54
576.46	30405.90
576.62	30094.61
576.79	30431.65
576.95	30263.13
577.11	30363.77
577.27	30501.86
577.43	30462.07
577.59	30614.21
577.75	30160.14
577.92	29912.05
578.08	30401.22
578.24	29928.43
578.40	30527.61
578.56	30405.90
578.72	30485.48
578.88	30485.48
579.04	30909.11
579.21	30506.54
579.37	30555.69
579.53	30937.20
579.69	30335.68
579.85	29979.92
580.01	30080.56
580.17	30331.00
580.33	30323.98
580.49	30768.68
580.65	30529.95
580.82	30672.72
580.98	30188.23
581.14	30340.36
581.30	30361.43
581.46	30590.80
581.62	30258.45
581.78	30253.76
581.94	30595.48
582.10	30265.47
582.26	30546.33
582.42	30710.17
582.58	31072.95
582.74	30778.04
582.90	30665.70
583.06	30129.72
583.22	30288.87
583.38	30553.35
583.54	30202.27
583.70	30279.51
583.86	30260.79
584.02	30108.65
584.18	30459.73
584.34	30553.35
584.50	30738.26
584.66	30216.32
584.82	30288.87
584.98	30483.14
585.14	30223.34
585.30	30279.51
585.46	30452.71
585.62	30099.29
585.78	30274.83
585.94	30642.29
586.10	30775.70
586.26	30525.27
586.42	30389.52
586.58	30962.95
586.74	30478.46
586.90	30052.48
587.06	30668.04
587.22	30359.09
587.38	30565.06
587.54	30714.85
587.70	31002.74
587.86	30773.36
588.02	30511.22
588.18	30958.27
588.34	30803.79
588.49	30492.50
588.65	30441.01
588.81	30410.58
588.97	30691.44
589.13	30574.42
589.29	31026.14
589.45	30679.74
589.61	30724.21
589.77	31559.78
589.93	30948.90
590.08	30998.06
590.24	31314.03
590.40	30639.95
590.56	30944.22
590.72	30473.78
590.88	30129.72
591.04	30841.24
591.20	30859.96
591.35	30855.28
591.51	31124.44
591.67	31136.15
591.83	31009.76
591.99	30897.41
