SpectraSuite Data File
++++++++++++++++++++++++++++++++++++
Date: Fri Oct 18 13:58:22 GMT-05:00 2013
User: bianchi
Dark Spectrum Present: No
Reference Spectrum Present: No
Number of Sampled Component Spectra: 1
Spectrometers: USB2+H05261
Integration Time (usec): 50000 (USB2+H05261)
Spectra Averaged: 1 (USB2+H05261)
Boxcar Smoothing: 0 (USB2+H05261)
Correct for Electrical Dark: No (USB2+H05261)
Strobe/Lamp Enabled: No (USB2+H05261)
Correct for Detector Non-linearity: No (USB2+H05261)
Correct for Stray Light: No (USB2+H05261)
Number of Pixels in Processed Spectrum: 2048
>>>>>Begin Processed Spectral Data<<<<<
365.73	0.00
365.92	0.00
366.12	0.00
366.32	0.00
366.52	0.00
366.72	0.00
366.91	0.00
367.11	0.00
367.31	0.00
367.51	0.00
367.70	0.00
367.90	0.00
368.10	0.00
368.30	0.00
368.49	0.00
368.69	0.00
368.89	0.00
369.09	0.00
369.28	0.00
369.48	0.00
369.68	0.00
369.87	0.00
370.07	0.00
370.27	0.00
370.47	0.00
370.66	70.22
370.86	107.66
371.06	126.39
371.25	180.22
371.45	98.30
371.65	133.41
371.84	175.54
372.04	180.22
372.24	217.67
372.44	140.43
372.63	170.86
372.83	255.12
373.03	238.73
373.22	212.99
373.42	189.58
373.62	166.18
373.81	205.97
374.01	259.80
374.21	273.84
374.40	227.03
374.60	311.29
374.79	257.46
374.99	266.82
375.19	243.42
375.38	264.48
375.58	285.55
375.78	297.25
375.97	332.36
376.17	215.33
376.37	241.08
376.56	292.57
376.76	280.86
376.95	264.48
377.15	294.91
377.35	208.31
377.54	294.91
377.74	243.42
377.93	278.52
378.13	297.25
378.33	224.69
378.52	325.33
378.72	325.33
378.91	297.25
379.11	306.61
379.31	285.55
379.50	322.99
379.70	189.58
379.89	224.69
380.09	306.61
380.28	290.23
380.48	269.16
380.68	278.52
380.87	304.27
381.07	266.82
381.26	306.61
381.46	365.12
381.65	320.65
381.85	313.63
382.04	360.44
382.24	376.83
382.43	360.44
382.63	266.82
382.83	311.29
383.02	301.93
383.22	299.59
383.41	381.51
383.61	404.91
383.80	308.95
384.00	362.78
384.19	315.97
384.39	341.72
384.58	353.42
384.78	381.51
384.97	395.55
385.17	386.19
385.36	367.46
385.56	372.15
385.75	353.42
385.95	402.57
386.14	362.78
386.34	421.30
386.53	355.76
386.72	351.08
386.92	449.38
387.11	425.98
387.31	390.87
387.50	437.68
387.70	287.89
387.89	404.91
388.09	400.23
388.28	360.44
388.48	416.62
388.67	409.59
388.86	496.19
389.06	411.93
389.25	423.64
389.45	507.90
389.64	484.49
389.84	463.43
390.03	496.19
390.22	521.94
390.42	475.13
390.61	500.87
390.81	472.79
391.00	500.87
391.19	470.45
391.39	573.43
391.58	493.85
391.78	498.53
391.97	489.17
392.16	475.13
392.36	500.87
392.55	568.75
392.75	521.94
392.94	505.56
393.13	627.26
393.33	482.15
393.52	554.71
393.71	500.87
393.91	601.52
394.10	543.00
394.29	645.99
394.49	503.22
394.68	615.56
394.88	676.41
395.07	648.33
395.26	559.39
395.46	603.86
395.65	655.35
395.84	547.69
396.04	678.76
396.23	580.45
396.42	580.45
396.62	613.22
396.81	660.03
397.00	674.07
397.19	699.82
397.39	648.33
397.58	610.88
397.77	723.23
397.97	636.63
398.16	767.70
398.35	653.01
398.55	748.97
398.74	648.33
398.93	737.27
399.12	655.35
399.32	793.44
399.51	638.97
399.70	744.29
399.90	702.16
400.09	669.39
400.28	770.04
400.47	744.29
400.67	763.01
400.86	802.80
401.05	784.08
401.24	748.97
401.44	814.51
401.63	772.38
401.82	734.93
402.01	748.97
402.21	809.83
402.40	798.12
402.59	812.17
402.78	830.89
402.97	833.23
403.17	894.08
403.36	889.40
403.55	847.27
403.74	931.53
403.93	840.25
404.13	896.43
404.32	858.98
404.51	819.19
404.70	903.45
404.89	880.04
405.09	903.45
405.28	919.83
405.47	961.96
405.66	940.90
405.85	971.32
406.05	987.71
406.24	971.32
406.43	1001.75
406.62	980.68
406.81	1015.79
407.00	919.83
407.20	924.51
407.39	957.28
407.58	950.26
407.77	1039.20
407.96	957.28
408.15	1062.60
408.34	966.64
408.54	1041.54
408.73	1050.90
408.92	1097.71
409.11	1184.31
409.30	1081.33
409.49	1064.94
409.68	1116.44
409.87	1104.73
410.07	1158.57
410.26	1242.82
410.45	1184.31
410.64	1160.91
410.83	1116.44
411.02	1123.46
411.21	1170.27
411.40	1275.59
411.59	1299.00
411.78	1277.93
411.98	1221.76
412.17	1184.31
412.36	1308.36
412.55	1329.42
412.74	1280.27
412.93	1345.81
413.12	1238.14
413.31	1322.40
413.50	1373.89
413.69	1345.81
413.88	1373.89
414.07	1369.21
414.26	1455.81
414.45	1425.39
414.64	1423.05
414.83	1486.24
415.02	1474.54
415.22	1526.03
415.41	1514.33
415.60	1605.61
415.79	1582.20
415.98	1610.29
416.17	1603.27
416.36	1638.38
416.55	1645.40
416.74	1626.67
416.93	1621.99
417.12	1657.10
417.31	1666.46
417.50	1717.95
417.69	1636.03
417.88	1727.32
418.07	1788.17
418.26	1776.47
418.45	1678.16
418.64	1867.75
418.83	1790.51
419.02	1750.72
419.21	1818.60
419.39	1727.32
419.58	1762.42
419.77	1736.68
419.96	1790.51
420.15	1912.22
420.34	1748.38
420.53	1860.73
420.72	1933.28
420.91	1856.04
421.10	1909.88
421.29	1909.88
421.48	1912.22
421.67	1940.30
421.86	1867.75
422.05	1909.88
422.24	1856.04
422.43	1888.81
422.61	1884.13
422.80	1975.41
422.99	1867.75
423.18	1942.64
423.37	2024.56
423.56	1982.43
423.75	1935.62
423.94	1956.69
424.13	1916.90
424.32	1865.41
424.50	2005.84
424.69	2125.21
424.88	2022.22
425.07	1968.39
425.26	2040.95
425.45	2008.18
425.64	2054.99
425.83	2083.08
426.01	2076.06
426.20	2139.25
426.39	2101.80
426.58	1942.64
426.77	1947.33
426.96	2136.91
427.15	1998.82
427.33	2073.71
427.52	2111.16
427.71	2172.02
427.90	2139.25
428.09	2101.80
428.28	2069.03
428.46	2197.76
428.65	2127.55
428.84	2258.62
429.03	2328.83
429.22	2080.74
429.40	2209.47
429.59	2193.08
429.78	2094.78
429.97	2094.78
430.16	2253.94
430.34	2207.13
430.53	2321.81
430.72	2298.41
430.91	2352.24
431.10	2272.66
431.28	2335.85
431.47	2307.77
431.66	2434.16
431.85	2239.89
432.03	2420.11
432.22	2445.86
432.41	2242.23
432.60	2492.67
432.79	2310.11
432.97	2392.03
433.16	2359.26
433.35	2366.28
433.54	2427.14
433.72	2471.61
433.91	2509.05
434.10	2572.25
434.28	2480.97
434.47	2518.42
434.66	2572.25
434.85	2595.65
435.03	2459.90
435.22	2602.68
435.41	2696.30
435.59	2574.59
435.78	2588.63
435.97	2670.55
436.16	2654.17
436.34	2607.36
436.53	2757.15
436.72	2656.51
436.90	2609.70
437.09	2684.59
437.28	2733.75
437.46	2684.59
437.65	2738.43
437.84	2867.16
438.02	2628.42
438.21	2743.11
438.40	2623.74
438.58	2827.37
438.77	2773.53
438.96	2867.16
439.14	2792.26
439.33	2829.71
439.52	2857.79
439.70	2923.33
439.89	2953.76
440.08	2977.16
440.26	2984.18
440.45	3082.49
440.63	3091.85
440.82	3084.83
441.01	3007.59
441.19	3169.09
441.38	3073.12
441.57	3063.76
441.75	3159.72
441.94	3241.64
442.12	3267.39
442.31	3229.94
442.50	3389.10
442.68	3218.24
442.87	3274.41
443.05	3281.43
443.24	3302.50
443.43	3344.63
443.61	3248.66
443.80	3492.08
443.98	3286.11
444.17	3173.77
444.35	3351.65
444.54	3433.57
444.73	3377.39
444.91	3321.22
445.10	3400.80
445.28	3398.46
445.47	3328.24
445.65	3461.65
445.84	3421.86
446.02	3428.88
446.21	3372.71
446.39	3382.07
446.58	3468.67
446.77	3496.76
446.95	3309.52
447.14	3405.48
447.32	3461.65
447.51	3358.67
447.69	3426.54
447.88	3471.01
448.06	3463.99
448.25	3564.64
448.43	3541.23
448.62	3545.91
448.80	3527.19
448.99	3676.98
449.17	3543.57
449.36	3538.89
449.54	3691.02
449.73	3723.79
449.91	3777.62
450.10	3721.45
450.28	3693.37
450.46	3747.20
450.65	3653.58
450.83	3726.13
451.02	3714.43
451.20	3658.26
451.39	3798.69
451.57	3756.56
451.76	3625.49
451.94	3716.77
452.13	3861.88
452.31	3929.76
452.49	3719.11
452.68	3843.16
452.86	3721.45
453.05	3810.39
453.23	3777.62
453.42	3786.99
453.60	3843.16
453.78	3932.10
453.97	3782.31
454.15	3854.86
454.34	3941.46
454.52	4016.36
454.70	3873.59
454.89	4016.36
455.07	4035.08
455.26	4044.45
455.44	4166.15
455.62	3969.55
455.81	4081.89
455.99	4093.60
456.17	4138.07
456.36	4119.34
456.54	4077.21
456.73	4121.68
456.91	4201.26
457.09	4287.86
457.28	4311.27
457.46	4191.90
457.64	4234.03
457.83	4376.80
458.01	4236.37
458.19	4325.31
458.38	4283.18
458.56	4301.90
458.74	4360.42
458.93	4416.59
459.11	4528.94
459.29	4421.27
459.48	4554.68
459.66	4402.55
459.84	4564.04
460.03	4713.84
460.21	4444.68
460.39	4416.59
460.57	4578.09
460.76	4561.70
460.94	4587.45
461.12	4685.75
461.31	4617.88
461.49	4645.96
461.67	4498.51
461.85	4648.30
462.04	4667.03
462.22	4713.84
462.40	4718.52
462.59	4718.52
462.77	4704.48
462.95	4854.27
463.13	4877.68
463.32	4784.06
463.50	4964.28
463.68	4753.63
463.86	4720.86
464.05	4861.29
464.23	4786.40
464.41	5020.45
464.59	4692.77
464.78	4861.29
464.96	4957.25
465.14	4851.93
465.32	4863.63
465.50	4938.53
465.69	4837.89
465.87	4947.89
466.05	4891.72
466.23	4943.21
466.41	4954.91
466.60	5195.99
466.78	5041.51
466.96	5025.13
467.14	4954.91
467.32	5018.11
467.51	5116.41
467.69	4908.10
467.87	5224.08
468.05	5102.37
468.23	5074.28
468.41	4980.66
468.60	5158.54
468.78	5132.79
468.96	5050.88
469.14	5179.61
469.32	5324.72
469.50	5013.43
469.69	5305.99
469.87	5327.06
470.05	5376.21
470.23	5322.38
470.41	5378.55
470.59	5366.85
470.77	5317.70
470.95	5418.34
471.14	5619.63
471.32	5284.93
471.50	5734.31
471.68	5502.60
471.86	5509.62
472.04	5753.04
472.22	5533.03
472.40	5502.60
472.58	5720.27
472.77	5724.95
472.95	5746.02
473.13	5909.85
473.31	5856.02
473.49	5694.52
473.67	5849.00
473.85	5860.70
474.03	5937.94
474.21	6083.05
474.39	6122.84
474.57	5895.81
474.75	5893.47
474.93	6150.93
475.12	6064.33
475.30	6211.78
475.48	6052.63
475.66	6057.31
475.84	6277.32
476.02	6024.54
476.20	6317.11
476.38	6422.43
476.56	6619.04
476.74	6469.24
476.92	6485.62
477.10	6441.15
477.28	6595.63
477.46	6452.86
477.64	6663.51
477.82	6897.56
478.00	6949.05
478.18	6782.87
478.36	6965.43
478.54	7035.65
478.72	6935.01
478.90	7152.68
479.08	7155.02
479.26	7124.59
479.44	7185.44
479.62	7293.11
479.80	7274.38
479.98	7421.84
480.16	7576.31
480.34	7400.77
480.52	7613.76
480.70	7681.64
480.88	7487.37
481.06	7796.32
481.24	7756.54
481.41	7857.18
481.59	7990.59
481.77	7985.91
481.95	7983.57
482.13	7946.12
482.31	7911.01
482.49	8147.40
482.67	8306.56
482.85	8205.92
483.03	8423.59
483.21	8517.21
483.39	8631.90
483.57	8545.30
483.74	8454.02
483.92	8662.32
484.10	8645.94
484.28	8657.64
484.46	9144.47
484.64	9142.13
484.82	8891.70
485.00	8966.59
485.18	9053.19
485.35	9102.34
485.53	9170.22
485.71	9329.38
485.89	9439.38
486.07	9495.55
486.25	9327.03
486.43	9542.36
486.61	9912.17
486.78	9839.61
486.96	9767.06
487.14	9987.07
487.32	10094.73
487.50	10040.90
487.68	10286.65
487.85	10310.06
488.03	10218.78
488.21	10635.39
488.39	10431.77
488.57	10485.60
488.75	10621.35
488.92	10787.53
489.10	10759.44
489.28	10843.70
489.46	10970.09
489.64	11066.05
489.81	11262.66
489.99	11084.78
490.17	11262.66
490.35	11442.88
490.53	11454.58
490.70	11529.48
490.88	11466.28
491.06	11627.78
491.24	11815.02
491.41	11850.13
491.59	11927.37
491.77	11688.64
491.95	12180.15
492.13	12037.38
492.30	12243.34
492.48	12091.21
492.66	12285.47
492.84	12145.04
493.01	12304.20
493.19	12418.88
493.37	12809.75
493.54	12531.23
493.72	12592.08
493.90	12772.30
494.08	12854.22
494.25	12912.74
494.43	12957.21
494.61	13224.03
494.79	13259.13
494.96	12980.61
495.14	13039.12
495.32	13465.10
495.49	13338.71
495.67	13575.11
495.85	13458.08
496.02	13804.48
496.20	13593.83
496.38	13584.47
496.55	14040.87
496.73	13942.57
496.91	13987.04
497.09	13973.00
497.26	14410.68
497.44	13956.61
497.62	14274.93
497.79	14604.94
497.97	14190.67
498.14	14403.66
498.32	14785.16
498.50	14637.71
498.67	14820.27
498.85	14696.22
499.03	14949.00
499.20	14944.32
499.38	14869.42
499.56	15213.48
499.73	15131.56
499.91	15229.87
500.08	15351.57
500.26	15272.00
500.44	15166.67
500.61	15470.94
500.79	15529.45
500.97	15688.61
501.14	15475.62
501.32	15688.61
501.49	15513.07
501.67	15817.34
501.84	15768.19
502.02	15829.04
502.20	16126.29
502.37	15985.86
502.55	15852.45
502.72	15847.77
502.90	16004.58
503.07	15957.77
503.25	16290.13
503.43	16327.58
503.60	16252.68
503.78	16205.87
503.95	16432.90
504.13	16365.03
504.30	16283.11
504.48	16449.28
504.65	16683.34
504.83	16739.51
505.01	16823.77
505.18	16959.52
505.36	16868.24
505.53	16730.15
505.71	16578.01
505.88	16917.39
506.06	16844.84
506.23	16891.65
506.41	17198.26
506.58	17451.03
506.76	17366.78
506.93	17385.50
507.11	17092.93
507.28	17235.70
507.46	17455.72
507.63	17717.86
507.81	17884.03
507.98	17432.31
508.16	17809.14
508.33	17752.96
508.50	17640.62
508.68	17898.08
508.85	18022.12
509.03	17940.21
509.20	18160.22
509.38	18113.41
509.55	18190.64
509.73	18551.09
509.90	18410.65
510.08	18019.78
510.25	18265.54
510.42	18445.76
510.60	18614.28
510.77	18200.01
510.95	18932.59
511.12	18277.24
511.30	18520.66
511.47	18810.89
511.64	18508.96
511.82	18794.50
511.99	18544.06
512.17	19056.64
512.34	18822.59
512.51	19105.79
512.69	19070.68
512.86	18768.76
513.04	19323.46
513.21	19286.01
513.38	19122.18
513.56	19278.99
513.73	19208.78
513.90	19428.79
514.08	19147.92
514.25	19527.09
514.43	19618.37
514.60	19494.32
514.77	19719.01
514.95	19702.63
515.12	19672.20
515.29	19536.45
515.47	19822.00
515.64	20023.28
515.81	19700.29
515.99	19903.92
516.16	20067.75
516.33	19885.19
516.51	20409.47
516.68	20130.95
516.85	20126.27
517.03	20493.73
517.20	20262.02
517.37	20613.10
517.54	20250.32
517.72	20470.33
517.89	20304.15
518.06	20411.81
518.24	20482.03
518.41	20201.16
518.58	20844.81
518.75	20460.96
518.93	20851.83
519.10	20556.93
519.27	20790.98
519.45	20709.06
519.62	20617.78
519.79	20379.04
519.96	20854.17
520.14	21130.36
520.31	20980.56
520.48	21113.97
520.65	20992.26
520.83	21305.90
521.00	21287.17
521.17	21053.12
521.34	21036.74
521.52	21221.64
521.69	21392.50
521.86	21303.56
522.03	22012.74
522.20	21654.64
522.38	21722.51
522.55	21493.14
522.72	21549.31
522.89	21570.38
523.07	22099.34
523.24	21912.10
523.41	21977.63
523.58	21947.20
523.75	21811.45
523.92	21830.18
524.10	21598.46
524.27	22085.30
524.44	22104.02
524.61	22427.01
524.78	22607.23
524.96	22361.48
525.13	22637.66
525.30	22408.29
525.47	22277.22
525.64	22242.11
525.81	22520.63
525.98	22363.82
526.16	22368.50
526.33	22534.68
526.50	22728.94
526.67	22602.55
526.84	22485.53
527.01	22675.11
527.18	22906.82
527.36	22963.00
527.53	22829.59
527.70	23234.50
527.87	23175.98
528.04	23168.96
528.21	22794.48
528.38	22920.87
528.55	23138.54
528.72	23073.00
528.89	23002.78
529.07	23248.54
529.24	23204.07
529.41	23644.09
529.58	23112.79
529.75	23260.24
529.92	23321.10
530.09	23278.97
530.26	23379.61
530.43	23644.09
530.60	23077.68
530.77	23562.17
530.94	23374.93
531.11	23477.91
531.28	22972.36
531.46	23655.79
531.63	23297.69
531.80	23620.69
531.97	23662.82
532.14	23913.25
532.31	23786.86
532.48	23845.38
532.65	23693.24
532.82	23831.33
532.99	24018.58
533.16	23840.70
533.33	23960.06
533.50	24381.36
533.67	24659.88
533.84	24053.69
534.01	24159.01
534.18	23885.17
534.35	24168.37
534.52	24252.63
534.69	24671.59
534.86	24622.44
535.03	24011.56
535.20	24552.22
535.37	24470.30
535.54	24006.87
535.71	24379.02
535.88	24400.08
536.05	24538.18
536.22	24636.48
536.38	24720.74
536.55	24439.87
536.72	24891.60
536.89	24842.45
537.06	24603.71
537.23	24858.83
537.40	24812.02
537.57	24933.73
537.74	24924.36
537.91	25125.65
538.08	25415.88
538.25	24952.45
538.42	24893.94
538.59	24900.96
538.75	25069.48
538.92	25102.25
539.09	25085.86
539.26	25294.17
539.43	25261.40
539.60	25088.20
539.77	25263.74
539.94	25340.98
540.11	25242.68
540.28	25448.64
540.44	25130.33
540.61	25308.21
540.78	25577.37
540.95	25202.89
541.12	25142.03
541.29	25813.77
541.46	25556.31
541.62	25191.19
541.79	25572.69
541.96	25132.67
542.13	25453.33
542.30	25825.47
542.47	25671.00
542.63	26017.40
542.80	25968.24
542.97	25755.26
543.14	26499.55
543.31	25844.20
543.48	25851.22
543.64	26232.72
543.81	26529.97
543.98	26139.10
544.15	26155.49
544.32	26513.59
544.48	26384.86
544.65	26239.75
544.82	26038.46
544.99	26024.42
545.16	26230.38
545.32	26214.00
545.49	26256.13
545.66	26508.91
545.83	26363.79
546.00	26600.19
546.16	25979.95
546.33	26031.44
546.50	26319.32
546.67	26607.21
546.83	26277.19
547.00	26478.48
547.17	26785.09
547.34	26773.39
547.50	26913.82
547.67	27009.78
547.84	26464.44
548.00	26551.04
548.17	26988.72
548.34	26771.05
548.51	26944.25
548.67	27124.47
548.84	27112.77
549.01	27241.50
549.18	27262.56
549.34	26848.29
549.51	26654.02
549.68	26670.40
549.84	27061.27
550.01	27269.58
550.18	27119.79
550.34	26988.72
550.51	27496.61
550.68	27257.88
550.84	27103.40
551.01	27257.88
551.18	26967.65
551.34	26885.73
551.51	27143.19
551.68	27536.40
551.84	27386.61
552.01	27452.14
552.18	27564.49
552.34	27463.85
552.51	27618.32
552.68	27377.25
552.84	27309.37
553.01	27426.40
553.18	27206.39
553.34	27735.35
553.51	27501.29
553.67	27653.43
553.84	27566.83
554.01	27763.43
554.17	27697.90
554.34	27463.85
554.51	27269.58
554.67	27498.95
554.84	27784.50
555.00	27875.78
555.17	27681.52
555.33	27894.50
555.50	28067.70
555.67	27744.71
555.83	27922.59
556.00	27644.07
556.16	27908.55
556.33	27861.74
556.50	27833.65
556.66	28304.10
556.83	28137.92
556.99	28077.07
557.16	28435.17
557.32	27878.12
557.49	28645.82
557.65	27950.68
557.82	28081.75
557.98	28056.00
558.15	28098.13
558.32	28662.20
558.48	28187.07
558.65	28205.80
558.81	27948.34
558.98	28198.77
559.14	28261.97
559.31	28353.25
559.47	28053.66
559.64	28063.02
559.80	28676.24
559.97	28657.52
560.13	28311.12
560.30	28538.15
560.46	28706.67
560.63	28343.89
560.79	28556.88
560.96	28559.22
561.12	28631.77
561.29	28334.53
561.45	28425.81
561.61	28910.30
561.78	28629.43
561.94	28716.03
562.11	28577.94
562.27	28856.46
562.44	28496.02
562.60	28591.98
562.77	28250.27
562.93	28601.35
563.10	28809.65
563.26	28760.50
563.42	28879.87
563.59	28559.22
563.75	28481.98
563.92	29146.69
564.08	28629.43
564.24	28666.88
564.41	28402.40
564.57	28308.78
564.74	28741.78
564.90	28828.38
565.07	28982.85
565.23	28905.62
565.39	28851.78
565.56	29282.44
565.72	28884.55
565.88	29502.45
566.05	28493.68
566.21	28783.91
566.38	28755.82
566.54	28882.21
566.70	28968.81
566.87	29111.58
567.03	29050.73
567.19	29113.92
567.36	28744.12
567.52	28938.38
567.68	28952.43
567.85	29001.58
568.01	28779.23
568.17	28931.36
568.34	29139.67
568.50	28868.17
568.66	28950.09
568.83	29525.86
568.99	29017.96
569.15	28994.56
569.32	29064.77
569.48	29041.37
569.64	28744.12
569.81	29134.99
569.97	28800.29
570.13	29123.29
570.30	29205.20
570.46	29029.66
570.62	29142.01
570.78	29017.96
570.95	28987.53
571.11	29134.99
571.27	29200.52
571.43	28762.84
571.60	29172.44
571.76	29322.23
571.92	28924.34
572.09	29104.56
572.25	29333.93
572.41	29481.39
572.57	29406.49
572.74	29462.66
572.90	29188.82
573.06	28814.34
573.22	29266.06
573.38	29144.35
573.55	29060.09
573.71	29591.39
573.87	29390.11
574.03	29359.68
574.20	29266.06
574.36	28926.68
574.52	29488.41
574.68	29102.22
574.84	29268.40
575.01	29575.01
575.17	29294.14
575.33	29132.65
575.49	29347.98
575.65	29362.02
575.82	29254.36
575.98	29472.03
576.14	29528.20
576.30	29186.48
576.46	29020.30
576.62	29127.97
576.79	29357.34
576.95	29406.49
577.11	29413.51
577.27	29144.35
577.43	29680.33
577.59	29432.24
577.75	29142.01
577.92	29090.52
578.08	28910.30
578.24	29191.16
578.40	29244.99
578.56	29560.97
578.72	29617.14
578.88	29701.40
579.04	29631.18
579.21	29422.87
579.37	29640.54
579.53	29472.03
579.69	29242.65
579.85	29376.06
580.01	29249.67
580.17	29209.89
580.33	29490.75
580.49	29584.37
580.65	29996.31
580.82	29495.43
580.98	29392.45
581.14	29198.18
581.30	29493.09
581.46	29453.30
581.62	29174.78
581.78	29345.64
581.94	29961.20
582.10	29015.62
582.26	29537.56
582.42	29514.16
582.58	29567.99
582.74	29263.72
582.90	29467.34
583.06	29790.34
583.22	29200.52
583.38	29764.59
583.54	29483.73
583.70	29509.47
583.86	29338.62
584.02	29472.03
584.18	29603.10
584.34	29661.61
584.50	29668.63
584.66	29839.49
584.82	29425.22
584.98	29647.57
585.14	29703.74
585.30	29249.67
585.46	29347.98
585.62	29401.81
585.78	29642.88
585.94	29291.80
586.10	29675.65
586.26	29453.30
586.42	30160.14
586.58	29743.53
586.74	29392.45
586.90	29488.41
587.06	30080.56
587.22	29294.14
587.38	29736.51
587.54	29525.86
587.70	30153.12
587.86	29837.15
588.02	29605.44
588.18	29851.19
588.34	29743.53
588.49	29729.48
588.65	29713.10
588.81	29982.26
588.97	30089.93
589.13	29493.09
589.29	29907.37
589.45	29495.43
589.61	29869.92
589.77	29989.28
589.93	30338.02
590.08	30146.10
590.24	30281.85
590.40	29998.65
590.56	29888.64
590.72	29584.37
590.88	29914.39
591.04	29729.48
591.20	30050.14
591.35	29855.87
591.51	29972.90
591.67	30000.99
591.83	30141.42
591.99	30146.10
