SpectraSuite Data File
++++++++++++++++++++++++++++++++++++
Date: Fri Oct 18 13:57:55 GMT-05:00 2013
User: bianchi
Dark Spectrum Present: No
Reference Spectrum Present: No
Number of Sampled Component Spectra: 1
Spectrometers: USB2+H05261
Integration Time (usec): 50000 (USB2+H05261)
Spectra Averaged: 1 (USB2+H05261)
Boxcar Smoothing: 0 (USB2+H05261)
Correct for Electrical Dark: No (USB2+H05261)
Strobe/Lamp Enabled: No (USB2+H05261)
Correct for Detector Non-linearity: No (USB2+H05261)
Correct for Stray Light: No (USB2+H05261)
Number of Pixels in Processed Spectrum: 2048
>>>>>Begin Processed Spectral Data<<<<<
365.73	0.00
365.92	0.00
366.12	0.00
366.32	0.00
366.52	0.00
366.72	0.00
366.91	0.00
367.11	0.00
367.31	0.00
367.51	0.00
367.70	0.00
367.90	0.00
368.10	0.00
368.30	0.00
368.49	0.00
368.69	0.00
368.89	0.00
369.09	0.00
369.28	0.00
369.48	0.00
369.68	0.00
369.87	0.00
370.07	0.00
370.27	0.00
370.47	0.00
370.66	110.01
370.86	161.50
371.06	133.41
371.25	231.71
371.45	149.79
371.65	147.45
371.84	142.77
372.04	173.20
372.24	191.92
372.44	175.54
372.63	184.90
372.83	315.97
373.03	269.16
373.22	189.58
373.42	180.22
373.62	191.92
373.81	175.54
374.01	285.55
374.21	142.77
374.40	276.18
374.60	208.31
374.79	182.56
374.99	280.86
375.19	285.55
375.38	201.29
375.58	243.42
375.78	320.65
375.97	227.03
376.17	301.93
376.37	241.08
376.56	241.08
376.76	320.65
376.95	292.57
377.15	292.57
377.35	290.23
377.54	334.70
377.74	341.72
377.93	278.52
378.13	262.14
378.33	266.82
378.52	276.18
378.72	280.86
378.91	301.93
379.11	315.97
379.31	276.18
379.50	301.93
379.70	327.68
379.89	308.95
380.09	278.52
380.28	290.23
380.48	276.18
380.68	304.27
380.87	299.59
381.07	189.58
381.26	355.76
381.46	292.57
381.65	334.70
381.85	372.15
382.04	339.38
382.24	301.93
382.43	264.48
382.63	411.93
382.83	388.53
383.02	358.10
383.22	348.74
383.41	360.44
383.61	362.78
383.80	346.40
384.00	440.02
384.19	351.08
384.39	348.74
384.58	339.38
384.78	365.12
384.97	395.55
385.17	407.25
385.36	475.13
385.56	395.55
385.75	449.38
385.95	428.32
386.14	351.08
386.34	444.70
386.53	416.62
386.72	444.70
386.92	437.68
387.11	360.44
387.31	395.55
387.50	388.53
387.70	332.36
387.89	383.85
388.09	526.62
388.28	533.64
388.48	461.09
388.67	461.09
388.86	411.93
389.06	454.06
389.25	470.45
389.45	486.83
389.64	479.81
389.84	564.07
390.03	470.45
390.22	566.41
390.42	543.00
390.61	538.32
390.81	472.79
391.00	533.64
391.19	486.83
391.39	498.53
391.58	620.24
391.78	550.03
391.97	479.81
392.16	585.13
392.36	524.28
392.55	610.88
392.75	575.77
392.94	566.41
393.13	603.86
393.33	608.54
393.52	578.11
393.71	657.69
393.91	622.58
394.10	596.84
394.29	648.33
394.49	594.50
394.68	615.56
394.88	585.13
395.07	547.69
395.26	566.41
395.46	580.45
395.65	620.24
395.84	699.82
396.04	641.31
396.23	599.18
396.42	636.63
396.62	713.86
396.81	596.84
397.00	678.76
397.19	695.14
397.39	725.57
397.58	692.80
397.77	711.52
397.97	660.03
398.16	779.40
398.35	725.57
398.55	814.51
398.74	746.63
398.93	734.93
399.12	765.36
399.32	690.46
399.51	795.78
399.70	779.40
399.90	765.36
400.09	770.04
400.28	779.40
400.47	891.74
400.67	854.30
400.86	812.17
401.05	830.89
401.24	805.14
401.44	887.06
401.63	896.43
401.82	812.17
402.01	842.59
402.21	851.96
402.40	835.57
402.59	901.11
402.78	884.72
402.97	856.64
403.17	868.34
403.36	816.85
403.55	936.21
403.74	908.13
403.93	910.47
404.13	1011.11
404.32	894.08
404.51	851.96
404.70	903.45
404.89	947.92
405.09	959.62
405.28	987.71
405.47	992.39
405.66	966.64
405.85	1036.86
406.05	1034.52
406.24	952.60
406.43	1050.90
406.62	1088.35
406.81	1015.79
407.00	1050.90
407.20	1062.60
407.39	1069.62
407.58	1053.24
407.77	1093.03
407.96	1151.54
408.15	1170.27
408.34	1095.37
408.54	1130.48
408.73	1104.73
408.92	1163.25
409.11	1242.82
409.30	1104.73
409.49	1172.61
409.68	1149.20
409.87	1224.10
410.07	1191.33
410.26	1158.57
410.45	1277.93
410.64	1336.45
410.83	1200.69
411.02	1343.47
411.21	1291.98
411.40	1242.82
411.59	1336.45
411.78	1249.85
411.98	1252.19
412.17	1301.34
412.36	1226.44
412.55	1270.91
412.74	1472.20
412.93	1327.08
413.12	1423.05
413.31	1437.09
413.50	1352.83
413.69	1373.89
413.88	1476.88
414.07	1540.07
414.26	1481.56
414.45	1483.90
414.64	1462.83
414.83	1593.90
415.02	1528.37
415.22	1565.82
415.41	1563.48
415.60	1624.33
415.79	1640.72
415.98	1680.50
416.17	1598.59
416.36	1570.50
416.55	1626.67
416.74	1633.69
416.93	1701.57
417.12	1699.23
417.31	1722.63
417.50	1776.47
417.69	1799.87
417.88	1792.85
418.07	1755.40
418.26	1666.46
418.45	1825.62
418.64	1853.70
418.83	1905.20
419.02	1849.02
419.21	1867.75
419.39	1886.47
419.58	1769.44
419.77	1832.64
419.96	1921.58
420.15	1895.83
420.34	1879.45
420.53	1980.09
420.72	2031.58
420.91	1935.62
421.10	2031.58
421.29	1996.48
421.48	1956.69
421.67	2029.24
421.86	2005.84
422.05	1998.82
422.24	1994.14
422.43	1926.26
422.61	2069.03
422.80	1994.14
422.99	2120.53
423.18	2097.12
423.37	1961.37
423.56	2064.35
423.75	2001.16
423.94	2050.31
424.13	1954.35
424.32	1952.01
424.50	2155.63
424.69	2122.87
424.88	2157.97
425.07	2108.82
425.26	2064.35
425.45	2097.12
425.64	2087.76
425.83	2207.13
426.01	2101.80
426.20	2167.34
426.39	2118.18
426.58	2062.01
426.77	2211.81
426.96	2232.87
427.15	1998.82
427.33	2136.91
427.52	2155.63
427.71	2190.74
427.90	2242.23
428.09	2263.30
428.28	2228.19
428.46	2296.07
428.65	2200.10
428.84	2310.11
429.03	2291.38
429.22	2200.10
429.40	2300.75
429.59	2363.94
429.78	2202.44
429.97	2221.17
430.16	2314.79
430.34	2307.77
430.53	2387.35
430.72	2363.94
430.91	2263.30
431.10	2284.36
431.28	2319.47
431.47	2532.46
431.66	2441.18
431.85	2349.90
432.03	2415.43
432.22	2576.93
432.41	2513.74
432.60	2434.16
432.79	2382.67
432.97	2539.48
433.16	2555.86
433.35	2492.67
433.54	2523.10
433.72	2553.52
433.91	2588.63
434.10	2616.72
434.28	2583.95
434.47	2696.30
434.66	2670.55
434.85	2696.30
435.03	2679.91
435.22	2576.93
435.41	2738.43
435.59	2729.06
435.78	2719.70
435.97	2693.96
436.16	2740.77
436.34	2682.25
436.53	2820.35
436.72	2853.11
436.90	2700.98
437.09	2752.47
437.28	2850.77
437.46	2789.92
437.65	2738.43
437.84	2867.16
438.02	2855.45
438.21	2850.77
438.40	2904.60
438.58	3061.42
438.77	2942.05
438.96	2881.20
439.14	3133.98
439.33	2953.76
439.52	3070.78
439.70	3052.06
439.89	3068.44
440.08	3162.06
440.26	3061.42
440.45	3176.11
440.63	3194.83
440.82	3290.79
441.01	3220.58
441.19	3297.81
441.38	3227.60
441.57	3288.45
441.75	3365.69
441.94	3368.03
442.12	3396.12
442.31	3351.65
442.50	3442.93
442.68	3442.93
442.87	3358.67
443.05	3405.48
443.24	3431.23
443.43	3471.01
443.61	3414.84
443.80	3616.13
443.98	3370.37
444.17	3276.75
444.35	3545.91
444.54	3571.66
444.73	3604.42
444.91	3555.27
445.10	3564.64
445.28	3569.32
445.47	3405.48
445.65	3550.59
445.84	3581.02
446.02	3639.53
446.21	3569.32
446.39	3688.68
446.58	3632.51
446.77	3782.31
446.95	3604.42
447.14	3389.10
447.32	3658.26
447.51	3616.13
447.69	3709.75
447.88	3637.19
448.06	3679.32
448.25	3669.96
448.43	3768.26
448.62	3630.17
448.80	3728.47
448.99	3618.47
449.17	3707.41
449.36	3637.19
449.54	3768.26
449.73	3843.16
449.91	3854.86
450.10	3737.84
450.28	3887.63
450.46	3798.69
450.65	3789.33
450.83	3901.67
451.02	3824.44
451.20	3964.87
451.39	3932.10
451.57	3772.94
451.76	3758.90
451.94	3822.09
452.13	4098.28
452.31	3882.95
452.49	3880.61
452.68	4014.02
452.86	4065.51
453.05	3967.21
453.23	3918.06
453.42	3997.64
453.60	4049.13
453.78	4107.64
453.97	3964.87
454.15	4126.36
454.34	3997.64
454.52	3981.25
454.70	4023.38
454.89	4154.45
455.07	4133.39
455.26	4175.52
455.44	4086.58
455.62	4219.99
455.81	4269.14
455.99	4166.15
456.17	4376.80
456.36	4201.26
456.54	4280.84
456.73	4353.40
456.91	4404.89
457.09	4397.87
457.28	4390.84
457.46	4533.62
457.64	4533.62
457.83	4613.20
458.01	4383.82
458.19	4561.70
458.38	4510.21
458.56	4690.43
458.74	4538.30
458.93	4725.54
459.11	4709.16
459.29	4533.62
459.48	4573.41
459.66	4692.77
459.84	4795.76
460.03	4830.87
460.21	4704.48
460.39	4638.94
460.57	4774.69
460.76	4739.58
460.94	4746.61
461.12	4842.57
461.31	4755.97
461.49	4758.31
461.67	4664.69
461.85	4887.04
462.04	4959.60
462.22	5078.96
462.40	4896.40
462.59	4994.70
462.77	4835.55
462.95	4777.03
463.13	4931.51
463.32	5085.98
463.50	5032.15
463.68	5043.85
463.86	4997.04
464.05	5032.15
464.23	4959.60
464.41	5071.94
464.59	4919.81
464.78	5043.85
464.96	5043.85
465.14	5116.41
465.32	5029.81
465.50	5139.82
465.69	5207.69
465.87	5188.97
466.05	5055.56
466.23	4929.17
466.41	5280.25
466.60	5259.18
466.78	5200.67
466.96	5174.92
467.14	5249.82
467.32	5343.44
467.51	5205.35
467.69	5186.63
467.87	5364.51
468.05	5320.04
468.23	5289.61
468.41	5170.24
468.60	5345.78
468.78	5462.81
468.96	5350.46
469.14	5589.20
469.32	5621.97
469.50	5408.98
469.69	5430.04
469.87	5647.71
470.05	5717.93
470.23	5526.00
470.41	5593.88
470.59	5460.47
470.77	5682.82
470.95	5570.48
471.14	5785.80
471.32	5514.30
471.50	5811.55
471.68	5687.50
471.86	5778.78
472.04	5849.00
472.22	6111.14
472.40	5774.10
472.58	5989.43
472.77	6104.12
472.95	5984.75
473.13	6090.07
473.31	5963.68
473.49	6097.10
473.67	6008.16
473.85	6026.88
474.03	6174.33
474.21	6284.34
474.39	6394.34
474.57	6296.04
474.75	6408.39
474.93	6480.94
475.12	6338.17
475.30	6469.24
475.48	6214.12
475.66	6567.54
475.84	6574.56
476.02	6457.54
476.20	6555.84
476.38	6717.34
476.56	6726.70
476.74	6595.63
476.92	6738.40
477.10	6567.54
477.28	6782.87
477.46	6927.99
477.64	6839.05
477.82	7068.42
478.00	7140.97
478.18	7241.62
478.36	7152.68
478.54	7089.48
478.72	7267.36
478.90	7311.83
479.08	7672.28
479.26	7604.40
479.44	7557.59
479.62	7613.76
479.80	7641.85
479.98	7679.30
480.16	7735.47
480.34	7590.36
480.52	7985.91
480.70	7896.97
480.88	7709.72
481.06	7950.80
481.24	8191.88
481.41	7983.57
481.59	8140.38
481.77	8402.52
481.95	8203.58
482.13	8402.52
482.31	8533.59
482.49	8435.29
482.67	8526.57
482.85	8685.73
483.03	8784.03
483.21	8753.60
483.39	8964.25
483.57	8908.08
483.74	8982.98
483.92	8912.76
484.10	8802.75
484.28	9174.90
484.46	9289.59
484.64	9495.55
484.82	9277.88
485.00	9561.09
485.18	9298.95
485.35	9804.50
485.53	9832.59
485.71	9757.69
485.89	10003.45
486.07	9961.32
486.25	9940.26
486.43	10094.73
486.61	9991.75
486.78	10415.38
486.96	10331.12
487.14	10457.51
487.32	10232.82
487.50	10471.56
487.68	10611.99
487.85	10796.89
488.03	11016.90
488.21	10843.70
488.39	11119.89
488.57	11082.44
488.75	11040.31
488.92	11173.72
489.10	11250.96
489.28	11461.60
489.46	11602.04
489.64	11398.41
489.81	11634.80
489.99	11667.57
490.17	11833.75
490.35	11782.26
490.53	11875.88
490.70	12105.25
490.88	11922.69
491.06	12133.34
491.24	12077.16
491.41	12203.55
491.59	12320.58
491.77	12432.93
491.95	12517.18
492.13	12610.81
492.30	12636.55
492.48	12727.83
492.66	12938.48
492.84	12592.08
493.01	12924.44
493.19	13111.68
493.37	13167.85
493.54	13219.35
493.72	13345.73
493.90	13371.48
494.08	13352.76
494.25	13600.85
494.43	13502.55
494.61	13729.58
494.79	13994.06
494.96	14059.60
495.14	14066.62
495.32	13888.74
495.49	14054.92
495.67	14111.09
495.85	14394.29
496.02	14370.89
496.20	14389.61
496.38	14274.93
496.55	14611.96
496.73	14700.90
496.91	14391.95
497.09	14750.06
497.26	14843.68
497.44	14995.81
497.62	14574.52
497.79	15297.74
497.97	14923.26
498.14	15190.08
498.32	15239.23
498.50	15101.14
498.67	15309.44
498.85	15534.14
499.03	15536.48
499.20	15676.91
499.38	15824.36
499.56	15829.04
499.73	15777.55
499.91	16070.12
500.08	15920.32
500.26	15964.79
500.44	16011.60
500.61	16095.86
500.79	16201.19
500.97	16411.84
501.14	16620.14
501.32	16465.67
501.49	16594.40
501.67	16489.07
501.84	16365.03
502.02	16603.76
502.20	16695.04
502.37	17018.04
502.55	16498.44
502.72	16856.54
502.90	16875.26
503.07	16828.45
503.25	17095.27
503.43	17200.60
503.60	16933.78
503.78	17315.28
503.95	17219.32
504.13	17137.40
504.30	16994.63
504.48	17001.65
504.65	17420.61
504.83	17570.40
505.01	17554.02
505.18	17832.54
505.36	17841.90
505.53	17891.06
505.71	17778.71
505.88	17956.59
506.06	17727.22
506.23	17825.52
506.41	18026.81
506.58	18033.83
506.76	18125.11
506.93	18267.88
507.11	18267.88
507.28	18141.49
507.46	18291.29
507.63	18424.70
507.81	18485.55
507.98	18335.76
508.16	18546.40
508.33	18324.05
508.50	18799.18
508.68	18647.05
508.85	18824.93
509.03	18972.38
509.20	18787.48
509.38	19023.87
509.55	19110.47
509.73	18885.78
509.90	19222.82
510.08	18958.34
510.25	18991.11
510.42	19304.74
510.60	19314.10
510.77	19403.04
510.95	19513.05
511.12	19220.48
511.30	19243.88
511.47	19541.13
511.64	19709.65
511.82	19440.49
511.99	19438.15
512.17	19805.61
512.34	19623.05
512.51	20009.24
512.69	20322.87
512.86	19910.94
513.04	20018.60
513.21	20121.59
513.38	20140.31
513.56	20219.89
513.73	20212.87
513.90	20271.38
514.08	20100.52
514.25	20641.18
514.43	20137.97
514.60	20395.43
514.77	20823.75
514.95	20781.62
515.12	20521.82
515.29	20336.91
515.47	20814.38
515.64	20704.38
515.81	20875.24
515.99	21104.61
516.16	20858.85
516.33	21191.21
516.51	21048.44
516.68	21280.15
516.85	21053.12
517.03	21078.86
517.20	21062.48
517.37	21378.45
517.54	21469.73
517.72	21511.86
517.89	21233.34
518.06	21404.20
518.24	21619.53
518.41	21535.27
518.58	21645.27
518.75	21565.70
518.93	21944.86
519.10	21795.07
519.27	21942.52
519.45	21532.93
519.62	21818.47
519.79	21968.27
519.96	21930.82
520.14	22251.47
520.31	21996.35
520.48	22190.62
520.65	21979.97
520.83	22061.89
521.00	22548.72
521.17	22424.67
521.34	22352.12
521.52	22204.66
521.69	22527.66
521.86	22387.22
522.03	22768.73
522.20	22441.06
522.38	22607.23
522.55	22930.23
522.72	22785.12
522.89	22654.05
523.07	23007.47
523.24	22787.46
523.41	23049.60
523.58	22899.80
523.75	23014.49
523.92	22902.14
524.10	22717.24
524.27	23211.09
524.44	23623.03
524.61	23339.82
524.78	23630.05
524.96	23087.04
525.13	23386.63
525.30	23367.91
525.47	23674.52
525.64	23440.47
525.81	23733.03
525.98	24070.07
526.16	23800.91
526.33	23740.05
526.50	24013.90
526.67	23672.18
526.84	23569.19
527.01	23494.30
527.18	24109.86
527.36	24308.80
527.53	23875.80
527.70	24039.64
527.87	24355.61
528.04	24133.26
528.21	24404.77
528.38	23978.79
528.55	24367.32
528.72	24407.11
528.89	24350.93
529.07	24137.94
529.24	24556.90
529.41	24421.15
529.58	24292.42
529.75	24142.63
529.92	24458.60
530.09	24491.37
530.26	24589.67
530.43	24514.77
530.60	24266.67
530.77	24716.06
530.94	25001.60
531.11	24854.15
531.28	24793.29
531.46	25139.69
531.63	24840.11
531.80	24877.55
531.97	25099.90
532.14	24912.66
532.31	25043.73
532.48	24912.66
532.65	25261.40
532.82	25120.97
532.99	25209.91
533.16	24655.20
533.33	25467.37
533.50	25813.77
533.67	25355.02
533.84	25282.47
534.01	25305.87
534.18	24877.55
534.35	25497.80
534.52	25404.17
534.69	25944.84
534.86	25769.30
535.03	25446.30
535.20	25553.97
535.37	25827.81
535.54	25680.36
535.71	25654.61
535.88	25827.81
536.05	25844.20
536.22	26029.10
536.38	25872.28
536.55	26190.59
536.72	25979.95
536.89	25624.18
537.06	25881.64
537.23	26031.44
537.40	25862.92
537.57	26001.01
537.74	26190.59
537.91	26553.38
538.08	26223.36
538.25	26221.02
538.42	26309.96
538.59	26316.98
538.75	26066.55
538.92	26122.72
539.09	26183.57
539.26	26574.44
539.43	26759.34
539.60	26649.34
539.77	26403.58
539.94	26644.66
540.11	26101.65
540.28	26742.96
540.44	26969.99
540.61	26382.52
540.78	26120.38
540.95	26569.76
541.12	26511.25
541.29	26862.33
541.46	26806.16
541.62	26581.46
541.79	27002.76
541.96	26567.42
542.13	27037.87
542.30	27119.79
542.47	27255.54
542.63	27297.67
542.80	27534.06
542.97	27583.21
543.14	27505.98
543.31	27283.62
543.48	27227.45
543.64	27391.29
543.81	27765.78
543.98	27559.81
544.15	27419.38
544.32	27693.22
544.48	27651.09
544.65	27623.00
544.82	27159.58
544.99	27534.06
545.16	27660.45
545.32	27686.20
545.49	28130.90
545.66	27854.72
545.83	28105.15
546.00	27885.14
546.16	27845.35
546.33	27716.62
546.50	27445.12
546.67	27943.66
546.83	27562.15
547.00	28091.11
547.17	27742.37
547.34	28116.86
547.50	28011.53
547.67	28306.44
547.84	28259.63
548.00	28334.53
548.17	28070.04
548.34	28149.62
548.51	28273.67
548.67	28404.74
548.84	28524.11
549.01	28421.13
549.18	28306.44
549.34	28526.45
549.51	28266.65
549.68	28570.92
549.84	28198.77
550.01	28271.33
550.18	28456.23
550.34	28486.66
550.51	29181.80
550.68	28875.19
550.84	28320.48
551.01	28505.38
551.18	28793.27
551.34	28374.31
551.51	28479.64
551.68	28692.63
551.84	28641.14
552.01	28617.73
552.18	29067.11
552.34	29013.28
552.51	28931.36
552.68	29198.18
552.84	28947.75
553.01	29067.11
553.18	28826.04
553.34	29022.64
553.51	28650.50
553.67	29270.74
553.84	29195.84
554.01	29694.38
554.17	29256.70
554.34	28959.45
554.51	28692.63
554.67	29247.33
554.84	28996.90
555.00	29350.32
555.17	28823.70
555.33	29443.94
555.50	29413.51
555.67	29546.92
555.83	29390.11
556.00	29137.33
556.16	29352.66
556.33	29511.81
556.50	29369.04
556.66	29799.70
556.83	29663.95
556.99	29666.29
557.16	29799.70
557.32	29898.00
557.49	29708.42
557.65	29563.31
557.82	29336.27
557.98	29603.10
558.15	29560.97
558.32	29720.12
558.48	29890.98
558.65	29879.28
558.81	29818.42
558.98	29635.86
559.14	29696.72
559.31	29905.02
559.47	29607.78
559.64	29799.70
559.80	30150.78
559.97	30405.90
560.13	29846.51
560.30	30096.95
560.46	29970.56
560.63	29752.89
560.79	30017.37
560.96	30408.24
561.12	30045.46
561.29	30012.69
561.45	30022.05
561.61	30157.80
561.78	30033.75
561.94	30455.05
562.11	30471.43
562.27	30221.00
562.44	29993.97
562.60	30108.65
562.77	30008.01
562.93	30331.00
563.10	30525.27
563.26	30373.13
563.42	30066.52
563.59	30150.78
563.75	30087.59
563.92	30022.05
564.08	30382.49
564.24	30398.88
564.41	29940.13
564.57	30036.09
564.74	29979.92
564.90	30632.93
565.07	30150.78
565.23	29993.97
565.39	30202.27
565.56	30782.73
565.72	30448.03
565.88	30574.42
566.05	30621.23
566.21	30118.01
566.38	30532.29
566.54	30333.34
566.70	30881.03
566.87	30813.15
567.03	30764.00
567.19	30382.49
567.36	30888.05
567.52	30623.57
567.68	30815.49
567.85	30539.31
568.01	30426.96
568.17	30426.96
568.34	30377.81
568.50	30801.45
568.66	30536.97
568.83	30789.75
568.99	30698.47
569.15	30335.68
569.32	30424.62
569.48	30417.60
569.64	30539.31
569.81	30707.83
569.97	30899.75
570.13	30497.18
570.30	30939.54
570.46	31129.12
570.62	30602.50
570.78	30586.12
570.95	30356.75
571.11	30675.06
571.27	30277.17
571.43	30366.11
571.60	31119.76
571.76	30749.96
571.92	30700.81
572.09	31002.74
572.25	30965.29
572.41	30761.66
572.57	31332.75
572.74	31089.34
572.90	30696.13
573.06	30661.02
573.22	30859.96
573.38	30609.53
573.55	30747.62
573.71	31456.80
573.87	30972.31
574.03	31016.78
574.20	31037.84
574.36	30890.39
574.52	31012.10
574.68	30646.97
574.84	30719.53
575.01	30616.55
575.17	30815.49
575.33	30895.07
575.49	30920.82
575.65	31049.55
575.82	31054.23
575.98	31138.49
576.14	31138.49
576.30	31012.10
576.46	30902.09
576.62	30941.88
576.79	31255.51
576.95	30707.83
577.11	30944.22
577.27	31232.11
577.43	31084.65
577.59	31152.53
577.75	30740.60
577.92	31271.90
578.08	30703.15
578.24	30696.13
578.40	31122.10
578.56	31194.66
578.72	30677.40
578.88	31271.90
579.04	31321.05
579.21	30899.75
579.37	31222.75
579.53	31466.16
579.69	30923.16
579.85	31323.39
580.01	31007.42
580.17	31201.68
580.33	31250.83
580.49	31161.89
580.65	30939.54
580.82	31136.15
580.98	31335.09
581.14	31042.53
581.30	31374.88
581.46	31105.72
581.62	30742.94
581.78	31016.78
581.94	30944.22
582.10	31285.94
582.26	31225.09
582.42	31161.89
582.58	31349.14
582.74	31374.88
582.90	31129.12
583.06	31110.40
583.22	31489.57
583.38	31248.49
583.54	31042.53
583.70	31466.16
583.86	31337.43
584.02	31145.51
584.18	31056.57
584.34	31651.06
584.50	31566.81
584.66	31304.67
584.82	31246.15
584.98	31412.33
585.14	31377.22
585.30	30824.86
585.46	31094.02
585.62	31206.36
585.78	31229.77
585.94	31297.64
586.10	31063.59
586.26	31564.46
586.42	31463.82
586.58	31950.65
586.74	31351.48
586.90	31365.52
587.06	31302.32
587.22	30857.62
587.38	31384.24
587.54	31491.91
587.70	31597.23
587.86	31524.68
588.02	31328.07
588.18	31468.50
588.34	31913.20
588.49	31264.88
588.65	31459.14
588.81	31056.57
588.97	31349.14
589.13	31349.14
589.29	31601.91
589.45	31260.20
589.61	31374.88
589.77	31850.01
589.93	31901.50
590.08	31445.10
590.24	31941.29
590.40	31707.24
590.56	31695.53
590.72	31695.53
590.88	31482.55
591.04	31377.22
591.20	31531.70
591.35	31744.69
591.51	32271.31
591.67	31761.07
591.83	32250.24
