SpectraSuite Data File
++++++++++++++++++++++++++++++++++++
Date: Fri Oct 18 13:58:27 GMT-05:00 2013
User: bianchi
Dark Spectrum Present: No
Reference Spectrum Present: No
Number of Sampled Component Spectra: 1
Spectrometers: USB2+H05261
Integration Time (usec): 50000 (USB2+H05261)
Spectra Averaged: 1 (USB2+H05261)
Boxcar Smoothing: 0 (USB2+H05261)
Correct for Electrical Dark: No (USB2+H05261)
Strobe/Lamp Enabled: No (USB2+H05261)
Correct for Detector Non-linearity: No (USB2+H05261)
Correct for Stray Light: No (USB2+H05261)
Number of Pixels in Processed Spectrum: 2048
>>>>>Begin Processed Spectral Data<<<<<
365.73	0.00
365.92	0.00
366.12	0.00
366.32	0.00
366.52	0.00
366.72	0.00
366.91	0.00
367.11	0.00
367.31	0.00
367.51	0.00
367.70	0.00
367.90	0.00
368.10	0.00
368.30	0.00
368.49	0.00
368.69	0.00
368.89	0.00
369.09	0.00
369.28	0.00
369.48	0.00
369.68	0.00
369.87	0.00
370.07	0.00
370.27	0.00
370.47	0.00
370.66	105.32
370.86	112.35
371.06	133.41
371.25	100.64
371.45	163.84
371.65	126.39
371.84	173.20
372.04	63.19
372.24	180.22
372.44	152.13
372.63	231.71
372.83	292.57
373.03	255.12
373.22	248.10
373.42	175.54
373.62	229.37
373.81	175.54
374.01	234.05
374.21	250.44
374.40	262.14
374.60	292.57
374.79	236.39
374.99	238.73
375.19	280.86
375.38	280.86
375.58	262.14
375.78	257.46
375.97	299.59
376.17	241.08
376.37	252.78
376.56	238.73
376.76	250.44
376.95	290.23
377.15	238.73
377.35	353.42
377.54	315.97
377.74	301.93
377.93	276.18
378.13	278.52
378.33	332.36
378.52	187.24
378.72	215.33
378.91	255.12
379.11	234.05
379.31	264.48
379.50	201.29
379.70	311.29
379.89	315.97
380.09	351.08
380.28	273.84
380.48	290.23
380.68	287.89
380.87	294.91
381.07	341.72
381.26	365.12
381.46	283.20
381.65	367.46
381.85	322.99
382.04	353.42
382.24	311.29
382.43	362.78
382.63	318.31
382.83	447.04
383.02	376.83
383.22	318.31
383.41	273.84
383.61	318.31
383.80	430.66
384.00	390.87
384.19	433.00
384.39	313.63
384.58	287.89
384.78	348.74
384.97	428.32
385.17	390.87
385.36	395.55
385.56	299.59
385.75	351.08
385.95	299.59
386.14	444.70
386.34	365.12
386.53	386.19
386.72	269.16
386.92	433.00
387.11	418.96
387.31	463.43
387.50	386.19
387.70	437.68
387.89	435.34
388.09	402.57
388.28	416.62
388.48	367.46
388.67	421.30
388.86	472.79
389.06	482.15
389.25	447.04
389.45	447.04
389.64	395.55
389.84	543.00
390.03	519.60
390.22	505.56
390.42	456.40
390.61	503.22
390.81	526.62
391.00	463.43
391.19	500.87
391.39	418.96
391.58	517.26
391.78	465.77
391.97	526.62
392.16	456.40
392.36	575.77
392.55	528.96
392.75	533.64
392.94	526.62
393.13	444.70
393.33	505.56
393.52	421.30
393.71	620.24
393.91	503.22
394.10	592.16
394.29	552.37
394.49	662.37
394.68	653.01
394.88	571.09
395.07	580.45
395.26	641.31
395.46	554.71
395.65	578.11
395.84	587.47
396.04	695.14
396.23	608.54
396.42	622.58
396.62	676.41
396.81	723.23
397.00	552.37
397.19	730.25
397.39	629.60
397.58	645.99
397.77	608.54
397.97	741.95
398.16	613.22
398.35	674.07
398.55	695.14
398.74	622.58
398.93	744.29
399.12	741.95
399.32	755.99
399.51	746.63
399.70	674.07
399.90	767.70
400.09	758.33
400.28	770.04
400.47	720.88
400.67	723.23
400.86	842.59
401.05	844.93
401.24	730.25
401.44	763.01
401.63	814.51
401.82	830.89
402.01	781.74
402.21	861.32
402.40	805.14
402.59	835.57
402.78	807.48
402.97	842.59
403.17	746.63
403.36	758.33
403.55	828.55
403.74	882.38
403.93	875.36
404.13	926.85
404.32	954.94
404.51	938.55
404.70	884.72
404.89	945.58
405.09	980.68
405.28	1011.11
405.47	926.85
405.66	910.47
405.85	954.94
406.05	966.64
406.24	994.73
406.43	980.68
406.62	1029.84
406.81	1001.75
407.00	971.32
407.20	1029.84
407.39	952.60
407.58	987.71
407.77	1067.28
407.96	1001.75
408.15	1062.60
408.34	1034.52
408.54	1015.79
408.73	1104.73
408.92	1104.73
409.11	1027.50
409.30	1116.44
409.49	1128.14
409.68	1057.92
409.87	1067.28
410.07	1153.88
410.26	1207.72
410.45	1116.44
410.64	1158.57
410.83	1151.54
411.02	1121.12
411.21	1261.55
411.40	1277.93
411.59	1240.48
411.78	1273.25
411.98	1212.40
412.17	1338.79
412.36	1270.91
412.55	1224.10
412.74	1343.47
412.93	1343.47
413.12	1416.02
413.31	1420.71
413.50	1357.51
413.69	1291.98
413.88	1490.92
414.07	1364.53
414.26	1373.89
414.45	1369.21
414.64	1500.28
414.83	1432.41
415.02	1502.62
415.22	1474.54
415.41	1577.52
415.60	1565.82
415.79	1507.30
415.98	1689.87
416.17	1554.12
416.36	1568.16
416.55	1605.61
416.74	1629.01
416.93	1598.59
417.12	1593.90
417.31	1603.27
417.50	1703.91
417.69	1760.08
417.88	1701.57
418.07	1736.68
418.26	1703.91
418.45	1774.13
418.64	1783.49
418.83	1802.21
419.02	1678.16
419.21	1783.49
419.39	1832.64
419.58	1825.62
419.77	1774.13
419.96	1783.49
420.15	1867.75
420.34	1870.09
420.53	1884.13
420.72	1956.69
420.91	1813.92
421.10	1888.81
421.29	1940.30
421.48	1977.75
421.67	1961.37
421.86	1816.26
422.05	1952.01
422.24	1919.24
422.43	1968.39
422.61	1916.90
422.80	2008.18
422.99	2080.74
423.18	2001.16
423.37	2162.66
423.56	2052.65
423.75	1982.43
423.94	2003.50
424.13	1884.13
424.32	1944.99
424.50	2036.27
424.69	2040.95
424.88	2085.42
425.07	1968.39
425.26	2005.84
425.45	1989.46
425.64	2104.14
425.83	2083.08
426.01	1994.14
426.20	1942.64
426.39	2092.44
426.58	2104.14
426.77	2036.27
426.96	2092.44
427.15	1994.14
427.33	2246.91
427.52	2099.46
427.71	2195.42
427.90	2179.04
428.09	2195.42
428.28	2270.32
428.46	2146.27
428.65	2221.17
428.84	2195.42
429.03	2228.19
429.22	2211.81
429.40	2239.89
429.59	2242.23
429.78	2097.12
429.97	2223.51
430.16	2136.91
430.34	2207.13
430.53	2244.57
430.72	2361.60
430.91	2251.60
431.10	2352.24
431.28	2368.62
431.47	2331.17
431.66	2464.58
431.85	2483.31
432.03	2410.75
432.22	2415.43
432.41	2483.31
432.60	2471.61
432.79	2443.52
432.97	2490.33
433.16	2520.76
433.35	2487.99
433.54	2490.33
433.72	2560.55
433.91	2392.03
434.10	2450.54
434.28	2506.71
434.47	2560.55
434.66	2525.44
434.85	2649.49
435.03	2635.44
435.22	2565.23
435.41	2708.00
435.59	2708.00
435.78	2637.78
435.97	2560.55
436.16	2696.30
436.34	2476.29
436.53	2675.23
436.72	2700.98
436.90	2745.45
437.09	2712.68
437.28	2572.25
437.46	2719.70
437.65	2888.22
437.84	2787.58
438.02	2759.49
438.21	2782.90
438.40	2764.17
438.58	2928.01
438.77	2771.19
438.96	2944.39
439.14	2874.18
439.33	3091.85
439.52	3007.59
439.70	3023.97
439.89	3009.93
440.08	3143.34
440.26	3005.25
440.45	2932.69
440.63	3035.67
440.82	3241.64
441.01	3206.53
441.19	3185.47
441.38	3199.51
441.57	3110.57
441.75	3248.66
441.94	3236.96
442.12	3068.44
442.31	3276.75
442.50	3194.83
442.68	3145.68
442.87	3255.69
443.05	3421.86
443.24	3232.28
443.43	3295.47
443.61	3328.24
443.80	3574.00
443.98	3440.59
444.17	3199.51
444.35	3435.91
444.54	3403.14
444.73	3410.16
444.91	3468.67
445.10	3365.69
445.28	3382.07
445.47	3506.12
445.65	3379.73
445.84	3449.95
446.02	3449.95
446.21	3473.36
446.39	3349.31
446.58	3459.31
446.77	3499.10
446.95	3431.23
447.14	3398.46
447.32	3574.00
447.51	3569.32
447.69	3487.40
447.88	3555.27
448.06	3431.23
448.25	3463.99
448.43	3634.85
448.62	3508.46
448.80	3550.59
448.99	3585.70
449.17	3574.00
449.36	3606.77
449.54	3606.77
449.73	3791.67
449.91	3604.42
450.10	3679.32
450.28	3662.94
450.46	3644.21
450.65	3562.30
450.83	3679.32
451.02	3709.75
451.20	3688.68
451.39	3794.01
451.57	3850.18
451.76	3637.19
451.94	3833.80
452.13	3894.65
452.31	3875.93
452.49	3999.98
452.68	3791.67
452.86	3765.92
453.05	3843.16
453.23	3833.80
453.42	3812.73
453.60	3810.39
453.78	3784.65
453.97	3829.12
454.15	3889.97
454.34	3922.74
454.52	3915.72
454.70	4016.36
454.89	3957.85
455.07	3971.89
455.26	4037.42
455.44	4081.89
455.62	3967.21
455.81	4030.40
455.99	4131.05
456.17	4072.53
456.36	4051.47
456.54	4163.81
456.73	4140.41
456.91	4280.84
457.09	4217.65
457.28	4311.27
457.46	4217.65
457.64	4273.82
457.83	4227.01
458.01	4229.35
458.19	4432.97
458.38	4374.46
458.56	4404.89
458.74	4561.70
458.93	4355.74
459.11	4456.38
459.29	4227.01
459.48	4603.83
459.66	4472.76
459.84	4407.23
460.03	4601.49
460.21	4507.87
460.39	4535.96
460.57	4435.32
460.76	4472.76
460.94	4638.94
461.12	4760.65
461.31	4599.15
461.49	4620.22
461.67	4580.43
461.85	4784.06
462.04	4580.43
462.22	4774.69
462.40	4751.29
462.59	4690.43
462.77	4652.98
462.95	4667.03
463.13	4744.27
463.32	4840.23
463.50	4875.34
463.68	4865.97
463.86	4798.10
464.05	4711.50
464.23	4786.40
464.41	4947.89
464.59	4718.52
464.78	4861.29
464.96	4849.59
465.14	4877.68
465.32	4994.70
465.50	4959.60
465.69	4992.36
465.87	5006.41
466.05	4987.68
466.23	4992.36
466.41	4992.36
466.60	5158.54
466.78	5018.11
466.96	4898.74
467.14	4990.02
467.32	5186.63
467.51	5205.35
467.69	4865.97
467.87	5235.78
468.05	5139.82
468.23	5102.37
468.41	5135.14
468.60	5231.10
468.78	5273.23
468.96	5125.77
469.14	5170.24
469.32	5327.06
469.50	5032.15
469.69	5228.76
469.87	5479.19
470.05	5493.24
470.23	5448.77
470.41	5408.98
470.59	5331.74
470.77	5497.92
470.95	5416.00
471.14	5533.03
471.32	5385.57
471.50	5701.54
471.68	5467.49
471.86	5593.88
472.04	5582.18
472.22	5741.33
472.40	5621.97
472.58	5650.05
472.77	5666.44
472.95	5703.89
473.13	6054.97
473.31	5703.89
473.49	5776.44
473.67	5900.49
473.85	5783.46
474.03	5933.26
474.21	6038.58
474.39	6050.28
474.57	6001.13
474.75	6026.88
474.93	6017.52
475.12	6122.84
475.30	6162.63
475.48	6333.49
475.66	6197.74
475.84	6190.72
476.02	6239.87
476.20	6230.51
476.38	6424.77
476.56	6497.33
476.74	6663.51
476.92	6473.92
477.10	6602.65
477.28	6794.58
477.46	6590.95
477.64	6621.38
477.82	6670.53
478.00	6890.54
478.18	6939.69
478.36	6927.99
478.54	6864.79
478.72	6965.43
478.90	7073.10
479.08	7234.60
479.26	6979.48
479.44	7190.13
479.62	7272.04
479.80	7548.23
479.98	7445.24
480.16	7492.05
480.34	7602.06
480.52	7581.00
480.70	7707.38
480.88	7538.87
481.06	7538.87
481.24	7623.12
481.41	7810.37
481.59	7903.99
481.77	8004.63
481.95	7992.93
482.13	8070.17
482.31	8030.38
482.49	8060.80
482.67	8248.05
482.85	8278.47
483.03	8439.97
483.21	8517.21
483.39	8514.87
483.57	8500.83
483.74	8739.56
483.92	8837.86
484.10	8561.68
484.28	8840.20
484.46	9062.55
484.64	9025.11
484.82	9107.02
485.00	8882.33
485.18	9378.53
485.35	9390.23
485.53	9479.17
485.71	9392.57
485.89	9434.70
486.07	9359.80
486.25	9614.92
486.43	9832.59
486.61	9678.12
486.78	9823.23
486.96	10083.03
487.14	9856.00
487.32	10141.54
487.50	10078.35
487.68	10092.39
487.85	10380.28
488.03	10427.09
488.21	10665.82
488.39	10307.72
488.57	10773.49
488.75	10399.00
488.92	10871.79
489.10	10771.15
489.28	10965.41
489.46	11002.86
489.64	11211.17
489.81	11171.38
489.99	11290.74
490.17	11211.17
490.35	11403.09
490.53	11295.43
490.70	11468.62
490.88	11300.11
491.06	11683.95
491.24	11604.38
491.41	11662.89
491.59	11815.02
491.77	11901.62
491.95	12018.65
492.13	11985.88
492.30	12224.62
492.48	12030.35
492.66	12470.37
492.84	12224.62
493.01	12601.44
493.19	12648.26
493.37	12528.89
493.54	12486.76
493.72	12737.20
493.90	12734.85
494.08	13099.98
494.25	13109.34
494.43	13092.96
494.61	13191.26
494.79	13301.26
494.96	13317.65
495.14	13376.16
495.32	13518.93
495.49	13465.10
495.67	13607.87
495.85	13769.37
496.02	13947.25
496.20	14005.77
496.38	13743.63
496.55	13961.30
496.73	14134.50
496.91	14178.97
497.09	13961.30
497.26	14312.38
497.44	14279.61
497.62	14335.78
497.79	14406.00
497.97	14230.46
498.14	14490.26
498.32	14492.60
498.50	14850.70
498.67	14801.55
498.85	14874.10
499.03	14902.19
499.20	14972.41
499.38	15070.71
499.56	15028.58
499.73	15089.43
499.91	15098.80
500.08	15248.59
500.26	15094.11
500.44	15225.18
500.61	15379.66
500.79	15501.37
500.97	15470.94
501.14	15822.02
501.32	15786.91
501.49	15772.87
501.67	15831.38
501.84	15793.94
502.02	15826.70
502.20	16004.58
502.37	16154.38
502.55	16119.27
502.72	16046.71
502.90	16105.23
503.07	16210.55
503.25	16264.38
503.43	16126.29
503.60	16503.12
503.78	16460.99
503.95	16580.36
504.13	16491.41
504.30	16533.54
504.48	16393.11
504.65	16711.42
504.83	16793.34
505.01	17062.51
505.18	17025.06
505.36	17242.73
505.53	17053.14
505.71	16968.88
505.88	16947.82
506.06	17121.02
506.23	16959.52
506.41	17296.56
506.58	17301.24
506.76	17153.79
506.93	17352.73
507.11	17181.87
507.28	17408.90
507.46	17305.92
507.63	17509.55
507.81	17657.00
507.98	17544.66
508.16	17862.97
508.33	17584.44
508.50	17771.69
508.68	17778.71
508.85	17874.67
509.03	17956.59
509.20	18368.52
509.38	18396.61
509.55	18057.23
509.73	18197.67
509.90	18382.57
510.08	18370.86
510.25	18340.44
510.42	18188.30
510.60	18658.75
510.77	18417.68
510.95	18696.20
511.12	18537.04
511.30	18422.36
511.47	18630.66
511.64	18813.23
511.82	18569.81
511.99	18958.34
512.17	18932.59
512.34	19021.53
512.51	18845.99
512.69	19014.51
512.86	19089.41
513.04	19510.71
513.21	19363.25
513.38	19133.88
513.56	19143.24
513.73	19297.72
513.90	19363.25
514.08	19229.84
514.25	19648.80
514.43	19662.84
514.60	19697.95
514.77	19676.88
514.95	19693.27
515.12	19770.51
515.29	19639.44
515.47	19611.35
515.64	19894.55
515.81	20081.80
515.99	20020.94
516.16	20390.75
516.33	20058.39
516.51	20240.95
516.68	20212.87
516.85	20034.99
517.03	20194.14
517.20	20414.15
517.37	20224.57
517.54	20404.79
517.72	20381.38
517.89	20634.16
518.06	20332.23
518.24	20575.65
518.41	20465.64
518.58	20727.78
518.75	20554.58
518.93	20741.83
519.10	20683.31
519.27	21125.68
519.45	20961.84
519.62	20868.22
519.79	21029.71
519.96	21001.63
520.14	21387.82
520.31	21231.00
520.48	21483.78
520.65	21195.89
520.83	21511.86
521.00	21153.76
521.17	21504.84
521.34	21446.33
521.52	21640.59
521.69	21296.53
521.86	21376.11
522.03	22141.47
522.20	21436.97
522.38	21738.90
522.55	21490.80
522.72	21820.81
522.89	21853.58
523.07	22199.98
523.24	21820.81
523.41	22204.66
523.58	21507.18
523.75	21884.01
523.92	22078.27
524.10	22101.68
524.27	22347.44
524.44	22309.99
524.61	22082.95
524.78	22534.68
524.96	22581.49
525.13	22438.72
525.30	22305.31
525.47	22209.34
525.64	22302.96
525.81	22448.08
525.98	22361.48
526.16	22387.22
526.33	22644.68
526.50	22909.16
526.67	22759.37
526.84	22614.26
527.01	22525.32
527.18	22506.59
527.36	22778.09
527.53	22871.72
527.70	22951.29
527.87	22932.57
528.04	22834.27
528.21	22827.24
528.38	23133.86
528.55	23152.58
528.72	22906.82
528.89	23124.49
529.07	23101.09
529.24	23040.23
529.41	23365.57
529.58	23403.02
529.75	23384.29
529.92	23239.18
530.09	23536.43
530.26	23658.14
530.43	23534.09
530.60	23470.89
530.77	23335.14
530.94	23967.09
531.11	23611.32
531.28	23407.70
531.46	23520.04
531.63	23604.30
531.80	23770.48
531.97	23711.97
532.14	23908.57
532.31	24060.71
532.48	23962.40
532.65	23892.19
532.82	23749.42
532.99	23913.25
533.16	24044.32
533.33	24456.26
533.50	24437.53
533.67	24425.83
533.84	23924.96
534.01	24151.99
534.18	24102.84
534.35	24428.17
534.52	23812.61
534.69	24254.97
534.86	24463.28
535.03	24577.97
535.20	24526.47
535.37	24629.46
535.54	24423.49
535.71	24299.44
535.88	24601.37
536.05	24687.97
536.22	24596.69
536.38	24563.92
536.55	24959.47
536.72	24793.29
536.89	24439.87
537.06	24622.44
537.23	24868.19
537.40	24758.19
537.57	24896.28
537.74	24762.87
537.91	25125.65
538.08	25181.82
538.25	24992.24
538.42	24964.15
538.59	25125.65
538.75	24643.50
538.92	25081.18
539.09	25207.57
539.26	25273.10
539.43	25137.35
539.60	25579.71
539.77	25455.67
539.94	25294.17
540.11	25095.22
540.28	25429.92
540.44	25446.30
540.61	25710.78
540.78	25216.93
540.95	25490.77
541.12	25427.58
541.29	25968.24
541.46	25160.76
541.62	25656.95
541.79	25495.46
541.96	25500.14
542.13	25610.14
542.30	25947.18
542.47	25710.78
542.63	25958.88
542.80	26146.12
542.97	26068.89
543.14	25827.81
543.31	26398.90
543.48	25846.54
543.64	26377.84
543.81	26661.04
543.98	26457.42
544.15	26373.16
544.32	26576.78
544.48	26721.90
544.65	26324.01
544.82	26235.06
544.99	26246.77
545.16	26195.28
545.32	26279.54
545.49	26749.98
545.66	26309.96
545.83	26724.24
546.00	26792.11
546.16	26621.25
546.33	26497.20
546.50	26478.48
546.67	26534.65
546.83	26429.33
547.00	26450.39
547.17	26838.92
547.34	26642.32
547.50	26684.45
547.67	26878.71
547.84	26686.79
548.00	26958.29
548.17	26766.37
548.34	26958.29
548.51	27129.15
548.67	27159.58
548.84	27215.75
549.01	26984.04
549.18	27000.42
549.34	26897.44
549.51	26820.20
549.68	27173.62
549.84	26944.25
550.01	26967.65
550.18	27101.06
550.34	27124.47
550.51	27545.76
550.68	27342.14
550.84	26993.40
551.01	27417.04
551.18	27152.55
551.34	27091.70
551.51	27166.60
551.68	27248.52
551.84	27555.13
552.01	27178.30
552.18	27938.97
552.34	27353.84
552.51	27374.91
552.68	27522.36
552.84	27304.69
553.01	27585.55
553.18	27386.61
553.34	27585.55
553.51	27573.85
553.67	28002.17
553.84	27983.44
554.01	27728.33
554.17	27779.82
554.34	27770.46
554.51	27580.87
554.67	27819.61
554.84	28156.64
555.00	27936.63
555.17	27908.55
555.33	28121.54
555.50	28048.98
555.67	28343.89
555.83	27669.81
556.00	27934.29
556.16	28063.02
556.33	28016.21
556.50	27953.02
556.66	28027.92
556.83	28100.47
556.99	28327.50
557.16	28292.40
557.32	28404.74
557.49	27992.81
557.65	27960.04
557.82	28301.76
557.98	28011.53
558.15	28395.38
558.32	28318.14
558.48	28348.57
558.65	28481.98
558.81	28308.78
558.98	28510.07
559.14	28636.45
559.31	28484.32
559.47	28268.99
559.64	28481.98
559.80	28371.97
559.97	28374.31
560.13	28432.83
560.30	28528.79
560.46	28484.32
560.63	28613.05
560.79	28435.17
560.96	28584.96
561.12	28453.89
561.29	28360.27
561.45	28170.69
561.61	28601.35
561.78	28587.30
561.94	28718.37
562.11	28760.50
562.27	28655.18
562.44	28191.75
562.60	29008.60
562.77	28563.90
562.93	28453.89
563.10	28943.06
563.26	29221.59
563.42	28788.59
563.59	28723.05
563.75	28737.10
563.92	28716.03
564.08	28453.89
564.24	28849.44
564.41	28828.38
564.57	28638.80
564.74	28898.59
564.90	28800.29
565.07	29371.38
565.23	29209.89
565.39	28706.67
565.56	28992.22
565.72	29142.01
565.88	28741.78
566.05	29195.84
566.21	28959.45
566.38	28458.57
566.54	28673.90
566.70	29296.49
566.87	29275.42
567.03	29174.78
567.19	29116.26
567.36	29106.90
567.52	28814.34
567.68	28966.47
567.85	29109.24
568.01	29163.08
568.17	29090.52
568.34	29219.25
568.50	29647.57
568.66	29013.28
568.83	29254.36
568.99	28861.15
569.15	29130.31
569.32	29113.92
569.48	28922.00
569.64	29252.02
569.81	28922.00
569.97	29202.86
570.13	29333.93
570.30	28919.66
570.46	29408.83
570.62	29481.39
570.78	29399.47
570.95	28938.38
571.11	29427.56
571.27	28968.81
571.43	28996.90
571.60	29326.91
571.76	28868.17
571.92	29296.49
572.09	28826.04
572.25	29790.34
572.41	29226.27
572.57	29099.88
572.74	29687.36
572.90	29144.35
573.06	28992.22
573.22	29308.19
573.38	29617.14
573.55	29429.90
573.71	29692.04
573.87	29486.07
574.03	29092.86
574.20	29394.79
574.36	29244.99
574.52	29560.97
574.68	29268.40
574.84	29048.39
575.01	29340.96
575.17	29406.49
575.33	29205.20
575.49	28903.28
575.65	29193.50
575.82	29558.63
575.98	29134.99
576.14	29261.38
576.30	29544.58
576.46	29207.55
576.62	29153.71
576.79	29666.29
576.95	29106.90
577.11	29537.56
577.27	29532.88
577.43	29528.20
577.59	29504.79
577.75	29661.61
577.92	29343.30
578.08	29411.17
578.24	29092.86
578.40	29535.22
578.56	29539.90
578.72	29755.23
578.88	29640.54
579.04	29406.49
579.21	29607.78
579.37	29537.56
579.53	29785.66
579.69	29333.93
579.85	29619.48
580.01	29535.22
580.17	29357.34
580.33	29640.54
580.49	29322.23
580.65	29783.32
580.82	29820.77
580.98	29450.96
581.14	29647.57
581.30	29717.78
581.46	29439.26
581.62	29764.59
581.78	29699.06
581.94	29762.25
582.10	29310.53
582.26	29696.72
582.42	29366.70
582.58	29933.11
582.74	29759.91
582.90	29387.77
583.06	29453.30
583.22	29893.32
583.38	29560.97
583.54	29434.58
583.70	29418.19
583.86	29647.57
584.02	29663.95
584.18	29518.84
584.34	29724.80
584.50	29675.65
584.66	29797.36
584.82	29640.54
584.98	29392.45
585.14	29944.81
585.30	29839.49
585.46	29659.27
585.62	29331.59
585.78	29455.64
585.94	29067.11
586.10	29668.63
586.26	29701.40
586.42	29818.42
586.58	30043.12
586.74	29743.53
586.90	29820.77
587.06	29556.28
587.22	29837.15
587.38	29436.92
587.54	30169.51
587.70	30096.95
587.86	29771.61
588.02	30127.38
588.18	30272.49
588.34	30192.91
588.49	29780.98
588.65	29565.65
588.81	29785.66
588.97	29940.13
589.13	29408.83
589.29	29713.10
589.45	29738.85
589.61	29912.05
589.77	29902.68
589.93	29687.36
590.08	30323.98
590.24	29596.07
590.40	29951.84
590.56	29923.75
590.72	29858.21
590.88	30078.22
591.04	29823.11
591.20	30286.53
591.35	29748.21
591.51	30288.87
591.67	30099.29
591.83	30094.61
591.99	29982.26
