SpectraSuite Data File
++++++++++++++++++++++++++++++++++++
Date: Fri Oct 18 13:58:30 GMT-05:00 2013
User: bianchi
Dark Spectrum Present: No
Reference Spectrum Present: No
Number of Sampled Component Spectra: 1
Spectrometers: USB2+H05261
Integration Time (usec): 50000 (USB2+H05261)
Spectra Averaged: 1 (USB2+H05261)
Boxcar Smoothing: 0 (USB2+H05261)
Correct for Electrical Dark: No (USB2+H05261)
Strobe/Lamp Enabled: No (USB2+H05261)
Correct for Detector Non-linearity: No (USB2+H05261)
Correct for Stray Light: No (USB2+H05261)
Number of Pixels in Processed Spectrum: 2048
>>>>>Begin Processed Spectral Data<<<<<
365.73	0.00
365.92	0.00
366.12	0.00
366.32	0.00
366.52	0.00
366.72	0.00
366.91	0.00
367.11	0.00
367.31	0.00
367.51	0.00
367.70	0.00
367.90	0.00
368.10	0.00
368.30	0.00
368.49	0.00
368.69	0.00
368.89	0.00
369.09	0.00
369.28	0.00
369.48	0.00
369.68	0.00
369.87	0.00
370.07	0.00
370.27	11.70
370.47	0.00
370.66	46.81
370.86	77.24
371.06	91.28
371.25	128.73
371.45	147.45
371.65	147.45
371.84	86.60
372.04	168.52
372.24	194.26
372.44	212.99
372.63	243.42
372.83	234.05
373.03	208.31
373.22	259.80
373.42	149.79
373.62	189.58
373.81	175.54
374.01	283.20
374.21	180.22
374.40	227.03
374.60	264.48
374.79	194.26
374.99	222.35
375.19	236.39
375.38	231.71
375.58	304.27
375.78	217.67
375.97	250.44
376.17	236.39
376.37	243.42
376.56	330.02
376.76	175.54
376.95	278.52
377.15	304.27
377.35	360.44
377.54	245.76
377.74	330.02
377.93	290.23
378.13	315.97
378.33	252.78
378.52	266.82
378.72	280.86
378.91	287.89
379.11	290.23
379.31	280.86
379.50	287.89
379.70	278.52
379.89	273.84
380.09	358.10
380.28	325.33
380.48	220.01
380.68	241.08
380.87	280.86
381.07	341.72
381.26	306.61
381.46	292.57
381.65	315.97
381.85	315.97
382.04	332.36
382.24	372.15
382.43	318.31
382.63	332.36
382.83	341.72
383.02	332.36
383.22	322.99
383.41	376.83
383.61	383.85
383.80	351.08
384.00	341.72
384.19	344.06
384.39	353.42
384.58	337.04
384.78	337.04
384.97	400.23
385.17	397.89
385.36	315.97
385.56	367.46
385.75	414.27
385.95	407.25
386.14	306.61
386.34	423.64
386.53	402.57
386.72	393.21
386.92	454.06
387.11	472.79
387.31	388.53
387.50	454.06
387.70	374.49
387.89	463.43
388.09	358.10
388.28	409.59
388.48	449.38
388.67	421.30
388.86	416.62
389.06	444.70
389.25	547.69
389.45	451.72
389.64	442.36
389.84	496.19
390.03	514.92
390.22	477.47
390.42	510.24
390.61	528.96
390.81	486.83
391.00	472.79
391.19	468.11
391.39	425.98
391.58	463.43
391.78	472.79
391.97	517.26
392.16	468.11
392.36	477.47
392.55	449.38
392.75	519.60
392.94	554.71
393.13	491.51
393.33	559.39
393.52	599.18
393.71	568.75
393.91	524.28
394.10	533.64
394.29	599.18
394.49	575.77
394.68	641.31
394.88	603.86
395.07	585.13
395.26	643.65
395.46	566.41
395.65	709.18
395.84	587.47
396.04	727.91
396.23	510.24
396.42	578.11
396.62	653.01
396.81	650.67
397.00	638.97
397.19	587.47
397.39	622.58
397.58	662.37
397.77	676.41
397.97	613.22
398.16	688.12
398.35	692.80
398.55	688.12
398.74	730.25
398.93	664.71
399.12	664.71
399.32	667.05
399.51	704.50
399.70	739.61
399.90	697.48
400.09	674.07
400.28	744.29
400.47	753.65
400.67	744.29
400.86	805.14
401.05	709.18
401.24	849.61
401.44	732.59
401.63	816.85
401.82	823.87
402.01	858.98
402.21	734.93
402.40	877.70
402.59	823.87
402.78	882.38
402.97	842.59
403.17	856.64
403.36	877.70
403.55	826.21
403.74	842.59
403.93	854.30
404.13	849.61
404.32	835.57
404.51	873.02
404.70	858.98
404.89	1020.47
405.09	901.11
405.28	929.19
405.47	952.60
405.66	908.13
405.85	966.64
406.05	1032.18
406.24	1013.45
406.43	833.23
406.62	1069.62
406.81	973.66
407.00	887.06
407.20	976.00
407.39	1029.84
407.58	1041.54
407.77	971.32
407.96	964.30
408.15	1109.41
408.34	1015.79
408.54	1086.01
408.73	1078.99
408.92	1088.35
409.11	1074.31
409.30	1088.35
409.49	1036.86
409.68	1039.20
409.87	1118.78
410.07	1217.08
410.26	1200.69
410.45	1149.20
410.64	1217.08
410.83	1174.95
411.02	1188.99
411.21	1228.78
411.40	1210.06
411.59	1170.27
411.78	1177.29
411.98	1198.35
412.17	1242.82
412.36	1203.04
412.55	1294.32
412.74	1310.70
412.93	1282.61
413.12	1254.53
413.31	1411.34
413.50	1380.92
413.69	1404.32
413.88	1334.11
414.07	1329.42
414.26	1441.77
414.45	1380.92
414.64	1411.34
414.83	1500.28
415.02	1570.50
415.22	1629.01
415.41	1516.67
415.60	1481.56
415.79	1516.67
415.98	1612.63
416.17	1568.16
416.36	1493.26
416.55	1514.33
416.74	1556.46
416.93	1675.82
417.12	1685.19
417.31	1605.61
417.50	1600.93
417.69	1746.04
417.88	1734.34
418.07	1647.74
418.26	1736.68
418.45	1678.16
418.64	1846.68
418.83	1720.29
419.02	1696.89
419.21	1741.36
419.39	1832.64
419.58	1764.76
419.77	1762.42
419.96	1788.17
420.15	1909.88
420.34	1849.02
420.53	1867.75
420.72	1792.85
420.91	1849.02
421.10	1916.90
421.29	1942.64
421.48	1902.86
421.67	1907.54
421.86	1879.45
422.05	1898.17
422.24	1954.35
422.43	1863.07
422.61	2036.27
422.80	1952.01
422.99	1973.07
423.18	1886.47
423.37	2169.68
423.56	2005.84
423.75	1886.47
423.94	2057.33
424.13	1895.83
424.32	1949.67
424.50	1987.11
424.69	1970.73
424.88	2022.22
425.07	1989.46
425.26	1914.56
425.45	2043.29
425.64	2080.74
425.83	1947.33
426.01	2036.27
426.20	2080.74
426.39	2003.50
426.58	2045.63
426.77	2012.86
426.96	2036.27
427.15	1998.82
427.33	2115.84
427.52	2062.01
427.71	2069.03
427.90	2036.27
428.09	2195.42
428.28	2204.78
428.46	2186.06
428.65	2160.31
428.84	2218.83
429.03	2338.20
429.22	2176.70
429.40	2270.32
429.59	2260.96
429.78	2078.40
429.97	2099.46
430.16	2076.06
430.34	2253.94
430.53	2455.22
430.72	2340.54
430.91	2230.53
431.10	2270.32
431.28	2265.64
431.47	2300.75
431.66	2413.09
431.85	2338.20
432.03	2347.56
432.22	2424.80
432.41	2338.20
432.60	2303.09
432.79	2452.88
432.97	2392.03
433.16	2466.92
433.35	2340.54
433.54	2457.56
433.72	2443.52
433.91	2387.35
434.10	2647.15
434.28	2509.05
434.47	2487.99
434.66	2387.35
434.85	2480.97
435.03	2609.70
435.22	2436.50
435.41	2705.66
435.59	2597.99
435.78	2525.44
435.97	2532.46
436.16	2649.49
436.34	2597.99
436.53	2628.42
436.72	2768.85
436.90	2523.10
437.09	2803.96
437.28	2621.40
437.46	2679.91
437.65	2628.42
437.84	2712.68
438.02	2846.09
438.21	2642.46
438.40	2668.21
438.58	2754.81
438.77	2850.77
438.96	2871.84
439.14	2871.84
439.33	2899.92
439.52	2808.64
439.70	2864.82
439.89	2899.92
440.08	2995.89
440.26	2986.52
440.45	3073.12
440.63	3068.44
440.82	3035.67
441.01	3002.91
441.19	3080.14
441.38	3098.87
441.57	3122.27
441.75	3068.44
441.94	3222.92
442.12	3269.73
442.31	3176.11
442.50	3236.96
442.68	3176.11
442.87	3159.72
443.05	3368.03
443.24	3339.94
443.43	3281.43
443.61	3269.73
443.80	3339.94
443.98	3391.44
444.17	3211.22
444.35	3412.50
444.54	3510.80
444.73	3337.60
444.91	3290.79
445.10	3485.06
445.28	3311.86
445.47	3353.99
445.65	3459.31
445.84	3346.97
446.02	3501.44
446.21	3426.54
446.39	3412.50
446.58	3365.69
446.77	3449.95
446.95	3400.80
447.14	3449.95
447.32	3339.94
447.51	3419.52
447.69	3485.06
447.88	3576.34
448.06	3473.36
448.25	3358.67
448.43	3440.59
448.62	3496.76
448.80	3435.91
448.99	3466.33
449.17	3501.44
449.36	3506.12
449.54	3625.49
449.73	3618.47
449.91	3646.55
450.10	3548.25
450.28	3667.62
450.46	3639.53
450.65	3653.58
450.83	3595.06
451.02	3569.32
451.20	3655.92
451.39	3803.37
451.57	3817.41
451.76	3658.26
451.94	3843.16
452.13	3864.22
452.31	3754.22
452.49	3854.86
452.68	3920.40
452.86	3763.58
453.05	3918.06
453.23	3803.37
453.42	3646.55
453.60	3861.88
453.78	3819.75
453.97	3852.52
454.15	3964.87
454.34	3861.88
454.52	3953.16
454.70	4021.04
454.89	3992.95
455.07	3873.59
455.26	4046.79
455.44	3957.85
455.62	3922.74
455.81	4196.58
455.99	4117.00
456.17	4201.26
456.36	4117.00
456.54	4215.30
456.73	4301.90
456.91	4292.54
457.09	4224.67
457.28	4138.07
457.46	4306.59
457.64	4229.35
457.83	4390.84
458.01	4234.03
458.19	4311.27
458.38	4154.45
458.56	4219.99
458.74	4332.33
458.93	4241.05
459.11	4187.22
459.29	4222.33
459.48	4440.00
459.66	4435.32
459.84	4512.55
460.03	4524.26
460.21	4388.50
460.39	4594.47
460.57	4468.08
460.76	4491.49
460.94	4631.92
461.12	4484.47
461.31	4477.44
461.49	4526.60
461.67	4606.17
461.85	4524.26
462.04	4774.69
462.22	4751.29
462.40	4697.46
462.59	4561.70
462.77	4603.83
462.95	4685.75
463.13	4615.54
463.32	4652.98
463.50	4667.03
463.68	4671.71
463.86	4772.35
464.05	4739.58
464.23	4779.37
464.41	4760.65
464.59	4681.07
464.78	4844.91
464.96	4784.06
465.14	4964.28
465.32	4851.93
465.50	4957.25
465.69	5046.20
465.87	4856.61
466.05	4830.87
466.23	4908.10
466.41	4964.28
466.60	4964.28
466.78	4912.78
466.96	5027.47
467.14	4961.94
467.32	4954.91
467.51	5034.49
467.69	5135.14
467.87	5085.98
468.05	5097.69
468.23	5256.84
468.41	4968.96
468.60	5039.17
468.78	5142.16
468.96	5217.05
469.14	5078.96
469.32	5104.71
469.50	5071.94
469.69	5352.81
469.87	5486.22
470.05	5266.21
470.23	5373.87
470.41	5348.12
470.59	5387.91
470.77	5238.12
470.95	5413.66
471.14	5523.66
471.32	5310.68
471.50	5724.95
471.68	5600.90
471.86	5521.32
472.04	5488.56
472.22	5673.46
472.40	5598.56
472.58	5647.71
472.77	5626.65
472.95	5570.48
473.13	5825.59
473.31	5710.91
473.49	5790.49
473.67	5823.25
473.85	5783.46
474.03	5755.38
474.21	5708.57
474.39	5849.00
474.57	5984.75
474.75	6045.60
474.93	6080.71
475.12	6160.29
475.30	5996.45
475.48	6099.44
475.66	6179.01
475.84	6061.99
476.02	6197.74
476.20	6209.44
476.38	6396.68
476.56	6387.32
476.74	6363.92
476.92	6277.32
477.10	6307.74
477.28	6604.99
477.46	6410.73
477.64	6452.86
477.82	6661.16
478.00	6810.96
478.18	6609.67
478.36	6782.87
478.54	6897.56
478.72	7023.95
478.90	7026.29
479.08	7045.01
479.26	7030.97
479.44	7321.20
479.62	7218.21
479.80	7279.07
479.98	7360.98
480.16	7337.58
480.34	7384.39
480.52	7501.42
480.70	7541.21
480.88	7494.40
481.06	7396.09
481.24	7550.57
481.41	7749.51
481.59	7845.48
481.77	7765.90
481.95	8046.76
482.13	8032.72
482.31	7899.31
482.49	8243.37
482.67	8086.55
482.85	8053.78
483.03	8234.00
483.21	8383.80
483.39	8355.71
483.57	8355.71
483.74	8524.23
483.92	8468.06
484.10	8404.86
484.28	8557.00
484.46	8877.65
484.64	8903.40
484.82	8868.29
485.00	8905.74
485.18	9291.93
485.35	9348.10
485.53	9364.48
485.71	9469.81
485.89	9584.49
486.07	9380.87
486.25	9394.91
486.43	9214.69
486.61	9544.70
486.78	9572.79
486.96	9858.34
487.14	9804.50
487.32	9902.81
487.50	9832.59
487.68	9916.85
487.85	10108.77
488.03	10303.04
488.21	10312.40
488.39	10246.87
488.57	10387.30
488.75	10523.05
488.92	10649.44
489.10	10738.38
489.28	10532.41
489.46	10829.66
489.64	10824.98
489.81	11171.38
489.99	11470.97
490.17	11136.27
490.35	11318.83
490.53	11140.95
490.70	11489.69
490.88	11344.58
491.06	11419.47
491.24	11721.40
491.41	11503.73
491.59	11627.78
491.77	11515.44
491.95	11957.80
492.13	11721.40
492.30	12123.98
492.48	11880.56
492.66	11985.88
492.84	11925.03
493.01	12152.06
493.19	12262.07
493.37	12395.48
493.54	12425.90
493.72	12453.99
493.90	12585.06
494.08	12863.58
494.25	12872.95
494.43	12959.55
494.61	12886.99
494.79	13207.64
494.96	13184.24
495.14	13233.39
495.32	13277.86
495.49	13476.80
495.67	13502.55
495.85	13586.81
496.02	13855.97
496.20	13633.62
496.38	13647.66
496.55	13722.56
496.73	13942.57
496.91	13689.79
497.09	13762.35
497.26	14064.28
497.44	13760.01
497.62	13933.21
497.79	14274.93
497.97	14239.82
498.14	14523.02
498.32	14642.39
498.50	14457.49
498.67	14600.26
498.85	14780.48
499.03	14747.72
499.20	14829.63
499.38	14616.65
499.56	14731.33
499.73	14775.80
499.91	15112.84
500.08	15257.95
500.26	15122.20
500.44	15140.93
500.61	15183.06
500.79	15264.97
500.97	15257.95
501.14	15611.37
501.32	15503.71
501.49	15831.38
501.67	15611.37
501.84	15653.50
502.02	15737.76
502.20	15606.69
502.37	15927.35
502.55	16046.71
502.72	15803.30
502.90	15775.21
503.07	16011.60
503.25	16011.60
503.43	16035.01
503.60	16205.87
503.78	16271.40
503.95	16346.30
504.13	16011.60
504.30	15906.28
504.48	16315.87
504.65	16262.04
504.83	16482.05
505.01	16505.46
505.18	16573.33
505.36	16901.01
505.53	16711.42
505.71	16865.90
505.88	16807.39
506.06	16603.76
506.23	16950.16
506.41	17055.48
506.58	16971.22
506.76	16938.46
506.93	17111.66
507.11	17181.87
507.28	16978.25
507.46	17345.71
507.63	17315.28
507.81	17568.06
507.98	17324.65
508.16	17493.16
508.33	17348.05
508.50	17528.27
508.68	17399.54
508.85	17692.11
509.03	17771.69
509.20	18005.74
509.38	18001.06
509.55	18012.76
509.73	18094.68
509.90	18094.68
510.08	18008.08
510.25	17900.42
510.42	17949.57
510.60	18258.52
510.77	18232.77
510.95	18291.29
511.12	18415.34
511.30	18455.12
511.47	18462.15
511.64	18483.21
511.82	18597.90
511.99	18810.89
512.17	18822.59
512.34	18506.62
512.51	18853.02
512.69	18948.98
512.86	18864.72
513.04	18895.14
513.21	19094.09
513.38	19433.47
513.56	18960.68
513.73	18970.04
513.90	19126.86
514.08	18845.99
514.25	19346.87
514.43	19197.07
514.60	19435.81
514.77	19400.70
514.95	19349.21
515.12	19260.27
515.29	19449.85
515.47	19468.58
515.64	19669.86
515.81	19487.30
515.99	19711.99
516.16	19913.28
516.33	19845.40
516.51	19775.19
516.68	19779.87
516.85	19939.02
517.03	19754.12
517.20	20077.12
517.37	20247.97
517.54	20292.44
517.72	20189.46
517.89	20163.72
518.06	20449.26
518.24	20056.05
518.41	20325.21
518.58	20123.93
518.75	20484.37
518.93	20463.30
519.10	20563.95
519.27	20688.00
519.45	20589.69
519.62	20449.26
519.79	20713.74
519.96	20790.98
520.14	20695.02
520.31	20594.37
520.48	20905.66
520.65	21137.38
520.83	21076.52
521.00	20790.98
521.17	20898.64
521.34	20982.90
521.52	21123.33
521.69	21092.91
521.86	21352.71
522.03	21341.00
522.20	21600.80
522.38	20908.01
522.55	21235.68
522.72	21228.66
522.89	21528.25
523.07	21479.10
523.24	21635.91
523.41	21745.92
523.58	21514.20
523.75	21820.81
523.92	21642.93
524.10	21593.78
524.27	21584.42
524.44	21956.57
524.61	22366.16
524.78	21975.29
524.96	22242.11
525.13	21816.13
525.30	21977.63
525.47	22078.27
525.64	22230.41
525.81	22349.78
525.98	22017.42
526.16	22162.53
526.33	22300.62
526.50	22490.21
526.67	21909.75
526.84	22349.78
527.01	22314.67
527.18	22408.29
527.36	22501.91
527.53	22796.82
527.70	23000.44
527.87	22750.01
528.04	22939.59
528.21	22614.26
528.38	22630.64
528.55	22750.01
528.72	22890.44
528.89	23183.01
529.07	22977.04
529.24	22593.19
529.41	23227.48
529.58	23061.30
529.75	22796.82
529.92	23119.81
530.09	23056.62
530.26	23318.76
530.43	23154.92
530.60	23110.45
530.77	23318.76
530.94	23606.64
531.11	23250.88
531.28	22864.69
531.46	23325.78
531.63	23480.25
531.80	23562.17
531.97	23962.40
532.14	23623.03
532.31	23456.85
532.48	23831.33
532.65	23866.44
532.82	23756.44
532.99	23660.48
533.16	23377.27
533.33	23967.09
533.50	24067.73
533.67	24100.50
533.84	23901.55
534.01	24217.52
534.18	23456.85
534.35	24004.53
534.52	24009.22
534.69	24212.84
534.86	24210.50
535.03	24032.62
535.20	23943.68
535.37	24341.57
535.54	24402.43
535.71	23983.47
535.88	24367.32
536.05	23924.96
536.22	24416.47
536.38	24566.26
536.55	24215.18
536.72	24386.04
536.89	24280.72
537.06	24215.18
537.23	24163.69
537.40	24393.06
537.57	24638.82
537.74	24769.89
537.91	24769.89
538.08	24655.20
538.25	24603.71
538.42	24627.12
538.59	24716.06
538.75	24975.86
538.92	24669.25
539.09	24702.01
539.26	24816.70
539.43	25034.37
539.60	24805.00
539.77	25198.21
539.94	25006.28
540.11	24823.72
540.28	24943.09
540.44	25212.25
540.61	25102.25
540.78	24900.96
540.95	25399.49
541.12	25120.97
541.29	25242.68
541.46	25439.28
541.62	24957.13
541.79	25245.02
541.96	24790.95
542.13	25359.70
542.30	25528.22
542.47	25507.16
542.63	25553.97
542.80	25701.42
542.97	25575.03
543.14	25869.94
543.31	25788.02
543.48	25645.25
543.64	25916.75
543.81	26038.46
543.98	25921.43
544.15	25741.21
544.32	25977.61
544.48	26071.23
544.65	25839.51
544.82	25909.73
544.99	25755.26
545.16	26015.05
545.32	25977.61
545.49	26487.84
545.66	25881.64
545.83	26391.88
546.00	26684.45
546.16	26246.77
546.33	26176.55
546.50	26029.10
546.67	26270.17
546.83	25874.62
547.00	26206.98
547.17	26108.68
547.34	26012.71
547.50	26436.35
547.67	26977.01
547.84	26576.78
548.00	26410.60
548.17	26782.75
548.34	26312.30
548.51	26256.13
548.67	26775.73
548.84	26480.82
549.01	26600.19
549.18	26501.89
549.34	26778.07
549.51	26916.16
549.68	26616.57
549.84	26581.46
550.01	26782.75
550.18	26473.80
550.34	26993.40
550.51	26654.02
550.68	26757.00
550.84	26705.51
551.01	26909.14
551.18	26787.43
551.34	26759.34
551.51	26810.84
551.68	26883.39
551.84	27000.42
552.01	26930.20
552.18	27168.94
552.34	27639.39
552.51	27182.98
552.68	26820.20
552.84	27330.44
553.01	27623.00
553.18	27381.93
553.34	27372.57
553.51	27447.46
553.67	27262.56
553.84	27370.22
554.01	27349.16
554.17	27410.01
554.34	27288.31
554.51	27639.39
554.67	27267.24
554.84	27807.90
555.00	27321.07
555.17	27232.13
555.33	27718.96
555.50	27290.65
555.67	27405.33
555.83	27545.76
556.00	27405.33
556.16	27576.19
556.33	27672.15
556.50	27700.24
556.66	27702.58
556.83	27922.59
556.99	27915.57
557.16	28297.08
557.32	28151.96
557.49	27889.82
557.65	27325.75
557.82	27648.75
557.98	27946.00
558.15	27819.61
558.32	27868.76
558.48	27510.66
558.65	28013.87
558.81	28011.53
558.98	28081.75
559.14	27938.97
559.31	27941.32
559.47	28041.96
559.64	28147.28
559.80	28098.13
559.97	28238.56
560.13	28168.35
560.30	28233.88
560.46	27742.37
560.63	28102.81
560.79	28245.58
560.96	27667.47
561.12	28170.69
561.29	28154.30
561.45	28472.62
561.61	28107.49
561.78	28245.58
561.94	28093.45
562.11	28409.42
562.27	28238.56
562.44	28088.77
562.60	27924.93
562.77	28449.21
562.93	28191.75
563.10	28568.58
563.26	27957.70
563.42	28285.37
563.59	28067.70
563.75	28301.76
563.92	28458.57
564.08	28067.70
564.24	28407.08
564.41	28121.54
564.57	28505.38
564.74	28158.99
564.90	28629.43
565.07	28545.17
565.23	28514.75
565.39	28589.64
565.56	28257.29
565.72	28481.98
565.88	28226.86
566.05	28276.01
566.21	28369.63
566.38	28456.23
566.54	28594.32
566.70	28641.14
566.87	28783.91
567.03	28374.31
567.19	28400.06
567.36	28929.02
567.52	28552.20
567.68	28989.88
567.85	28641.14
568.01	28547.51
568.17	28615.39
568.34	28360.27
568.50	29134.99
568.66	28811.99
568.83	28477.30
568.99	28723.05
569.15	28734.76
569.32	28517.09
569.48	28486.66
569.64	28606.03
569.81	28940.72
569.97	28643.48
570.13	28622.41
570.30	28781.57
570.46	29137.33
570.62	28741.78
570.78	28500.70
570.95	28320.48
571.11	28683.27
571.27	28369.63
571.43	28657.52
571.60	28814.34
571.76	28254.95
571.92	28739.44
572.09	29123.29
572.25	29003.92
572.41	28655.18
572.57	28844.76
572.74	29160.73
572.90	28474.96
573.06	28680.92
573.22	28386.02
573.38	28758.16
573.55	29249.67
573.71	28905.62
573.87	29123.29
574.03	28643.48
574.20	29039.03
574.36	28922.00
574.52	28723.05
574.68	28762.84
574.84	28973.49
575.01	29099.88
575.17	29050.73
575.33	28985.19
575.49	28945.41
575.65	28788.59
575.82	29123.29
575.98	28608.37
576.14	28877.53
576.30	28748.80
576.46	28662.20
576.62	28982.85
576.79	29069.45
576.95	29092.86
577.11	28559.22
577.27	28711.35
577.43	29050.73
577.59	28741.78
577.75	28936.04
577.92	28900.94
578.08	29167.76
578.24	28968.81
578.40	28423.47
578.56	29092.86
578.72	28882.21
578.88	29565.65
579.04	29221.59
579.21	29474.37
579.37	29013.28
579.53	29460.32
579.69	28678.58
579.85	28875.19
580.01	29099.88
580.17	28922.00
580.33	28826.04
580.49	29085.84
580.65	29270.74
580.82	29390.11
580.98	29055.41
581.14	29219.25
581.30	29259.04
581.46	28910.30
581.62	29289.46
581.78	28842.42
581.94	28807.31
582.10	28807.31
582.26	29074.13
582.42	29109.24
582.58	29338.62
582.74	29441.60
582.90	29244.99
583.06	29537.56
583.22	29429.90
583.38	29125.63
583.54	28835.40
583.70	29359.68
583.86	29008.60
584.02	28919.66
584.18	29465.00
584.34	29443.94
584.50	29371.38
584.66	29048.39
584.82	28936.04
584.98	29095.20
585.14	29106.90
585.30	29088.18
585.46	28945.41
585.62	28783.91
585.78	28985.19
585.94	29020.30
586.10	28968.81
586.26	29172.44
586.42	29418.19
586.58	29200.52
586.74	29567.99
586.90	29078.82
587.06	29104.56
587.22	29427.56
587.38	29158.39
587.54	29340.96
587.70	29212.23
587.86	29319.89
588.02	29624.16
588.18	29467.34
588.34	29642.88
588.49	29539.90
588.65	29202.86
588.81	29429.90
588.97	28978.17
589.13	29216.91
589.29	29331.59
589.45	29558.63
589.61	29340.96
589.77	29682.67
589.93	29673.31
590.08	29649.91
590.24	29504.79
590.40	29544.58
590.56	29399.47
590.72	29270.74
590.88	29186.48
591.04	29219.25
591.20	29879.28
591.35	29546.92
591.51	29982.26
591.67	29699.06
591.83	30003.33
591.99	29771.61
