SpectraSuite Data File
++++++++++++++++++++++++++++++++++++
Date: Fri Oct 18 13:57:53 GMT-05:00 2013
User: bianchi
Dark Spectrum Present: No
Reference Spectrum Present: No
Number of Sampled Component Spectra: 1
Spectrometers: USB2+H05261
Integration Time (usec): 50000 (USB2+H05261)
Spectra Averaged: 1 (USB2+H05261)
Boxcar Smoothing: 0 (USB2+H05261)
Correct for Electrical Dark: No (USB2+H05261)
Strobe/Lamp Enabled: No (USB2+H05261)
Correct for Detector Non-linearity: No (USB2+H05261)
Correct for Stray Light: No (USB2+H05261)
Number of Pixels in Processed Spectrum: 2048
>>>>>Begin Processed Spectral Data<<<<<
365.73	0.00
365.92	0.00
366.12	0.00
366.32	0.00
366.52	0.00
366.72	0.00
366.91	0.00
367.11	0.00
367.31	0.00
367.51	0.00
367.70	0.00
367.90	0.00
368.10	0.00
368.30	0.00
368.49	0.00
368.69	0.00
368.89	0.00
369.09	0.00
369.28	0.00
369.48	0.00
369.68	0.00
369.87	0.00
370.07	0.00
370.27	0.00
370.47	0.00
370.66	84.26
370.86	51.49
371.06	170.86
371.25	131.07
371.45	117.03
371.65	154.48
371.84	187.24
372.04	198.95
372.24	175.54
372.44	159.16
372.63	229.37
372.83	245.76
373.03	245.76
373.22	145.11
373.42	248.10
373.62	248.10
373.81	236.39
374.01	201.29
374.21	194.26
374.40	205.97
374.60	234.05
374.79	208.31
374.99	203.63
375.19	231.71
375.38	215.33
375.58	224.69
375.78	243.42
375.97	322.99
376.17	294.91
376.37	266.82
376.56	294.91
376.76	287.89
376.95	264.48
377.15	290.23
377.35	222.35
377.54	358.10
377.74	266.82
377.93	248.10
378.13	175.54
378.33	287.89
378.52	320.65
378.72	318.31
378.91	238.73
379.11	238.73
379.31	327.68
379.50	334.70
379.70	308.95
379.89	255.12
380.09	301.93
380.28	299.59
380.48	315.97
380.68	318.31
380.87	306.61
381.07	360.44
381.26	320.65
381.46	308.95
381.65	379.17
381.85	285.55
382.04	252.78
382.24	348.74
382.43	404.91
382.63	449.38
382.83	229.37
383.02	447.04
383.22	358.10
383.41	351.08
383.61	367.46
383.80	386.19
384.00	320.65
384.19	425.98
384.39	386.19
384.58	360.44
384.78	451.72
384.97	351.08
385.17	315.97
385.36	454.06
385.56	318.31
385.75	306.61
385.95	400.23
386.14	411.93
386.34	433.00
386.53	365.12
386.72	409.59
386.92	447.04
387.11	482.15
387.31	456.40
387.50	449.38
387.70	414.27
387.89	458.74
388.09	423.64
388.28	559.39
388.48	451.72
388.67	496.19
388.86	498.53
389.06	475.13
389.25	482.15
389.45	500.87
389.64	468.11
389.84	526.62
390.03	524.28
390.22	528.96
390.42	465.77
390.61	456.40
390.81	477.47
391.00	507.90
391.19	486.83
391.39	472.79
391.58	491.51
391.78	477.47
391.97	557.05
392.16	547.69
392.36	543.00
392.55	512.58
392.75	561.73
392.94	578.11
393.13	561.73
393.33	627.26
393.52	554.71
393.71	535.98
393.91	528.96
394.10	580.45
394.29	608.54
394.49	543.00
394.68	557.05
394.88	559.39
395.07	531.30
395.26	601.52
395.46	545.34
395.65	662.37
395.84	636.63
396.04	741.95
396.23	664.71
396.42	613.22
396.62	669.39
396.81	667.05
397.00	657.69
397.19	674.07
397.39	669.39
397.58	702.16
397.77	716.20
397.97	699.82
398.16	697.48
398.35	720.88
398.55	723.23
398.74	741.95
398.93	755.99
399.12	751.31
399.32	758.33
399.51	697.48
399.70	828.55
399.90	807.48
400.09	807.48
400.28	807.48
400.47	847.27
400.67	786.42
400.86	816.85
401.05	816.85
401.24	835.57
401.44	779.40
401.63	826.21
401.82	795.78
402.01	758.33
402.21	823.87
402.40	866.00
402.59	826.21
402.78	805.14
402.97	866.00
403.17	898.77
403.36	847.27
403.55	926.85
403.74	894.08
403.93	915.15
404.13	873.02
404.32	910.47
404.51	840.25
404.70	898.77
404.89	1004.09
405.09	952.60
405.28	954.94
405.47	901.11
405.66	1001.75
405.85	1095.37
406.05	880.04
406.24	1039.20
406.43	1100.05
406.62	1050.90
406.81	1097.71
407.00	1048.56
407.20	990.05
407.39	990.05
407.58	1013.45
407.77	1142.18
407.96	1104.73
408.15	1132.82
408.34	1135.16
408.54	1097.71
408.73	1067.28
408.92	1226.44
409.11	1064.94
409.30	1149.20
409.49	1139.84
409.68	1111.75
409.87	1125.80
410.07	1165.59
410.26	1188.99
410.45	1165.59
410.64	1238.14
410.83	1198.35
411.02	1153.88
411.21	1338.79
411.40	1252.19
411.59	1240.48
411.78	1289.64
411.98	1270.91
412.17	1198.35
412.36	1329.42
412.55	1404.32
412.74	1411.34
412.93	1371.55
413.12	1352.83
413.31	1446.45
413.50	1420.71
413.69	1380.92
413.88	1465.18
414.07	1502.62
414.26	1497.94
414.45	1507.30
414.64	1500.28
414.83	1572.84
415.02	1547.09
415.22	1570.50
415.41	1526.03
415.60	1614.97
415.79	1509.65
415.98	1598.59
416.17	1678.16
416.36	1568.16
416.55	1542.41
416.74	1563.48
416.93	1624.33
417.12	1657.10
417.31	1727.32
417.50	1732.00
417.69	1858.39
417.88	1774.13
418.07	1619.65
418.26	1724.97
418.45	1764.76
418.64	1746.04
418.83	1811.57
419.02	1734.34
419.21	1839.66
419.39	1874.77
419.58	1877.11
419.77	1961.37
419.96	1884.13
420.15	1881.79
420.34	1886.47
420.53	1966.05
420.72	1877.11
420.91	1952.01
421.10	2001.16
421.29	1989.46
421.48	1888.81
421.67	2005.84
421.86	1998.82
422.05	2024.56
422.24	1982.43
422.43	1977.75
422.61	1935.62
422.80	2078.40
422.99	2022.22
423.18	1949.67
423.37	2015.20
423.56	2115.84
423.75	2057.33
423.94	2015.20
424.13	1989.46
424.32	1919.24
424.50	2010.52
424.69	2108.82
424.88	2059.67
425.07	1949.67
425.26	1973.07
425.45	2157.97
425.64	2001.16
425.83	2136.91
426.01	2115.84
426.20	2111.16
426.39	2090.10
426.58	2069.03
426.77	2143.93
426.96	2113.50
427.15	1998.82
427.33	2104.14
427.52	2258.62
427.71	2129.89
427.90	2101.80
428.09	2181.38
428.28	2176.70
428.46	2179.04
428.65	2153.29
428.84	2251.60
429.03	2408.41
429.22	2228.19
429.40	2265.64
429.59	2270.32
429.78	2183.72
429.97	2160.31
430.16	2188.40
430.34	2434.16
430.53	2401.39
430.72	2366.28
430.91	2352.24
431.10	2382.67
431.28	2373.30
431.47	2473.95
431.66	2354.58
431.85	2406.07
432.03	2443.52
432.22	2487.99
432.41	2590.97
432.60	2560.55
432.79	2480.97
432.97	2548.84
433.16	2471.61
433.35	2560.55
433.54	2544.16
433.72	2558.21
433.91	2464.58
434.10	2546.50
434.28	2548.84
434.47	2443.52
434.66	2473.95
434.85	2602.68
435.03	2705.66
435.22	2516.08
435.41	2630.76
435.59	2544.16
435.78	2752.47
435.97	2640.12
436.16	2586.29
436.34	2656.51
436.53	2825.03
436.72	2689.28
436.90	2668.21
437.09	2780.56
437.28	2731.41
437.46	2832.05
437.65	2782.90
437.84	2801.62
438.02	2864.82
438.21	2775.88
438.40	2885.88
438.58	2979.50
438.77	3012.27
438.96	2778.22
439.14	3005.25
439.33	2939.71
439.52	2984.18
439.70	2885.88
439.89	3016.95
440.08	3082.49
440.26	2951.42
440.45	3070.78
440.63	3108.23
440.82	3070.78
441.01	3131.64
441.19	3145.68
441.38	3143.34
441.57	3197.17
441.75	3239.30
441.94	3255.69
442.12	3370.37
442.31	3548.25
442.50	3452.29
442.68	3356.33
442.87	3384.41
443.05	3466.33
443.24	3304.84
443.43	3339.94
443.61	3421.86
443.80	3538.89
443.98	3522.51
444.17	3307.18
444.35	3588.04
444.54	3583.36
444.73	3466.33
444.91	3475.70
445.10	3639.53
445.28	3602.08
445.47	3648.90
445.65	3496.76
445.84	3534.21
446.02	3595.06
446.21	3674.64
446.39	3503.78
446.58	3648.90
446.77	3524.85
446.95	3543.57
447.14	3513.14
447.32	3602.08
447.51	3447.61
447.69	3515.48
447.88	3548.25
448.06	3585.70
448.25	3548.25
448.43	3602.08
448.62	3485.06
448.80	3543.57
448.99	3611.45
449.17	3592.72
449.36	3669.96
449.54	3630.17
449.73	3763.58
449.91	3709.75
450.10	3761.24
450.28	3789.33
450.46	3611.45
450.65	3805.71
450.83	3819.75
451.02	3826.78
451.20	3765.92
451.39	3803.37
451.57	3714.43
451.76	3742.52
451.94	3946.14
452.13	3978.91
452.31	3871.25
452.49	3679.32
452.68	4014.02
452.86	3829.12
453.05	3920.40
453.23	4011.68
453.42	3906.35
453.60	3896.99
453.78	3936.78
453.97	3969.55
454.15	4166.15
454.34	3894.65
454.52	3997.64
454.70	4095.94
454.89	4065.51
455.07	4030.40
455.26	4163.81
455.44	4119.34
455.62	4163.81
455.81	4102.96
455.99	4241.05
456.17	4067.85
456.36	4140.41
456.54	4339.35
456.73	4332.33
456.91	4299.56
457.09	4482.13
457.28	4449.36
457.46	4259.78
457.64	4393.19
457.83	4376.80
458.01	4451.70
458.19	4524.26
458.38	4606.17
458.56	4507.87
458.74	4561.70
458.93	4418.93
459.11	4369.78
459.29	4540.64
459.48	4692.77
459.66	4608.51
459.84	4615.54
460.03	4676.39
460.21	4592.13
460.39	4550.00
460.57	4585.11
460.76	4664.69
460.94	4802.78
461.12	4690.43
461.31	4594.47
461.49	4650.64
461.67	4674.05
461.85	4784.06
462.04	4807.46
462.22	5097.69
462.40	4781.71
462.59	4884.70
462.77	4791.08
462.95	5036.83
463.13	4744.27
463.32	4800.44
463.50	4870.65
463.68	4837.89
463.86	4863.63
464.05	4812.14
464.23	4833.21
464.41	4936.19
464.59	4802.78
464.78	5088.32
464.96	5022.79
465.14	4936.19
465.32	5008.75
465.50	5027.47
465.69	5135.14
465.87	4990.02
466.05	5116.41
466.23	5032.15
466.41	5167.90
466.60	5345.78
466.78	5067.26
466.96	5156.20
467.14	5247.48
467.32	5425.36
467.51	5195.99
467.69	5200.67
467.87	5214.71
468.05	5240.46
468.23	5193.65
468.41	5081.30
468.60	5343.44
468.78	5338.76
468.96	5144.50
469.14	5313.02
469.32	5530.69
469.50	5420.68
469.69	5350.46
469.87	5593.88
470.05	5603.24
470.23	5617.29
470.41	5493.24
470.59	5596.22
470.77	5486.22
470.95	5516.64
471.14	5692.18
471.32	5767.08
471.50	5694.52
471.68	5547.07
471.86	5638.35
472.04	5699.20
472.22	5930.92
472.40	5806.87
472.58	5930.92
472.77	5816.23
472.95	5813.89
473.13	6045.60
473.31	5977.73
473.49	5961.34
473.67	5954.32
473.85	6113.48
474.03	6169.65
474.21	6026.88
474.39	6190.72
474.57	6092.41
474.75	6221.14
474.93	6314.77
475.12	6321.79
475.30	6312.42
475.48	6434.13
475.66	6319.45
475.84	6422.43
476.02	6576.91
476.20	6246.89
476.38	6581.59
476.56	6712.66
476.74	6693.93
476.92	6686.91
477.10	6656.48
477.28	6698.61
477.46	6808.62
477.64	6832.02
477.82	6925.65
478.00	7080.12
478.18	7056.72
478.36	7126.93
478.54	7222.89
478.72	6995.86
478.90	7190.13
479.08	7588.02
479.26	7440.56
479.44	7351.62
479.62	7311.83
479.80	7585.68
479.98	7627.81
480.16	7639.51
480.34	7707.38
480.52	7864.20
480.70	7686.32
480.88	7805.69
481.06	7831.43
481.24	7866.54
481.41	8109.96
481.59	7990.59
481.77	8051.44
481.95	8102.93
482.13	8077.19
482.31	8238.69
482.49	8329.97
482.67	8306.56
482.85	8404.86
483.03	8564.02
483.21	8676.37
483.39	8741.90
483.57	8802.75
483.74	8865.95
483.92	9022.77
484.10	8746.58
484.28	8891.70
484.46	9146.81
484.64	9249.80
484.82	8999.36
485.00	9198.31
485.18	9607.90
485.35	9352.78
485.53	9460.45
485.71	9701.52
485.89	9893.44
486.07	9685.14
486.25	9933.23
486.43	9851.31
486.61	9830.25
486.78	10125.16
486.96	10148.56
487.14	10307.72
487.32	10289.00
487.50	10190.69
487.68	10321.76
487.85	10546.45
488.03	10684.55
488.21	10675.18
488.39	10623.69
488.57	10942.00
488.75	10841.36
488.92	11000.52
489.10	11110.52
489.28	11309.47
489.46	11180.74
489.64	11531.82
489.81	11386.71
489.99	11566.93
490.17	11356.28
490.35	11559.91
490.53	11623.10
490.70	11880.56
490.88	11962.48
491.06	12224.62
491.24	11805.66
491.41	12056.10
491.59	12138.02
491.77	12315.90
491.95	12379.09
492.13	12327.60
492.30	12510.16
492.48	12355.69
492.66	12634.21
492.84	12732.51
493.01	13125.72
493.19	12725.49
493.37	12765.28
493.54	12926.78
493.72	13118.70
493.90	13011.04
494.08	13312.97
494.25	13144.45
494.43	13483.83
494.61	13572.77
494.79	13652.34
494.96	13537.66
495.14	13668.73
495.32	13858.31
495.49	13905.12
495.67	13727.24
495.85	14022.15
496.02	14132.15
496.20	14174.28
496.38	14258.54
496.55	14054.92
496.73	14410.68
496.91	14480.89
497.09	14663.46
497.26	14654.09
497.44	14705.59
497.62	14656.43
497.79	14927.94
497.97	14686.86
498.14	14946.66
498.32	15056.67
498.50	14972.41
498.67	15192.42
498.85	15229.87
499.03	15370.30
499.20	15396.04
499.38	15477.96
499.56	15342.21
499.73	15676.91
499.91	15772.87
500.08	15557.54
500.26	15726.06
500.44	15763.51
500.61	15854.79
500.79	15653.50
500.97	16013.95
501.14	16107.57
501.32	16109.91
501.49	15946.07
501.67	16194.17
501.84	16313.53
502.02	16147.36
502.20	16121.61
502.37	16655.25
502.55	16388.43
502.72	16369.71
502.90	16493.76
503.07	16533.54
503.25	16505.46
503.43	16601.42
503.60	17053.14
503.78	16856.54
503.95	16912.71
504.13	16842.50
504.30	16828.45
504.48	16952.50
504.65	16891.65
504.83	17273.15
505.01	17500.19
505.18	17369.12
505.36	17570.40
505.53	17275.49
505.71	17216.98
505.88	17362.09
506.06	17186.55
506.23	17645.30
506.41	17675.73
506.58	17804.46
506.76	17715.51
506.93	17837.22
507.11	17823.18
507.28	17860.63
507.46	18036.17
507.63	17912.12
507.81	18106.38
507.98	17928.50
508.16	17989.36
508.33	18050.21
508.50	18335.76
508.68	18064.25
508.85	18499.59
509.03	18349.80
509.20	18520.66
509.38	18586.19
509.55	18607.26
509.73	18757.05
509.90	19000.47
510.08	18693.86
510.25	18984.09
510.42	19049.62
510.60	19094.09
510.77	18958.34
510.95	19058.98
511.12	19098.77
511.30	19220.48
511.47	18820.25
511.64	19183.03
511.82	19449.85
511.99	19295.38
512.17	19300.06
512.34	19199.41
512.51	19726.04
512.69	19283.67
512.86	19456.87
513.04	19974.13
513.21	19707.31
513.38	20166.06
513.56	19665.18
513.73	19896.89
513.90	19880.51
514.08	19578.58
514.25	20081.80
514.43	20030.30
514.60	20013.92
514.77	20264.36
514.95	20250.32
515.12	20357.98
515.29	20514.80
515.47	20463.30
515.64	20322.87
515.81	20203.50
515.99	20486.71
516.16	20783.96
516.33	20774.60
516.51	20624.80
516.68	20580.33
516.85	20568.63
517.03	20669.27
517.20	20964.18
517.37	21050.78
517.54	21032.05
517.72	20964.18
517.89	20783.96
518.06	21294.19
518.24	21256.75
518.41	20982.90
518.58	21301.22
518.75	21228.66
518.93	21380.79
519.10	21558.67
519.27	21603.14
519.45	20926.73
519.62	21294.19
519.79	21350.37
519.96	21434.63
520.14	21303.56
520.31	21736.56
520.48	21776.34
520.65	21502.50
520.83	21979.97
521.00	21823.16
521.17	21647.61
521.34	21757.62
521.52	21762.30
521.69	22235.09
521.86	21982.31
522.03	22104.02
522.20	22352.12
522.38	22471.48
522.55	22452.76
522.72	22373.18
522.89	22438.72
523.07	22216.36
523.24	22427.01
523.41	22527.66
523.58	22637.66
523.75	22614.26
523.92	22544.04
524.10	22520.63
524.27	22637.66
524.44	22918.53
524.61	22740.64
524.78	22696.17
524.96	23026.19
525.13	23108.11
525.30	23061.30
525.47	23150.24
525.64	23264.92
525.81	23023.85
525.98	23173.64
526.16	23122.15
526.33	22981.72
526.50	23201.73
526.67	23201.73
526.84	23335.14
527.01	23386.63
527.18	23674.52
527.36	23293.01
527.53	23550.47
527.70	23969.43
527.87	23931.98
528.04	23576.22
528.21	23721.33
528.38	23838.36
528.55	23669.84
528.72	23758.78
528.89	23754.10
529.07	23508.34
529.24	23901.55
529.41	23861.76
529.58	23922.62
529.75	24056.03
529.92	24121.56
530.09	24086.45
530.26	24016.24
530.43	24102.84
530.60	24189.44
530.77	24208.16
530.94	24563.92
531.11	24390.72
531.28	24374.34
531.46	24130.92
531.63	24362.64
531.80	24950.11
531.97	24393.06
532.14	24533.50
532.31	24339.23
532.48	24372.00
532.65	24411.79
532.82	24526.47
532.99	24821.38
533.16	24744.14
533.33	24800.32
533.50	24980.54
533.67	24987.56
533.84	24648.18
534.01	24872.87
534.18	24568.60
534.35	25137.35
534.52	24802.66
534.69	25195.87
534.86	25663.97
535.03	24971.18
535.20	25593.76
535.37	25331.62
535.54	25619.50
535.71	24762.87
535.88	25228.63
536.05	25280.13
536.22	25575.03
536.38	25734.19
536.55	25600.78
536.72	25383.11
536.89	25144.38
537.06	25364.39
537.23	25799.73
537.40	25645.25
537.57	25556.31
537.74	25366.73
537.91	26094.63
538.08	25926.11
538.25	25661.63
538.42	25841.85
538.59	25745.89
538.75	25544.61
538.92	25820.79
539.09	25986.97
539.26	25965.90
539.43	26087.61
539.60	26045.48
539.77	26059.52
539.94	26309.96
540.11	26195.28
540.28	26122.72
540.44	25984.63
540.61	26263.15
540.78	25982.29
540.95	26429.33
541.12	26127.40
541.29	26333.37
541.46	26675.09
541.62	26302.94
541.79	26120.38
541.96	25991.65
542.13	26703.17
542.30	26888.07
542.47	26757.00
542.63	26703.17
542.80	26731.26
542.97	26721.90
543.14	26623.59
543.31	26560.40
543.48	26939.57
543.64	27267.24
543.81	27129.15
543.98	27227.45
544.15	27346.82
544.32	27016.80
544.48	27328.10
544.65	27168.94
544.82	26913.82
544.99	26920.84
545.16	27129.15
545.32	26714.87
545.49	27487.25
545.66	27749.39
545.83	27758.75
546.00	27363.20
546.16	27267.24
546.33	27330.44
546.50	27194.68
546.67	27372.57
546.83	27000.42
547.00	27283.62
547.17	27175.96
547.34	27449.80
547.50	27882.80
547.67	27936.63
547.84	27569.17
548.00	27922.59
548.17	27920.25
548.34	27887.48
548.51	27910.89
548.67	27517.68
548.84	27740.03
549.01	27763.43
549.18	27938.97
549.34	27604.28
549.51	27681.52
549.68	27807.90
549.84	27761.09
550.01	27967.06
550.18	27866.42
550.34	28044.30
550.51	28074.73
550.68	28264.31
550.84	27985.79
551.01	28336.87
551.18	28011.53
551.34	27850.03
551.51	28025.57
551.68	28254.95
551.84	28460.91
552.01	28334.53
552.18	28456.23
552.34	28301.76
552.51	28306.44
552.68	28168.35
552.84	28676.24
553.01	28444.53
553.18	28376.66
553.34	28491.34
553.51	28250.27
553.67	28472.62
553.84	28819.02
554.01	28699.65
554.17	28622.41
554.34	28271.33
554.51	28713.69
554.67	28507.72
554.84	28531.13
555.00	28849.44
555.17	28643.48
555.33	28844.76
555.50	28776.89
555.67	28594.32
555.83	28807.31
556.00	28819.02
556.16	29223.93
556.33	28535.81
556.50	28767.52
556.66	29186.48
556.83	29099.88
556.99	28936.04
557.16	29514.16
557.32	28884.55
557.49	28945.41
557.65	28903.28
557.82	29001.58
557.98	29144.35
558.15	29036.69
558.32	29055.41
558.48	29259.04
558.65	29399.47
558.81	29404.15
558.98	28907.96
559.14	29497.77
559.31	28856.46
559.47	29366.70
559.64	29689.70
559.80	29355.00
559.97	29301.17
560.13	29818.42
560.30	29476.71
560.46	29352.66
560.63	29359.68
560.79	29577.35
560.96	29649.91
561.12	29757.57
561.29	29099.88
561.45	29537.56
561.61	29249.67
561.78	29399.47
561.94	29614.80
562.11	29766.93
562.27	29408.83
562.44	29261.38
562.60	29656.93
562.77	29427.56
562.93	29436.92
563.10	30047.80
563.26	29666.29
563.42	29935.45
563.59	29556.28
563.75	29991.62
563.92	29460.32
564.08	29621.82
564.24	29577.35
564.41	29362.02
564.57	29612.46
564.74	29675.65
564.90	29689.70
565.07	29542.24
565.23	29759.91
565.39	29809.06
565.56	29923.75
565.72	29453.30
565.88	29745.87
566.05	29867.58
566.21	29902.68
566.38	29832.47
566.54	30029.07
566.70	29530.54
566.87	30235.04
567.03	30263.13
567.19	29862.90
567.36	29905.02
567.52	30382.49
567.68	30094.61
567.85	29944.81
568.01	29759.91
568.17	29549.26
568.34	29713.10
568.50	30136.74
568.66	30092.27
568.83	30195.25
568.99	30202.27
569.15	29764.59
569.32	30213.98
569.48	29951.84
569.64	29940.13
569.81	30178.87
569.97	30129.72
570.13	30190.57
570.30	30085.25
570.46	30319.30
570.62	30110.99
570.78	30263.13
570.95	30003.33
571.11	30319.30
571.27	29970.56
571.43	29521.18
571.60	30232.70
571.76	30331.00
571.92	30267.81
572.09	29898.00
572.25	30466.75
572.41	29802.04
572.57	30242.06
572.74	30394.20
572.90	30101.63
573.06	29846.51
573.22	30239.72
573.38	30082.91
573.55	30522.93
573.71	30593.14
573.87	30707.83
574.03	30745.28
574.20	30555.69
574.36	30029.07
574.52	30508.88
574.68	30380.15
574.84	30178.87
575.01	30274.83
575.17	30925.50
575.33	30459.73
575.49	30155.46
575.65	30476.12
575.82	30609.53
575.98	30443.35
576.14	30714.85
576.30	30464.41
576.46	30471.43
576.62	30232.70
576.79	30623.57
576.95	30401.22
577.11	30403.56
577.27	30202.27
577.43	30263.13
577.59	30342.70
577.75	30284.19
577.92	30293.55
578.08	30174.19
578.24	30228.02
578.40	30375.47
578.56	30424.62
578.72	30654.00
578.88	30703.15
579.04	30897.41
579.21	30312.28
579.37	30361.43
579.53	31044.87
579.69	30424.62
579.85	30221.00
580.01	30742.94
580.17	30508.88
580.33	30349.73
580.49	30862.30
580.65	30590.80
580.82	30953.58
580.98	30618.89
581.14	30604.84
581.30	30579.10
581.46	30148.44
581.62	30448.03
581.78	30555.69
581.94	30529.95
582.10	30347.39
582.26	30726.55
582.42	30618.89
582.58	30663.36
582.74	30813.15
582.90	30890.39
583.06	30448.03
583.22	30616.55
583.38	30618.89
583.54	30403.56
583.70	30473.78
583.86	30061.84
584.02	30532.29
584.18	30714.85
584.34	30771.02
584.50	30881.03
584.66	30820.17
584.82	30504.20
584.98	30717.19
585.14	30607.19
585.30	30307.60
585.46	30309.94
585.62	30368.45
585.78	30827.20
585.94	30541.65
586.10	31386.58
586.26	30944.22
586.42	30424.62
586.58	30857.62
586.74	30740.60
586.90	30405.90
587.06	30527.61
587.22	30527.61
587.38	30354.41
587.54	31182.96
587.70	31157.21
587.86	30939.54
588.02	31140.83
588.18	30602.50
588.34	31035.50
588.49	30845.92
588.65	30764.00
588.81	30672.72
588.97	30920.82
589.13	30696.13
589.29	31089.34
589.45	30787.41
589.61	30749.96
589.77	31124.44
589.93	31442.76
590.08	30965.29
590.24	31016.78
590.40	31274.24
590.56	31356.16
590.72	31035.50
590.88	30555.69
591.04	30927.84
591.20	31051.89
591.35	30859.96
591.51	31723.62
591.67	31192.32
591.83	31187.64
