SpectraSuite Data File
++++++++++++++++++++++++++++++++++++
Date: Fri Oct 18 13:58:25 GMT-05:00 2013
User: bianchi
Dark Spectrum Present: No
Reference Spectrum Present: No
Number of Sampled Component Spectra: 1
Spectrometers: USB2+H05261
Integration Time (usec): 50000 (USB2+H05261)
Spectra Averaged: 1 (USB2+H05261)
Boxcar Smoothing: 0 (USB2+H05261)
Correct for Electrical Dark: No (USB2+H05261)
Strobe/Lamp Enabled: No (USB2+H05261)
Correct for Detector Non-linearity: No (USB2+H05261)
Correct for Stray Light: No (USB2+H05261)
Number of Pixels in Processed Spectrum: 2048
>>>>>Begin Processed Spectral Data<<<<<
365.73	0.00
365.92	0.00
366.12	0.00
366.32	0.00
366.52	0.00
366.72	0.00
366.91	0.00
367.11	0.00
367.31	0.00
367.51	0.00
367.70	0.00
367.90	0.00
368.10	0.00
368.30	0.00
368.49	0.00
368.69	0.00
368.89	0.00
369.09	0.00
369.28	0.00
369.48	0.00
369.68	0.00
369.87	0.00
370.07	0.00
370.27	0.00
370.47	0.00
370.66	91.28
370.86	191.92
371.06	119.37
371.25	107.66
371.45	163.84
371.65	93.62
371.84	175.54
372.04	217.67
372.24	93.62
372.44	191.92
372.63	152.13
372.83	203.63
373.03	196.60
373.22	138.09
373.42	234.05
373.62	215.33
373.81	234.05
374.01	203.63
374.21	264.48
374.40	203.63
374.60	229.37
374.79	201.29
374.99	306.61
375.19	290.23
375.38	306.61
375.58	259.80
375.78	376.83
375.97	238.73
376.17	276.18
376.37	252.78
376.56	269.16
376.76	220.01
376.95	257.46
377.15	269.16
377.35	217.67
377.54	344.06
377.74	325.33
377.93	173.20
378.13	287.89
378.33	294.91
378.52	304.27
378.72	278.52
378.91	290.23
379.11	245.76
379.31	245.76
379.50	248.10
379.70	241.08
379.89	322.99
380.09	287.89
380.28	325.33
380.48	346.40
380.68	229.37
380.87	318.31
381.07	315.97
381.26	285.55
381.46	304.27
381.65	407.25
381.85	351.08
382.04	404.91
382.24	297.25
382.43	248.10
382.63	367.46
382.83	365.12
383.02	390.87
383.22	318.31
383.41	346.40
383.61	320.65
383.80	355.76
384.00	390.87
384.19	330.02
384.39	355.76
384.58	311.29
384.78	339.38
384.97	433.00
385.17	294.91
385.36	374.49
385.56	334.70
385.75	376.83
385.95	400.23
386.14	465.77
386.34	358.10
386.53	381.51
386.72	287.89
386.92	428.32
387.11	491.51
387.31	404.91
387.50	386.19
387.70	425.98
387.89	451.72
388.09	461.09
388.28	411.93
388.48	440.02
388.67	500.87
388.86	496.19
389.06	416.62
389.25	519.60
389.45	421.30
389.64	484.49
389.84	472.79
390.03	454.06
390.22	470.45
390.42	484.49
390.61	479.81
390.81	500.87
391.00	510.24
391.19	514.92
391.39	519.60
391.58	437.68
391.78	505.56
391.97	543.00
392.16	458.74
392.36	510.24
392.55	568.75
392.75	554.71
392.94	538.32
393.13	510.24
393.33	564.07
393.52	568.75
393.71	514.92
393.91	557.05
394.10	596.84
394.29	617.90
394.49	524.28
394.68	599.18
394.88	566.41
395.07	514.92
395.26	617.90
395.46	627.26
395.65	613.22
395.84	631.94
396.04	667.05
396.23	655.35
396.42	594.50
396.62	620.24
396.81	620.24
397.00	568.75
397.19	643.65
397.39	564.07
397.58	603.86
397.77	627.26
397.97	664.71
398.16	730.25
398.35	641.31
398.55	690.46
398.74	634.29
398.93	671.73
399.12	587.47
399.32	685.78
399.51	732.59
399.70	791.10
399.90	767.70
400.09	767.70
400.28	660.03
400.47	779.40
400.67	657.69
400.86	655.35
401.05	805.14
401.24	781.74
401.44	727.91
401.63	851.96
401.82	788.76
402.01	758.33
402.21	737.27
402.40	770.04
402.59	791.10
402.78	835.57
402.97	821.53
403.17	758.33
403.36	877.70
403.55	800.46
403.74	866.00
403.93	978.34
404.13	861.32
404.32	870.68
404.51	901.11
404.70	842.59
404.89	931.53
405.09	943.24
405.28	985.37
405.47	858.98
405.66	990.05
405.85	952.60
406.05	973.66
406.24	973.66
406.43	1048.56
406.62	1022.81
406.81	999.41
407.00	1060.26
407.20	968.98
407.39	1029.84
407.58	1046.22
407.77	1013.45
407.96	1036.86
408.15	1013.45
408.34	1109.41
408.54	992.39
408.73	1055.58
408.92	1060.26
409.11	983.02
409.30	1142.18
409.49	1057.92
409.68	1184.31
409.87	1198.35
410.07	1207.72
410.26	1050.90
410.45	1116.44
410.64	1170.27
410.83	1114.10
411.02	1167.93
411.21	1245.16
411.40	1210.06
411.59	1235.80
411.78	1219.42
411.98	1181.97
412.17	1266.23
412.36	1228.78
412.55	1315.38
412.74	1336.45
412.93	1345.81
413.12	1268.57
413.31	1376.24
413.50	1411.34
413.69	1350.49
413.88	1434.75
414.07	1387.94
414.26	1423.05
414.45	1401.98
414.64	1476.88
414.83	1481.56
415.02	1479.22
415.22	1483.90
415.41	1577.52
415.60	1486.24
415.79	1624.33
415.98	1434.75
416.17	1600.93
416.36	1549.43
416.55	1591.56
416.74	1643.06
416.93	1568.16
417.12	1621.99
417.31	1748.38
417.50	1561.14
417.69	1652.42
417.88	1647.74
418.07	1713.27
418.26	1764.76
418.45	1851.36
418.64	1874.77
418.83	1734.34
419.02	1802.21
419.21	1844.34
419.39	1874.77
419.58	1743.70
419.77	1832.64
419.96	1870.09
420.15	1956.69
420.34	1834.98
420.53	1757.74
420.72	1872.43
420.91	1877.11
421.10	1849.02
421.29	1998.82
421.48	1891.15
421.67	1947.33
421.86	2012.86
422.05	1982.43
422.24	1940.30
422.43	1860.73
422.61	1982.43
422.80	2066.69
422.99	2036.27
423.18	1914.56
423.37	1982.43
423.56	2057.33
423.75	1937.96
423.94	1959.03
424.13	1795.19
424.32	1846.68
424.50	2085.42
424.69	2169.68
424.88	2040.95
425.07	1919.24
425.26	2087.76
425.45	2085.42
425.64	1959.03
425.83	2045.63
426.01	2050.31
426.20	2127.55
426.39	2069.03
426.58	2038.61
426.77	2064.35
426.96	2136.91
427.15	1998.82
427.33	2071.37
427.52	2167.34
427.71	2029.24
427.90	2211.81
428.09	2176.70
428.28	2162.66
428.46	2221.17
428.65	2160.31
428.84	2228.19
429.03	2218.83
429.22	2101.80
429.40	2221.17
429.59	2265.64
429.78	2111.16
429.97	2090.10
430.16	2200.10
430.34	2235.21
430.53	2326.49
430.72	2377.98
430.91	2331.17
431.10	2263.30
431.28	2368.62
431.47	2289.04
431.66	2415.43
431.85	2333.51
432.03	2441.18
432.22	2406.07
432.41	2406.07
432.60	2452.88
432.79	2356.92
432.97	2527.78
433.16	2534.80
433.35	2431.82
433.54	2562.89
433.72	2562.89
433.91	2504.37
434.10	2520.76
434.28	2553.52
434.47	2436.50
434.66	2513.74
434.85	2583.95
435.03	2487.99
435.22	2689.28
435.41	2703.32
435.59	2588.63
435.78	2581.61
435.97	2623.74
436.16	2752.47
436.34	2787.58
436.53	2691.62
436.72	2782.90
436.90	2539.48
437.09	2569.91
437.28	2686.94
437.46	2689.28
437.65	2792.26
437.84	2766.51
438.02	2787.58
438.21	2787.58
438.40	2691.62
438.58	2775.88
438.77	2881.20
438.96	2857.79
439.14	2892.90
439.33	3033.33
439.52	2958.44
439.70	2935.03
439.89	2930.35
440.08	2977.16
440.26	2974.82
440.45	3169.09
440.63	3131.64
440.82	3033.33
441.01	3023.97
441.19	3108.23
441.38	3115.25
441.57	3056.74
441.75	3180.79
441.94	3346.97
442.12	3187.81
442.31	3325.90
442.50	3342.28
442.68	3318.88
442.87	3330.58
443.05	3234.62
443.24	3365.69
443.43	3328.24
443.61	3398.46
443.80	3471.01
443.98	3318.88
444.17	3164.40
444.35	3323.56
444.54	3440.59
444.73	3494.42
444.91	3421.86
445.10	3389.10
445.28	3398.46
445.47	3459.31
445.65	3363.35
445.84	3578.68
446.02	3475.70
446.21	3267.39
446.39	3515.48
446.58	3461.65
446.77	3386.76
446.95	3463.99
447.14	3449.95
447.32	3435.91
447.51	3396.12
447.69	3431.23
447.88	3489.74
448.06	3555.27
448.25	3449.95
448.43	3534.21
448.62	3459.31
448.80	3466.33
448.99	3550.59
449.17	3578.68
449.36	3339.94
449.54	3606.77
449.73	3653.58
449.91	3805.71
450.10	3726.13
450.28	3705.07
450.46	3754.22
450.65	3735.50
450.83	3695.71
451.02	3941.46
451.20	3838.48
451.39	3737.84
451.57	3840.82
451.76	3627.83
451.94	3744.86
452.13	3824.44
452.31	3775.28
452.49	3758.90
452.68	3840.82
452.86	3702.73
453.05	3988.27
453.23	3950.82
453.42	3775.28
453.60	3796.35
453.78	3840.82
453.97	3758.90
454.15	3906.35
454.34	3822.09
454.52	3936.78
454.70	4098.28
454.89	4009.34
455.07	3904.01
455.26	4018.70
455.44	3936.78
455.62	4046.79
455.81	3983.59
455.99	4102.96
456.17	4126.36
456.36	4138.07
456.54	4173.18
456.73	4112.32
456.91	4212.96
457.09	4210.62
457.28	4334.67
457.46	4351.06
457.64	4395.53
457.83	4423.61
458.01	4241.05
458.19	4353.40
458.38	4285.52
458.56	4327.65
458.74	4283.18
458.93	4461.06
459.11	4383.82
459.29	4374.46
459.48	4533.62
459.66	4578.09
459.84	4550.00
460.03	4704.48
460.21	4587.45
460.39	4608.51
460.57	4493.83
460.76	4470.42
460.94	4685.75
461.12	4690.43
461.31	4554.68
461.49	4578.09
461.67	4594.47
461.85	4568.73
462.04	4629.58
462.22	4809.80
462.40	4643.62
462.59	4599.15
462.77	4753.63
462.95	4751.29
463.13	4730.22
463.32	4671.71
463.50	4889.38
463.68	4723.20
463.86	4755.97
464.05	4540.64
464.23	4767.67
464.41	4807.46
464.59	4713.84
464.78	4957.25
464.96	4943.21
465.14	4805.12
465.32	4856.61
465.50	4800.44
465.69	5107.05
465.87	4901.08
466.05	4959.60
466.23	4870.65
466.41	4945.55
466.60	5144.50
466.78	4861.29
466.96	4950.23
467.14	4957.25
467.32	5093.01
467.51	4985.34
467.69	5027.47
467.87	5046.20
468.05	5135.14
468.23	5104.71
468.41	4994.70
468.60	5093.01
468.78	5231.10
468.96	5144.50
469.14	5193.65
469.32	5151.52
469.50	5228.76
469.69	5291.95
469.87	5327.06
470.05	5404.30
470.23	5350.46
470.41	5521.32
470.59	5430.04
470.77	5364.51
470.95	5373.87
471.14	5530.69
471.32	5275.57
471.50	5495.58
471.68	5708.57
471.86	5738.99
472.04	5593.88
472.22	5757.72
472.40	5696.86
472.58	5689.84
472.77	5708.57
472.95	5717.93
473.13	5954.32
473.31	5783.46
473.49	5804.53
473.67	5865.38
473.85	5769.42
474.03	6038.58
474.21	5996.45
474.39	6038.58
474.57	6001.13
474.75	6031.56
474.93	6190.72
475.12	6171.99
475.30	6174.33
475.48	6169.65
475.66	6214.12
475.84	6300.72
476.02	6387.32
476.20	6310.08
476.38	6230.51
476.56	6581.59
476.74	6619.04
476.92	6593.29
477.10	6469.24
477.28	6633.08
477.46	6541.80
477.64	6626.06
477.82	6820.32
478.00	6965.43
478.18	7023.95
478.36	6906.92
478.54	6892.88
478.72	7063.74
478.90	7070.76
479.08	7204.17
479.26	6972.46
479.44	7059.06
479.62	7286.09
479.80	7323.54
479.98	7288.43
480.16	7454.61
480.34	7590.36
480.52	7669.94
480.70	7740.15
480.88	7691.00
481.06	7583.34
481.24	7791.64
481.41	7859.52
481.59	7702.70
481.77	7922.71
481.95	8049.10
482.13	7854.84
482.31	8119.32
482.49	8037.40
482.67	8091.23
482.85	8306.56
483.03	8510.19
483.21	8500.83
483.39	8533.59
483.57	8470.40
483.74	8772.33
483.92	8704.45
484.10	8676.37
484.28	8954.89
484.46	9097.66
484.64	9165.54
484.82	8999.36
485.00	9123.41
485.18	9057.87
485.35	9259.16
485.53	9193.62
485.71	9472.15
485.89	9479.17
486.07	9547.05
486.25	9650.03
486.43	9551.73
486.61	9734.29
486.78	9799.82
486.96	9848.97
487.14	10134.52
487.32	10139.20
487.50	9830.25
487.68	9968.34
487.85	10076.01
488.03	10317.08
488.21	10576.88
488.39	10621.35
488.57	10679.86
488.75	10609.65
488.92	10853.06
489.10	10686.89
489.28	10682.20
489.46	11047.33
489.64	11143.29
489.81	11180.74
489.99	11295.43
490.17	11297.77
490.35	11506.07
490.53	11587.99
490.70	11559.91
490.88	11440.54
491.06	11653.53
491.24	11559.91
491.41	11751.83
491.59	11950.78
491.77	11925.03
491.95	12339.30
492.13	12079.50
492.30	12170.79
492.48	12336.96
492.66	12208.23
492.84	12306.54
493.01	12238.66
493.19	12620.17
493.37	12613.15
493.54	12636.55
493.72	12564.00
493.90	12585.06
494.08	12851.88
494.25	13018.06
494.43	13193.60
494.61	13298.92
494.79	13266.16
494.96	13006.36
495.14	13472.12
495.32	13331.69
495.49	13437.02
495.67	13729.58
495.85	13509.57
496.02	13750.65
496.20	13984.70
496.38	13841.93
496.55	13694.47
496.73	14256.20
496.91	13867.67
497.09	14012.79
497.26	14256.20
497.44	14122.79
497.62	14401.32
497.79	14497.28
497.97	14410.68
498.14	14719.63
498.32	14768.78
498.50	14546.43
498.67	14913.89
498.85	14817.93
499.03	14956.02
499.20	14736.01
499.38	15049.64
499.56	15087.09
499.73	15131.56
499.91	15140.93
500.08	15197.10
500.26	15026.24
500.44	15297.74
500.61	15454.56
500.79	15410.09
500.97	15609.03
501.14	16002.24
501.32	15789.25
501.49	15690.95
501.67	15492.01
501.84	15831.38
502.02	16032.67
502.20	15901.60
502.37	15843.09
502.55	16182.46
502.72	16121.61
502.90	16018.63
503.07	16107.57
503.25	16201.19
503.43	16191.83
503.60	16519.50
503.78	16472.69
503.95	16383.75
504.13	16437.58
504.30	16449.28
504.48	16510.14
504.65	16528.86
504.83	16959.52
505.01	16851.86
505.18	16992.29
505.36	17013.35
505.53	17015.69
505.71	16746.53
505.88	17043.78
506.06	17205.28
506.23	17224.00
506.41	17011.01
506.58	17357.41
506.76	17387.84
506.93	17439.33
507.11	17521.25
507.28	17373.80
507.46	17507.21
507.63	17383.16
507.81	17451.03
507.98	17671.04
508.16	17460.40
508.33	18005.74
508.50	17902.76
508.68	17853.61
508.85	18099.36
509.03	17757.64
509.20	18335.76
509.38	18527.68
509.55	17916.80
509.73	18288.95
509.90	17975.31
510.08	18223.41
510.25	18305.33
510.42	18401.29
510.60	18663.43
510.77	18417.68
510.95	18525.34
511.12	18562.79
511.30	18485.55
511.47	18738.33
511.64	18703.22
511.82	19023.87
511.99	19140.90
512.17	18841.31
512.34	18902.17
512.51	18984.09
512.69	18911.53
512.86	19147.92
513.04	19295.38
513.21	19360.91
513.38	19133.88
513.56	19543.47
513.73	19159.63
513.90	19456.87
514.08	19218.14
514.25	19440.49
514.43	19613.69
514.60	19840.72
514.77	19611.35
514.95	20058.39
515.12	19688.59
515.29	19758.80
515.47	19763.48
515.64	19983.49
515.81	20233.93
515.99	20278.40
516.16	20004.56
516.33	20074.77
516.51	20042.01
516.68	19915.62
516.85	20074.77
517.03	20348.62
517.20	20486.71
517.37	20226.91
517.54	20198.82
517.72	20428.20
517.89	20255.00
518.06	20339.26
518.24	20798.00
518.41	20486.71
518.58	21125.68
518.75	20720.76
518.93	20744.17
519.10	20809.70
519.27	21034.39
519.45	20863.54
519.62	20793.32
519.79	21167.80
519.96	20926.73
520.14	21242.70
520.31	20933.75
520.48	21305.90
520.65	21191.21
520.83	21039.08
521.00	21369.09
521.17	21039.08
521.34	21561.02
521.52	21050.78
521.69	21376.11
521.86	21322.28
522.03	21860.60
522.20	21277.81
522.38	21771.66
522.55	21493.14
522.72	21745.92
522.89	21785.71
523.07	21947.20
523.24	21998.70
523.41	21881.67
523.58	21851.24
523.75	22059.55
523.92	21755.28
524.10	22061.89
524.27	22031.46
524.44	22293.60
524.61	22085.30
524.78	22281.90
524.96	22050.19
525.13	22242.11
525.30	22590.85
525.47	22586.17
525.64	22457.44
525.81	22520.63
525.98	22366.16
526.16	22939.59
526.33	22565.10
526.50	22979.38
526.67	22207.00
526.84	22698.52
527.01	22852.99
527.18	22986.40
527.36	22906.82
527.53	22925.55
527.70	23250.88
527.87	22686.81
528.04	22560.42
528.21	22911.50
528.38	22841.29
528.55	22998.10
528.72	23208.75
528.89	23197.05
529.07	23321.10
529.24	23126.83
529.41	23379.61
529.58	23377.27
529.75	23168.96
529.92	23386.63
530.09	23428.76
530.26	23480.25
530.43	23250.88
530.60	23393.65
530.77	23590.26
530.94	23803.25
531.11	23702.61
531.28	23807.93
531.46	23473.23
531.63	23943.68
531.80	23929.64
531.97	23604.30
532.14	23871.12
532.31	23585.58
532.48	23910.91
532.65	23889.85
532.82	23765.80
532.99	24226.89
533.16	24264.33
533.33	24205.82
533.50	24320.51
533.67	24074.75
533.84	24208.16
534.01	23943.68
534.18	23971.77
534.35	24210.50
534.52	24292.42
534.69	24666.91
534.86	24809.68
535.03	24313.48
535.20	24477.32
535.37	24706.70
535.54	24500.73
535.71	24364.98
535.88	24453.92
536.05	24526.47
536.22	24915.00
536.38	24659.88
536.55	24826.06
536.72	24833.08
536.89	24840.11
537.06	24840.11
537.23	24699.67
537.40	24669.25
537.57	24922.02
537.74	25015.65
537.91	25097.56
538.08	24978.20
538.25	24879.89
538.42	25259.06
538.59	25216.93
538.75	25036.71
538.92	25149.06
539.09	25167.78
539.26	25200.55
539.43	25355.02
539.60	25083.52
539.77	25242.68
539.94	25413.54
540.11	25326.94
540.28	25172.46
540.44	25528.22
540.61	25371.41
540.78	25472.05
540.95	25530.56
541.12	25521.20
541.29	25500.14
541.46	25546.95
541.62	25371.41
541.79	25647.59
541.96	25277.79
542.13	25720.15
542.30	25645.25
542.47	25968.24
542.63	25575.03
542.80	25928.45
542.97	26216.34
543.14	26251.45
543.31	26089.95
543.48	26066.55
543.64	26256.13
543.81	26370.82
543.98	26405.92
544.15	26274.85
544.32	26677.43
544.48	26284.22
544.65	26345.07
544.82	26272.51
544.99	26265.49
545.16	26560.40
545.32	26419.97
545.49	26492.52
545.66	26719.56
545.83	26735.94
546.00	26457.42
546.16	26775.73
546.33	26246.77
546.50	26485.50
546.67	26450.39
546.83	26499.55
547.00	26389.54
547.17	26958.29
547.34	26759.34
547.50	26761.69
547.67	27234.47
547.84	26923.18
548.00	27014.46
548.17	27110.43
548.34	26754.66
548.51	27122.13
548.67	26906.80
548.84	27075.32
549.01	26808.50
549.18	27601.94
549.34	27239.15
549.51	26831.90
549.68	27154.90
549.84	26806.16
550.01	27318.73
550.18	27173.62
550.34	27285.97
550.51	27143.19
550.68	27096.38
550.84	27180.64
551.01	27274.26
551.18	27187.66
551.34	27536.40
551.51	27049.57
551.68	27541.08
551.84	27449.80
552.01	26993.40
552.18	27342.14
552.34	27459.16
552.51	27606.62
552.68	27182.98
552.84	27285.97
553.01	27412.35
553.18	27754.07
553.34	27524.70
553.51	27552.79
553.67	27957.70
553.84	27775.14
554.01	27770.46
554.17	28013.87
554.34	27847.69
554.51	27838.33
554.67	27854.72
554.84	28053.66
555.00	28088.77
555.17	27814.93
555.33	27793.86
555.50	27718.96
555.67	27765.78
555.83	28205.80
556.00	27910.89
556.16	28041.96
556.33	27997.49
556.50	28184.73
556.66	28135.58
556.83	27857.06
556.99	28257.29
557.16	28217.50
557.32	28500.70
557.49	28430.49
557.65	28336.87
557.82	28343.89
557.98	28112.17
558.15	27859.40
558.32	28467.94
558.48	28107.49
558.65	28250.27
558.81	28170.69
558.98	28343.89
559.14	28034.94
559.31	28126.22
559.47	28339.21
559.64	28236.22
559.80	28500.70
559.97	28449.21
560.13	28128.56
560.30	28683.27
560.46	28596.67
560.63	28432.83
560.79	28760.50
560.96	28531.13
561.12	28671.56
561.29	28135.58
561.45	28407.08
561.61	28517.09
561.78	28863.49
561.94	28535.81
562.11	28477.30
562.27	28428.15
562.44	28701.99
562.60	28313.46
562.77	28496.02
562.93	28690.29
563.10	29427.56
563.26	28760.50
563.42	28926.68
563.59	28879.87
563.75	28795.61
563.92	28606.03
564.08	28807.31
564.24	28875.19
564.41	28657.52
564.57	28776.89
564.74	28687.95
564.90	28629.43
565.07	28790.93
565.23	28985.19
565.39	28940.72
565.56	28835.40
565.72	28840.08
565.88	28795.61
566.05	28898.59
566.21	28641.14
566.38	28737.10
566.54	28910.30
566.70	28966.47
566.87	29322.23
567.03	28776.89
567.19	29104.56
567.36	28994.56
567.52	29198.18
567.68	29333.93
567.85	28863.49
568.01	29179.46
568.17	28910.30
568.34	29357.34
568.50	28861.15
568.66	29434.58
568.83	29415.85
568.99	29174.78
569.15	29418.19
569.32	29015.62
569.48	28779.23
569.64	29137.33
569.81	29149.03
569.97	29443.94
570.13	29020.30
570.30	28865.83
570.46	29357.34
570.62	28758.16
570.78	29137.33
570.95	29717.78
571.11	28851.78
571.27	29310.53
571.43	28945.41
571.60	29336.27
571.76	29163.08
571.92	28929.02
572.09	29308.19
572.25	29036.69
572.41	29223.93
572.57	29408.83
572.74	29406.49
572.90	29120.95
573.06	29308.19
573.22	29317.55
573.38	29179.46
573.55	29465.00
573.71	29621.82
573.87	29577.35
574.03	29429.90
574.20	29078.82
574.36	29432.24
574.52	29635.86
574.68	29039.03
574.84	29745.87
575.01	28830.72
575.17	29347.98
575.33	29284.78
575.49	28912.64
575.65	29448.62
575.82	29434.58
575.98	29282.44
576.14	29371.38
576.30	29383.09
576.46	29378.40
576.62	29495.43
576.79	29099.88
576.95	29593.73
577.11	29635.86
577.27	29476.71
577.43	29465.00
577.59	29544.58
577.75	29191.16
577.92	29387.77
578.08	29401.81
578.24	29390.11
578.40	29041.37
578.56	29516.50
578.72	29813.74
578.88	29689.70
579.04	29635.86
579.21	29593.73
579.37	29792.68
579.53	29851.19
579.69	29085.84
579.85	29385.43
580.01	29645.23
580.17	29455.64
580.33	29221.59
580.49	29284.78
580.65	29429.90
580.82	29408.83
580.98	29715.44
581.14	29507.13
581.30	29715.44
581.46	29593.73
581.62	29331.59
581.78	29291.80
581.94	29434.58
582.10	29310.53
582.26	29591.39
582.42	29369.04
582.58	29670.97
582.74	29823.11
582.90	29972.90
583.06	29628.84
583.22	29771.61
583.38	29600.76
583.54	29610.12
583.70	29724.80
583.86	29727.14
584.02	29319.89
584.18	29764.59
584.34	29645.23
584.50	29563.31
584.66	29743.53
584.82	29500.11
584.98	29830.13
585.14	29780.98
585.30	29689.70
585.46	29048.39
585.62	29214.57
585.78	29521.18
585.94	29504.79
586.10	29902.68
586.26	29898.00
586.42	29546.92
586.58	29670.97
586.74	29535.22
586.90	29443.94
587.06	29490.75
587.22	29797.36
587.38	29357.34
587.54	30019.71
587.70	29858.21
587.86	29848.85
588.02	29694.38
588.18	30059.50
588.34	29628.84
588.49	29429.90
588.65	29713.10
588.81	29956.52
588.97	29865.24
589.13	29722.46
589.29	29558.63
589.45	30024.39
589.61	29977.58
589.77	29762.25
589.93	30272.49
590.08	29837.15
590.24	30499.52
590.40	30209.29
590.56	30160.14
590.72	30134.40
590.88	29876.94
591.04	29820.77
591.20	29989.28
591.35	29912.05
591.51	30433.99
591.67	30033.75
591.83	30419.94
591.99	30010.35
