SpectraSuite Data File
++++++++++++++++++++++++++++++++++++
Date: Fri Oct 18 13:58:27 GMT-05:00 2013
User: bianchi
Dark Spectrum Present: No
Reference Spectrum Present: No
Number of Sampled Component Spectra: 1
Spectrometers: USB2+H05261
Integration Time (usec): 50000 (USB2+H05261)
Spectra Averaged: 1 (USB2+H05261)
Boxcar Smoothing: 0 (USB2+H05261)
Correct for Electrical Dark: No (USB2+H05261)
Strobe/Lamp Enabled: No (USB2+H05261)
Correct for Detector Non-linearity: No (USB2+H05261)
Correct for Stray Light: No (USB2+H05261)
Number of Pixels in Processed Spectrum: 2048
>>>>>Begin Processed Spectral Data<<<<<
365.73	0.00
365.92	0.00
366.12	0.00
366.32	0.00
366.52	0.00
366.72	0.00
366.91	0.00
367.11	0.00
367.31	0.00
367.51	0.00
367.70	0.00
367.90	0.00
368.10	0.00
368.30	0.00
368.49	0.00
368.69	0.00
368.89	0.00
369.09	0.00
369.28	0.00
369.48	0.00
369.68	0.00
369.87	0.00
370.07	0.00
370.27	0.00
370.47	0.00
370.66	42.13
370.86	119.37
371.06	121.71
371.25	147.45
371.45	135.75
371.65	98.30
371.84	9.36
372.04	152.13
372.24	175.54
372.44	91.28
372.63	173.20
372.83	205.97
373.03	140.43
373.22	147.45
373.42	182.56
373.62	152.13
373.81	205.97
374.01	248.10
374.21	276.18
374.40	189.58
374.60	236.39
374.79	210.65
374.99	283.20
375.19	217.67
375.38	184.90
375.58	191.92
375.78	212.99
375.97	198.95
376.17	145.11
376.37	266.82
376.56	358.10
376.76	271.50
376.95	210.65
377.15	273.84
377.35	198.95
377.54	255.12
377.74	203.63
377.93	191.92
378.13	290.23
378.33	285.55
378.52	278.52
378.72	266.82
378.91	287.89
379.11	262.14
379.31	311.29
379.50	212.99
379.70	269.16
379.89	236.39
380.09	344.06
380.28	313.63
380.48	259.80
380.68	287.89
380.87	306.61
381.07	339.38
381.26	351.08
381.46	215.33
381.65	315.97
381.85	231.71
382.04	355.76
382.24	285.55
382.43	311.29
382.63	320.65
382.83	341.72
383.02	374.49
383.22	367.46
383.41	334.70
383.61	325.33
383.80	393.21
384.00	339.38
384.19	367.46
384.39	437.68
384.58	346.40
384.78	353.42
384.97	299.59
385.17	388.53
385.36	355.76
385.56	386.19
385.75	451.72
385.95	437.68
386.14	409.59
386.34	493.85
386.53	341.72
386.72	421.30
386.92	407.25
387.11	470.45
387.31	327.68
387.50	416.62
387.70	414.27
387.89	404.91
388.09	496.19
388.28	397.89
388.48	482.15
388.67	500.87
388.86	421.30
389.06	430.66
389.25	526.62
389.45	482.15
389.64	538.32
389.84	454.06
390.03	475.13
390.22	491.51
390.42	475.13
390.61	475.13
390.81	475.13
391.00	500.87
391.19	554.71
391.39	526.62
391.58	545.34
391.78	552.37
391.97	486.83
392.16	496.19
392.36	552.37
392.55	535.98
392.75	540.66
392.94	550.03
393.13	454.06
393.33	589.82
393.52	575.77
393.71	550.03
393.91	528.96
394.10	575.77
394.29	594.50
394.49	566.41
394.68	592.16
394.88	552.37
395.07	540.66
395.26	571.09
395.46	547.69
395.65	645.99
395.84	636.63
396.04	653.01
396.23	685.78
396.42	638.97
396.62	660.03
396.81	638.97
397.00	681.10
397.19	650.67
397.39	725.57
397.58	678.76
397.77	624.92
397.97	643.65
398.16	641.31
398.35	645.99
398.55	657.69
398.74	692.80
398.93	723.23
399.12	624.92
399.32	784.08
399.51	697.48
399.70	627.26
399.90	739.61
400.09	744.29
400.28	763.01
400.47	746.63
400.67	828.55
400.86	814.51
401.05	723.23
401.24	849.61
401.44	821.53
401.63	791.10
401.82	774.72
402.01	718.54
402.21	823.87
402.40	863.66
402.59	844.93
402.78	821.53
402.97	770.04
403.17	819.19
403.36	858.98
403.55	912.81
403.74	870.68
403.93	908.13
404.13	940.90
404.32	917.49
404.51	891.74
404.70	896.43
404.89	961.96
405.09	973.66
405.28	875.36
405.47	915.15
405.66	919.83
405.85	1006.43
406.05	922.17
406.24	1029.84
406.43	990.05
406.62	1069.62
406.81	990.05
407.00	1088.35
407.20	922.17
407.39	1041.54
407.58	1027.50
407.77	1067.28
407.96	1008.77
408.15	1128.14
408.34	1053.24
408.54	945.58
408.73	1102.39
408.92	1083.67
409.11	1102.39
409.30	1088.35
409.49	1111.75
409.68	1036.86
409.87	1083.67
410.07	1191.33
410.26	1165.59
410.45	1090.69
410.64	1163.25
410.83	1294.32
411.02	1217.08
411.21	1186.65
411.40	1231.12
411.59	1172.61
411.78	1233.46
411.98	1193.67
412.17	1266.23
412.36	1287.29
412.55	1331.76
412.74	1439.43
412.93	1291.98
413.12	1261.55
413.31	1453.47
413.50	1392.62
413.69	1401.98
413.88	1406.66
414.07	1430.07
414.26	1495.60
414.45	1511.99
414.64	1521.35
414.83	1500.28
415.02	1430.07
415.22	1490.92
415.41	1455.81
415.60	1577.52
415.79	1600.93
415.98	1572.84
416.17	1657.10
416.36	1563.48
416.55	1675.82
416.74	1579.86
416.93	1645.40
417.12	1682.85
417.31	1598.59
417.50	1764.76
417.69	1706.25
417.88	1675.82
418.07	1753.06
418.26	1633.69
418.45	1764.76
418.64	1720.29
418.83	1792.85
419.02	1720.29
419.21	1785.83
419.39	1851.36
419.58	1860.73
419.77	1809.23
419.96	1809.23
420.15	1895.83
420.34	1916.90
420.53	1959.03
420.72	1961.37
420.91	1947.33
421.10	1973.07
421.29	2003.50
421.48	1865.41
421.67	1863.07
421.86	1944.99
422.05	1930.94
422.24	1874.77
422.43	1891.15
422.61	2024.56
422.80	1982.43
422.99	1933.28
423.18	1991.80
423.37	1952.01
423.56	1980.09
423.75	2024.56
423.94	2010.52
424.13	1877.11
424.32	2010.52
424.50	1998.82
424.69	2047.97
424.88	2139.25
425.07	2024.56
425.26	1949.67
425.45	2059.67
425.64	1959.03
425.83	1956.69
426.01	2003.50
426.20	2104.14
426.39	1989.46
426.58	2043.29
426.77	2132.23
426.96	2080.74
427.15	2122.87
427.33	2066.69
427.52	2127.55
427.71	2043.29
427.90	2118.18
428.09	2115.84
428.28	2155.63
428.46	2218.83
428.65	2125.21
428.84	2094.78
429.03	2246.91
429.22	2134.57
429.40	2148.61
429.59	2218.83
429.78	2125.21
429.97	2246.91
430.16	2228.19
430.34	2275.00
430.53	2399.05
430.72	2359.26
430.91	2354.58
431.10	2218.83
431.28	2417.77
431.47	2291.38
431.66	2370.96
431.85	2270.32
432.03	2586.29
432.22	2497.35
432.41	2410.75
432.60	2356.92
432.79	2441.18
432.97	2464.58
433.16	2448.20
433.35	2527.78
433.54	2443.52
433.72	2483.31
433.91	2483.31
434.10	2420.11
434.28	2516.08
434.47	2506.71
434.66	2588.63
434.85	2715.02
435.03	2633.10
435.22	2560.55
435.41	2649.49
435.59	2579.27
435.78	2581.61
435.97	2663.53
436.16	2717.36
436.34	2581.61
436.53	2693.96
436.72	2794.60
436.90	2541.82
437.09	2705.66
437.28	2553.52
437.46	2708.00
437.65	2787.58
437.84	2771.19
438.02	2839.07
438.21	2768.85
438.40	2677.57
438.58	2759.49
438.77	2846.09
438.96	2874.18
439.14	2895.24
439.33	2960.78
439.52	2958.44
439.70	2944.39
439.89	3026.31
440.08	3045.04
440.26	2946.73
440.45	2951.42
440.63	3038.02
440.82	3145.68
441.01	2918.65
441.19	3077.80
441.38	3185.47
441.57	3309.52
441.75	3339.94
441.94	3227.60
442.12	3157.38
442.31	3393.78
442.50	3197.17
442.68	3330.58
442.87	3335.26
443.05	3318.88
443.24	3300.16
443.43	3332.92
443.61	3300.16
443.80	3438.25
443.98	3321.22
444.17	3229.94
444.35	3449.95
444.54	3339.94
444.73	3506.12
444.91	3400.80
445.10	3449.95
445.28	3403.14
445.47	3398.46
445.65	3569.32
445.84	3318.88
446.02	3417.18
446.21	3400.80
446.39	3318.88
446.58	3283.77
446.77	3482.72
446.95	3466.33
447.14	3524.85
447.32	3506.12
447.51	3611.45
447.69	3382.07
447.88	3569.32
448.06	3508.46
448.25	3400.80
448.43	3449.95
448.62	3447.61
448.80	3496.76
448.99	3550.59
449.17	3613.79
449.36	3618.47
449.54	3765.92
449.73	3721.45
449.91	3693.37
450.10	3688.68
450.28	3646.55
450.46	3662.94
450.65	3765.92
450.83	3744.86
451.02	3709.75
451.20	3815.07
451.39	3691.02
451.57	3815.07
451.76	3730.81
451.94	3709.75
452.13	3939.12
452.31	3901.67
452.49	3712.09
452.68	3906.35
452.86	3847.84
453.05	3826.78
453.23	3932.10
453.42	3838.48
453.60	3904.01
453.78	3840.82
453.97	3889.97
454.15	3957.85
454.34	3889.97
454.52	4135.73
454.70	3978.91
454.89	3915.72
455.07	4002.32
455.26	4065.51
455.44	4084.23
455.62	4105.30
455.81	4049.13
455.99	4030.40
456.17	4051.47
456.36	4107.64
456.54	4273.82
456.73	4266.80
456.91	4386.16
457.09	4287.86
457.28	4430.63
457.46	4276.16
457.64	4517.23
457.83	4311.27
458.01	4386.16
458.19	4372.12
458.38	4276.16
458.56	4402.55
458.74	4404.89
458.93	4379.14
459.11	4493.83
459.29	4252.75
459.48	4437.66
459.66	4381.48
459.84	4374.46
460.03	4575.75
460.21	4596.81
460.39	4512.55
460.57	4505.53
460.76	4542.98
460.94	4571.07
461.12	4669.37
461.31	4601.49
461.49	4533.62
461.67	4533.62
461.85	4608.51
462.04	4688.09
462.22	4868.31
462.40	4709.16
462.59	4772.35
462.77	4664.69
462.95	4772.35
463.13	4777.03
463.32	4875.34
463.50	4842.57
463.68	4788.74
463.86	4840.23
464.05	4723.20
464.23	4828.53
464.41	4863.63
464.59	4697.46
464.78	4952.57
464.96	4952.57
465.14	4868.31
465.32	5074.28
465.50	5067.26
465.69	4961.94
465.87	5064.92
466.05	5078.96
466.23	4985.34
466.41	4994.70
466.60	5186.63
466.78	4985.34
466.96	4924.49
467.14	5167.90
467.32	5118.75
467.51	5263.86
467.69	4999.38
467.87	5064.92
468.05	5109.39
468.23	4975.98
468.41	5195.99
468.60	5039.17
468.78	5207.69
468.96	5121.09
469.14	5247.48
469.32	5427.70
469.50	5228.76
469.69	5317.70
469.87	5437.06
470.05	5423.02
470.23	5369.19
470.41	5259.18
470.59	5305.99
470.77	5369.19
470.95	5537.71
471.14	5523.66
471.32	5324.72
471.50	5687.50
471.68	5472.17
471.86	5628.99
472.04	5666.44
472.22	5710.91
472.40	5558.77
472.58	5643.03
472.77	5659.42
472.95	5860.70
473.13	5914.53
473.31	5731.97
473.49	5851.34
473.67	5827.93
473.85	5900.49
474.03	5977.73
474.21	5912.19
474.39	6066.67
474.57	6036.24
474.75	6155.61
474.93	6104.12
475.12	6186.04
475.30	6176.67
475.48	6263.27
475.66	6202.42
475.84	6225.82
476.02	6190.72
476.20	6324.13
476.38	6408.39
476.56	6450.52
476.74	6520.73
476.92	6375.62
477.10	6640.10
477.28	6642.44
477.46	6462.22
477.64	6752.45
477.82	6890.54
478.00	6958.41
478.18	7016.93
478.36	7070.76
478.54	7152.68
478.72	7110.55
478.90	6981.82
479.08	6942.03
479.26	7208.85
479.44	7375.03
479.62	7220.55
479.80	7344.60
479.98	7393.75
480.16	7461.63
480.34	7372.69
480.52	7368.01
480.70	7569.29
480.88	7489.71
481.06	7447.58
481.24	7634.83
481.41	7740.15
481.59	7992.93
481.77	7803.35
481.95	7985.91
482.13	8021.02
482.31	8044.42
482.49	8348.69
482.67	8109.96
482.85	8351.03
483.03	8404.86
483.21	8372.10
483.39	8599.13
483.57	8346.35
483.74	8732.54
483.92	8767.65
484.10	8606.15
484.28	9034.47
484.46	8809.78
484.64	8985.32
484.82	8980.64
485.00	8966.59
485.18	9310.65
485.35	9444.06
485.53	9343.42
485.71	9303.63
485.89	9591.52
486.07	9528.32
486.25	9610.24
486.43	9558.75
486.61	9863.02
486.78	9937.91
486.96	9884.08
487.14	9970.68
487.32	9987.07
487.50	10232.82
487.68	10214.10
487.85	10361.55
488.03	10616.67
488.21	10487.94
488.39	10279.63
488.57	10649.44
488.75	10759.44
488.92	10897.53
489.10	11016.90
489.28	10850.72
489.46	10956.05
489.64	11009.88
489.81	11201.80
489.99	11117.54
490.17	11204.14
490.35	11367.98
490.53	11344.58
490.70	11655.87
490.88	11477.99
491.06	11683.95
491.24	11667.57
491.41	11815.02
491.59	12049.08
491.77	11772.89
491.95	11995.25
492.13	12051.42
492.30	12292.49
492.48	12491.44
492.66	12098.23
492.84	12318.24
493.01	12475.06
493.19	12449.31
493.37	12730.17
493.54	12732.51
493.72	12547.61
493.90	12912.74
494.08	12791.03
494.25	12989.97
494.43	12987.63
494.61	13032.10
494.79	13371.48
494.96	13289.56
495.14	13336.37
495.32	13383.18
495.49	13582.13
495.67	13448.72
495.85	13579.79
496.02	13769.37
496.20	14057.26
496.38	13767.03
496.55	13900.44
496.73	14057.26
496.91	14188.33
497.09	14281.95
497.26	14361.53
497.44	14410.68
497.62	13937.89
497.79	14555.79
497.97	14277.27
498.14	14471.53
498.32	14611.96
498.50	14773.46
498.67	15152.63
498.85	14609.62
499.03	14916.23
499.20	14726.65
499.38	15028.58
499.56	15293.06
499.73	15094.11
499.91	15147.95
500.08	15527.11
500.26	15204.12
500.44	15286.04
500.61	15456.90
500.79	15508.39
500.97	15826.70
501.14	15815.00
501.32	15779.89
501.49	16049.05
501.67	15756.49
501.84	15859.47
502.02	15819.68
502.20	15934.37
502.37	16063.10
502.55	15831.38
502.72	16145.02
502.90	16182.46
503.07	16154.38
503.25	16252.68
503.43	16074.80
503.60	16388.43
503.78	16423.54
503.95	16592.06
504.13	16519.50
504.30	16367.37
504.48	16627.17
504.65	16861.22
504.83	16709.08
505.01	17022.72
505.18	17111.66
505.36	17088.25
505.53	16793.34
505.71	16816.75
505.88	16982.93
506.06	16823.77
506.23	17043.78
506.41	17146.76
506.58	17238.05
506.76	17612.53
506.93	17476.78
507.11	17284.86
507.28	17273.15
507.46	17713.17
507.63	17675.73
507.81	17785.73
507.98	17633.60
508.16	17488.48
508.33	17984.68
508.50	17933.18
508.68	17895.74
508.85	18033.83
509.03	17998.72
509.20	18373.21
509.38	18090.00
509.55	18274.90
509.73	18424.70
509.90	18064.25
510.08	18167.24
510.25	18232.77
510.42	18651.73
510.60	18387.25
510.77	18459.81
510.95	18735.99
511.12	18735.99
511.30	18656.41
511.47	18595.56
511.64	18743.01
511.82	18860.04
511.99	18925.57
512.17	19047.28
512.34	18670.45
512.51	19136.22
512.69	19192.39
512.86	19026.21
513.04	19131.54
513.21	19328.14
513.38	19421.77
513.56	19389.00
513.73	19597.31
513.90	19522.41
514.08	19676.88
514.25	19707.31
514.43	19728.38
514.60	19529.43
514.77	19630.07
514.95	19534.11
515.12	19756.46
515.29	19754.12
515.47	19697.95
515.64	20247.97
515.81	19875.83
515.99	20180.10
516.16	20238.61
516.33	19913.28
516.51	20606.08
516.68	20142.65
516.85	20357.98
517.03	20311.17
517.20	20271.38
517.37	20528.84
517.54	20507.77
517.72	20505.43
517.89	20493.73
518.06	20432.88
518.24	20603.74
518.41	20517.14
518.58	21064.82
518.75	20868.22
518.93	20877.58
519.10	20905.66
519.27	20779.28
519.45	20987.58
519.62	21008.65
519.79	20800.34
519.96	21092.91
520.14	21088.23
520.31	21069.50
520.48	21034.39
520.65	20870.56
520.83	21572.72
521.00	21242.70
521.17	21369.09
521.34	21303.56
521.52	21476.76
521.69	21376.11
521.86	21584.42
522.03	21647.61
522.20	21504.84
522.38	21626.55
522.55	21565.70
522.72	21434.63
522.89	21832.52
523.07	22232.75
523.24	22132.11
523.41	22164.87
523.58	21879.33
523.75	22101.68
523.92	21795.07
524.10	22242.11
524.27	22207.00
524.44	22375.52
524.61	22419.99
524.78	22309.99
524.96	22602.55
525.13	22583.83
525.30	22328.71
525.47	22244.45
525.64	22527.66
525.81	22377.86
525.98	22565.10
526.16	22850.65
526.33	23009.81
526.50	22691.49
526.67	22389.56
526.84	22841.29
527.01	22265.52
527.18	22747.67
527.36	22927.89
527.53	23253.22
527.70	23192.37
527.87	23023.85
528.04	22881.08
528.21	23269.61
528.38	23150.24
528.55	23089.38
528.72	23417.06
528.89	23019.17
529.07	23449.83
529.24	23342.16
529.41	23267.27
529.58	23285.99
529.75	23473.23
529.92	23269.61
530.09	23267.27
530.26	23232.16
530.43	23576.22
530.60	23372.59
530.77	23461.53
530.94	23639.41
531.11	23325.78
531.28	23431.10
531.46	23749.42
531.63	23859.42
531.80	23679.20
531.97	24011.56
532.14	24034.96
532.31	24177.73
532.48	24049.00
532.65	24322.85
532.82	23896.87
532.99	23852.40
533.16	24013.90
533.33	24151.99
533.50	24643.50
533.67	24109.86
533.84	24123.90
534.01	24166.03
534.18	24142.63
534.35	24547.54
534.52	24364.98
534.69	24519.45
534.86	24706.70
535.03	24283.06
535.20	24582.65
535.37	24414.13
535.54	24706.70
535.71	24362.64
535.88	24451.58
536.05	24465.62
536.22	24685.63
536.38	24907.98
536.55	25160.76
536.72	24664.57
536.89	24718.40
537.06	24269.01
537.23	25184.16
537.40	24823.72
537.57	24753.51
537.74	25252.04
537.91	25104.59
538.08	25074.16
538.25	25504.82
538.42	25104.59
538.59	25301.19
538.75	25078.84
538.92	25298.85
539.09	24837.76
539.26	25060.12
539.43	25111.61
539.60	25823.13
539.77	25172.46
539.94	25553.97
540.11	25493.12
540.28	25514.18
540.44	25488.43
540.61	25914.41
540.78	25528.22
540.95	25640.57
541.12	25530.56
541.29	25720.15
541.46	25481.41
541.62	25465.03
541.79	25614.82
541.96	25539.93
542.13	25556.31
542.30	25628.87
542.47	26075.91
542.63	26031.44
542.80	25979.95
542.97	25949.52
543.14	26218.68
543.31	26125.06
543.48	25830.15
543.64	26183.57
543.81	26288.90
543.98	26373.16
544.15	26178.89
544.32	26363.79
544.48	26602.53
544.65	26298.26
544.82	26700.83
544.99	25804.41
545.16	26211.66
545.32	26429.33
545.49	26689.13
545.66	26600.19
545.83	26712.53
546.00	26771.05
546.16	26618.91
546.33	26359.11
546.50	26422.31
546.67	26574.44
546.83	26284.22
547.00	26679.77
547.17	26635.30
547.34	26967.65
547.50	26808.50
547.67	27070.64
547.84	26740.62
548.00	27187.66
548.17	27147.87
548.34	27019.14
548.51	27084.68
548.67	27248.52
548.84	27634.71
549.01	27222.77
549.18	27117.45
549.34	26993.40
549.51	27388.95
549.68	27208.73
549.84	26794.45
550.01	27232.13
550.18	27278.94
550.34	27363.20
550.51	27426.40
550.68	27653.43
550.84	27489.59
551.01	27491.93
551.18	27068.30
551.34	27262.56
551.51	27665.13
551.68	27461.51
551.84	27496.61
552.01	27328.10
552.18	27721.30
552.34	27536.40
552.51	27550.45
552.68	27356.18
552.84	27569.17
553.01	27847.69
553.18	27328.10
553.34	27508.32
553.51	27557.47
553.67	27814.93
553.84	27974.08
554.01	28098.13
554.17	28121.54
554.34	27744.71
554.51	27693.22
554.67	27927.27
554.84	28051.32
555.00	27835.99
555.17	27751.73
555.33	27889.82
555.50	27995.15
555.67	27840.67
555.83	28051.32
556.00	28079.41
556.16	28180.05
556.33	28072.39
556.50	27960.04
556.66	28320.48
556.83	28552.20
556.99	28493.68
557.16	28713.69
557.32	28371.97
557.49	28166.01
557.65	28002.17
557.82	28332.18
557.98	27906.21
558.15	28439.85
558.32	28271.33
558.48	28371.97
558.65	28322.82
558.81	28348.57
558.98	28439.85
559.14	28315.80
559.31	28182.39
559.47	28620.07
559.64	28512.41
559.80	28620.07
559.97	28503.04
560.13	28687.95
560.30	28430.49
560.46	28512.41
560.63	28596.67
560.79	28701.99
560.96	28657.52
561.12	28912.64
561.29	28446.87
561.45	28634.11
561.61	28556.88
561.78	28882.21
561.94	28638.80
562.11	29127.97
562.27	28914.98
562.44	28929.02
562.60	28690.29
562.77	28685.61
562.93	28519.43
563.10	29139.67
563.26	28519.43
563.42	29064.77
563.59	28762.84
563.75	29022.64
563.92	28961.79
564.08	28760.50
564.24	28919.66
564.41	28910.30
564.57	28971.15
564.74	28568.58
564.90	29106.90
565.07	29153.71
565.23	28938.38
565.39	28552.20
565.56	29097.54
565.72	28938.38
565.88	28893.91
566.05	28608.37
566.21	28943.06
566.38	29001.58
566.54	29254.36
566.70	29347.98
566.87	29387.77
567.03	29233.29
567.19	29362.02
567.36	29046.05
567.52	29055.41
567.68	29319.89
567.85	28615.39
568.01	29315.21
568.17	29186.48
568.34	29191.16
568.50	29120.95
568.66	29457.98
568.83	29462.66
568.99	29322.23
569.15	29226.27
569.32	29195.84
569.48	28917.32
569.64	29043.71
569.81	29113.92
569.97	29436.92
570.13	29537.56
570.30	29687.36
570.46	29233.29
570.62	29481.39
570.78	29085.84
570.95	28938.38
571.11	29252.02
571.27	29142.01
571.43	29036.69
571.60	29160.73
571.76	29027.32
571.92	29336.27
572.09	29940.13
572.25	29591.39
572.41	29244.99
572.57	29340.96
572.74	29298.83
572.90	29467.34
573.06	29507.13
573.22	29441.60
573.38	29170.10
573.55	29542.24
573.71	29755.23
573.87	29350.32
574.03	29275.42
574.20	29614.80
574.36	28964.13
574.52	29605.44
574.68	29518.84
574.84	29544.58
575.01	29600.76
575.17	29862.90
575.33	29692.04
575.49	29736.51
575.65	29387.77
575.82	29710.76
575.98	29783.32
576.14	30038.44
576.30	29373.72
576.46	29434.58
576.62	29514.16
576.79	29584.37
576.95	29521.18
577.11	29502.45
577.27	29736.51
577.43	29593.73
577.59	29385.43
577.75	29654.59
577.92	29883.96
578.08	29415.85
578.24	29371.38
578.40	29415.85
578.56	29322.23
578.72	29881.62
578.88	29839.49
579.04	29832.47
579.21	29687.36
579.37	29563.31
579.53	29607.78
579.69	29116.26
579.85	29366.70
580.01	29582.03
580.17	29500.11
580.33	29191.16
580.49	29638.20
580.65	29701.40
580.82	29418.19
580.98	29708.42
581.14	29741.19
581.30	29802.04
581.46	29802.04
581.62	29315.21
581.78	29078.82
581.94	30043.12
582.10	29450.96
582.26	29617.14
582.42	29682.67
582.58	29972.90
582.74	29596.07
582.90	29853.53
583.06	29696.72
583.22	29586.71
583.38	30043.12
583.54	29654.59
583.70	29523.52
583.86	29326.91
584.02	29455.64
584.18	30211.64
584.34	30206.95
584.50	30108.65
584.66	29752.89
584.82	29357.34
584.98	29717.78
585.14	29696.72
585.30	29713.10
585.46	29635.86
585.62	29385.43
585.78	29677.99
585.94	29408.83
586.10	30199.93
586.26	30085.25
586.42	30052.48
586.58	29890.98
586.74	29771.61
586.90	29663.95
587.06	29724.80
587.22	29900.34
587.38	29715.44
587.54	30195.25
587.70	29916.73
587.86	29713.10
588.02	30192.91
588.18	29949.50
588.34	29996.31
588.49	30082.91
588.65	29881.62
588.81	29734.17
588.97	29876.94
589.13	29839.49
589.29	29928.43
589.45	29802.04
589.61	30167.16
589.77	30036.09
589.93	30160.14
590.08	30115.67
590.24	29865.24
590.40	30024.39
590.56	30263.13
590.72	29888.64
590.88	29951.84
591.04	29982.26
591.20	29930.77
591.35	30300.58
591.51	30323.98
591.67	30036.09
591.83	30611.87
591.99	30267.81
