SpectraSuite Data File
++++++++++++++++++++++++++++++++++++
Date: Fri Oct 18 13:58:11 GMT-05:00 2013
User: bianchi
Dark Spectrum Present: No
Reference Spectrum Present: No
Number of Sampled Component Spectra: 1
Spectrometers: USB2+H05261
Integration Time (usec): 50000 (USB2+H05261)
Spectra Averaged: 1 (USB2+H05261)
Boxcar Smoothing: 0 (USB2+H05261)
Correct for Electrical Dark: No (USB2+H05261)
Strobe/Lamp Enabled: No (USB2+H05261)
Correct for Detector Non-linearity: No (USB2+H05261)
Correct for Stray Light: No (USB2+H05261)
Number of Pixels in Processed Spectrum: 2048
>>>>>Begin Processed Spectral Data<<<<<
365.73	0.00
365.92	0.00
366.12	0.00
366.32	0.00
366.52	0.00
366.72	0.00
366.91	0.00
367.11	0.00
367.31	0.00
367.51	0.00
367.70	0.00
367.90	0.00
368.10	0.00
368.30	0.00
368.49	0.00
368.69	0.00
368.89	0.00
369.09	0.00
369.28	0.00
369.48	0.00
369.68	0.00
369.87	0.00
370.07	0.00
370.27	0.00
370.47	0.00
370.66	110.01
370.86	72.56
371.06	210.65
371.25	131.07
371.45	152.13
371.65	170.86
371.84	156.82
372.04	152.13
372.24	163.84
372.44	100.64
372.63	182.56
372.83	227.03
373.03	210.65
373.22	154.48
373.42	234.05
373.62	198.95
373.81	212.99
374.01	283.20
374.21	264.48
374.40	224.69
374.60	339.38
374.79	290.23
374.99	203.63
375.19	168.52
375.38	332.36
375.58	252.78
375.78	241.08
375.97	222.35
376.17	353.42
376.37	203.63
376.56	196.60
376.76	264.48
376.95	280.86
377.15	236.39
377.35	355.76
377.54	271.50
377.74	259.80
377.93	255.12
378.13	236.39
378.33	250.44
378.52	290.23
378.72	313.63
378.91	290.23
379.11	245.76
379.31	280.86
379.50	238.73
379.70	311.29
379.89	271.50
380.09	322.99
380.28	301.93
380.48	313.63
380.68	308.95
380.87	269.16
381.07	280.86
381.26	353.42
381.46	327.68
381.65	318.31
381.85	294.91
382.04	414.27
382.24	297.25
382.43	311.29
382.63	330.02
382.83	383.85
383.02	393.21
383.22	376.83
383.41	367.46
383.61	346.40
383.80	397.89
384.00	362.78
384.19	351.08
384.39	308.95
384.58	327.68
384.78	395.55
384.97	353.42
385.17	433.00
385.36	409.59
385.56	322.99
385.75	341.72
385.95	379.17
386.14	437.68
386.34	367.46
386.53	433.00
386.72	430.66
386.92	430.66
387.11	456.40
387.31	430.66
387.50	465.77
387.70	411.93
387.89	465.77
388.09	486.83
388.28	388.53
388.48	477.47
388.67	451.72
388.86	407.25
389.06	472.79
389.25	458.74
389.45	437.68
389.64	461.09
389.84	430.66
390.03	496.19
390.22	519.60
390.42	444.70
390.61	388.53
390.81	491.51
391.00	559.39
391.19	608.54
391.39	552.37
391.58	571.09
391.78	571.09
391.97	505.56
392.16	538.32
392.36	545.34
392.55	559.39
392.75	535.98
392.94	533.64
393.13	489.17
393.33	603.86
393.52	552.37
393.71	550.03
393.91	601.52
394.10	547.69
394.29	636.63
394.49	540.66
394.68	645.99
394.88	631.94
395.07	699.82
395.26	613.22
395.46	716.20
395.65	650.67
395.84	678.76
396.04	688.12
396.23	622.58
396.42	650.67
396.62	624.92
396.81	709.18
397.00	575.77
397.19	730.25
397.39	627.26
397.58	676.41
397.77	692.80
397.97	718.54
398.16	683.44
398.35	711.52
398.55	734.93
398.74	767.70
398.93	713.86
399.12	706.84
399.32	706.84
399.51	753.65
399.70	760.67
399.90	713.86
400.09	692.80
400.28	793.44
400.47	725.57
400.67	737.27
400.86	730.25
401.05	746.63
401.24	884.72
401.44	760.67
401.63	840.25
401.82	786.42
402.01	830.89
402.21	908.13
402.40	875.36
402.59	816.85
402.78	887.06
402.97	793.44
403.17	863.66
403.36	917.49
403.55	854.30
403.74	912.81
403.93	966.64
404.13	887.06
404.32	917.49
404.51	873.02
404.70	1041.54
404.89	903.45
405.09	994.73
405.28	1013.45
405.47	894.08
405.66	1067.28
405.85	903.45
406.05	1093.03
406.24	1097.71
406.43	978.34
406.62	1015.79
406.81	1116.44
407.00	990.05
407.20	1022.81
407.39	976.00
407.58	1125.80
407.77	1116.44
407.96	1057.92
408.15	1149.20
408.34	1163.25
408.54	1128.14
408.73	1184.31
408.92	1083.67
409.11	1130.48
409.30	1114.10
409.49	1156.22
409.68	1247.51
409.87	1128.14
410.07	1210.06
410.26	1142.18
410.45	1170.27
410.64	1181.97
410.83	1294.32
411.02	1249.85
411.21	1266.23
411.40	1217.08
411.59	1275.59
411.78	1329.42
411.98	1261.55
412.17	1387.94
412.36	1355.17
412.55	1390.28
412.74	1481.56
412.93	1310.70
413.12	1357.51
413.31	1427.73
413.50	1430.07
413.69	1331.76
413.88	1537.73
414.07	1530.71
414.26	1582.20
414.45	1549.43
414.64	1437.09
414.83	1537.73
415.02	1495.60
415.22	1504.96
415.41	1537.73
415.60	1556.46
415.79	1519.01
415.98	1664.12
416.17	1652.42
416.36	1673.48
416.55	1540.07
416.74	1614.97
416.93	1671.14
417.12	1701.57
417.31	1650.08
417.50	1720.29
417.69	1633.69
417.88	1732.00
418.07	1764.76
418.26	1830.30
418.45	1722.63
418.64	1795.19
418.83	1886.47
419.02	1830.30
419.21	1844.34
419.39	1849.02
419.58	1802.21
419.77	1769.44
419.96	1870.09
420.15	1867.75
420.34	1975.41
420.53	1900.52
420.72	2003.50
420.91	1881.79
421.10	2083.08
421.29	1907.54
421.48	1921.58
421.67	2139.25
421.86	1998.82
422.05	1968.39
422.24	1907.54
422.43	2040.95
422.61	1959.03
422.80	1909.88
422.99	2003.50
423.18	2033.93
423.37	1987.11
423.56	2012.86
423.75	2083.08
423.94	1975.41
424.13	1947.33
424.32	1912.22
424.50	2139.25
424.69	2165.00
424.88	1982.43
425.07	2010.52
425.26	2040.95
425.45	2038.61
425.64	2092.44
425.83	2104.14
426.01	2106.48
426.20	2076.06
426.39	2080.74
426.58	2090.10
426.77	2101.80
426.96	2069.03
427.15	2181.38
427.33	2190.74
427.52	2148.61
427.71	2200.10
427.90	2169.68
428.09	2293.72
428.28	2125.21
428.46	2174.36
428.65	2253.94
428.84	2286.70
429.03	2312.45
429.22	2218.83
429.40	2277.34
429.59	2232.87
429.78	2246.91
429.97	2232.87
430.16	2188.40
430.34	2368.62
430.53	2427.14
430.72	2431.82
430.91	2347.56
431.10	2251.60
431.28	2438.84
431.47	2469.27
431.66	2518.42
431.85	2300.75
432.03	2495.01
432.22	2502.03
432.41	2523.10
432.60	2387.35
432.79	2436.50
432.97	2551.18
433.16	2438.84
433.35	2539.48
433.54	2415.43
433.72	2436.50
433.91	2619.06
434.10	2520.76
434.28	2441.18
434.47	2609.70
434.66	2513.74
434.85	2633.10
435.03	2675.23
435.22	2726.72
435.41	2689.28
435.59	2686.94
435.78	2686.94
435.97	2658.85
436.16	2654.17
436.34	2785.24
436.53	2691.62
436.72	2743.11
436.90	2771.19
437.09	2747.79
437.28	2764.17
437.46	2663.53
437.65	2738.43
437.84	2850.77
438.02	2782.90
438.21	2895.24
438.40	2747.79
438.58	2911.63
438.77	2923.33
438.96	2935.03
439.14	2974.82
439.33	2981.84
439.52	3033.33
439.70	3026.31
439.89	2993.55
440.08	2972.48
440.26	3105.89
440.45	3187.81
440.63	3049.72
440.82	3232.28
441.01	3068.44
441.19	3152.70
441.38	3173.77
441.57	3171.43
441.75	3330.58
441.94	3293.13
442.12	3349.31
442.31	3412.50
442.50	3391.44
442.68	3370.37
442.87	3316.54
443.05	3548.25
443.24	3454.63
443.43	3506.12
443.61	3447.61
443.80	3431.23
443.98	3353.99
444.17	3246.32
444.35	3480.38
444.54	3545.91
444.73	3513.14
444.91	3658.26
445.10	3463.99
445.28	3494.42
445.47	3588.04
445.65	3503.78
445.84	3641.87
446.02	3524.85
446.21	3564.64
446.39	3552.93
446.58	3536.55
446.77	3545.91
446.95	3503.78
447.14	3447.61
447.32	3585.70
447.51	3536.55
447.69	3564.64
447.88	3595.06
448.06	3616.13
448.25	3506.12
448.43	3581.02
448.62	3627.83
448.80	3571.66
448.99	3496.76
449.17	3637.19
449.36	3779.97
449.54	3705.07
449.73	3866.56
449.91	3810.39
450.10	3791.67
450.28	3723.79
450.46	3889.97
450.65	3831.46
450.83	3782.31
451.02	3796.35
451.20	3880.61
451.39	3896.99
451.57	3789.33
451.76	3805.71
451.94	3887.63
452.13	3875.93
452.31	3971.89
452.49	3955.51
452.68	3969.55
452.86	3957.85
453.05	3953.16
453.23	4009.34
453.42	3962.53
453.60	4028.06
453.78	4091.26
453.97	3885.29
454.15	3908.69
454.34	3990.61
454.52	3857.20
454.70	4028.06
454.89	4060.83
455.07	4002.32
455.26	4011.68
455.44	4170.83
455.62	4381.48
455.81	4135.73
455.99	4152.11
456.17	4241.05
456.36	4264.46
456.54	4287.86
456.73	4337.01
456.91	4320.63
457.09	4528.94
457.28	4409.57
457.46	4477.44
457.64	4308.93
457.83	4388.50
458.01	4292.54
458.19	4486.81
458.38	4421.27
458.56	4557.02
458.74	4571.07
458.93	4596.81
459.11	4486.81
459.29	4498.51
459.48	4599.15
459.66	4596.81
459.84	4770.01
460.03	4793.42
460.21	4648.30
460.39	4491.49
460.57	4482.13
460.76	4828.53
460.94	4685.75
461.12	4615.54
461.31	4709.16
461.49	4711.50
461.67	4753.63
461.85	4784.06
462.04	4699.80
462.22	4990.02
462.40	4851.93
462.59	4758.31
462.77	4905.76
462.95	4823.84
463.13	4854.27
463.32	4919.81
463.50	4922.15
463.68	4957.25
463.86	5083.64
464.05	4865.97
464.23	5025.13
464.41	5064.92
464.59	4727.88
464.78	5006.41
464.96	4966.62
465.14	5060.24
465.32	4990.02
465.50	5102.37
465.69	5142.16
465.87	5167.90
466.05	5200.67
466.23	5071.94
466.41	5055.56
466.60	5366.85
466.78	5069.60
466.96	5172.58
467.14	5107.05
467.32	5221.74
467.51	5298.97
467.69	5263.86
467.87	5275.57
468.05	5270.89
468.23	5214.71
468.41	5254.50
468.60	5441.75
468.78	5315.36
468.96	5350.46
469.14	5453.45
469.32	5502.60
469.50	5327.06
469.69	5575.16
469.87	5549.41
470.05	5748.36
470.23	5493.24
470.41	5500.26
470.59	5661.76
470.77	5556.43
470.95	5668.78
471.14	5561.11
471.32	5687.50
471.50	5731.97
471.68	5652.39
471.86	5748.36
472.04	5865.38
472.22	5708.57
472.40	5844.32
472.58	5708.57
472.77	5703.89
472.95	5989.43
473.13	6122.84
473.31	5888.79
473.49	5823.25
473.67	5827.93
473.85	6043.26
474.03	6200.08
474.21	6157.95
474.39	6174.33
474.57	6230.51
474.75	6361.58
474.93	6410.73
475.12	6183.70
475.30	6373.28
475.48	6204.76
475.66	6352.21
475.84	6485.62
476.02	6438.81
476.20	6466.90
476.38	6668.19
476.56	6644.78
476.74	6731.38
476.92	6586.27
477.10	6693.93
477.28	6766.49
477.46	6710.32
477.64	6862.45
477.82	6965.43
478.00	7052.03
478.18	7000.54
478.36	7066.08
478.54	7286.09
478.72	7059.06
478.90	7279.07
479.08	7466.31
479.26	7410.14
479.44	7435.88
479.62	7480.35
479.80	7592.70
479.98	7733.13
480.16	7793.98
480.34	7686.32
480.52	7817.39
480.70	7868.88
480.88	7758.88
481.06	7861.86
481.24	7836.11
481.41	8112.30
481.59	8175.49
481.77	8219.96
481.95	8212.94
482.13	8250.39
482.31	8332.31
482.49	8561.68
482.67	8332.31
482.85	8575.72
483.03	8643.60
483.21	8861.27
483.39	8830.84
483.57	8678.71
483.74	8842.54
483.92	8816.80
484.10	8674.03
484.28	9167.88
484.46	9088.30
484.64	9200.65
484.82	9100.00
485.00	9547.05
485.18	9521.30
485.35	9565.77
485.53	9635.99
485.71	9694.50
485.89	9935.57
486.07	9605.56
486.25	9858.34
486.43	9914.51
486.61	10181.33
486.78	10068.98
486.96	10174.31
487.14	10469.22
487.32	10120.48
487.50	10410.70
487.68	10527.73
487.85	10413.04
488.03	10661.14
488.21	10984.13
488.39	10808.59
488.57	10747.74
488.75	10754.76
488.92	11157.33
489.10	11164.36
489.28	11370.32
489.46	11463.94
489.64	11473.31
489.81	11515.44
489.99	11676.93
490.17	11695.66
490.35	11702.68
490.53	11550.54
490.70	11831.41
490.88	11934.39
491.06	12006.95
491.24	11983.54
491.41	12102.91
491.59	12325.26
491.77	12465.69
491.95	12538.25
492.13	12564.00
492.30	12585.06
492.48	12697.41
492.66	12472.71
492.84	12650.60
493.01	12917.42
493.19	12819.11
493.37	13149.13
493.54	13200.62
493.72	13158.49
493.90	13296.58
494.08	13015.72
494.25	13364.46
494.43	13486.17
494.61	13783.41
494.79	13884.06
494.96	13813.84
495.14	13631.28
495.32	13919.17
495.49	13654.69
495.67	13998.74
495.85	14183.65
496.02	14216.41
496.20	14246.84
496.38	14298.33
496.55	14167.26
496.73	14537.07
496.91	14590.90
497.09	14707.93
497.26	14846.02
497.44	14373.23
497.62	14757.08
497.79	15026.24
497.97	14775.80
498.14	15087.09
498.32	15077.73
498.50	15166.67
498.67	15363.28
498.85	15337.53
499.03	15557.54
499.20	15297.74
499.38	15492.01
499.56	15704.99
499.73	15641.80
499.91	15597.33
500.08	15957.77
500.26	15723.72
500.44	15810.32
500.61	15602.01
500.79	16311.19
500.97	16032.67
501.14	16222.25
501.32	16180.12
501.49	16229.27
501.67	16149.70
501.84	16313.53
502.02	16329.92
502.20	16641.21
502.37	16624.83
502.55	16580.36
502.72	16519.50
502.90	16683.34
503.07	16545.25
503.25	16655.25
503.43	16484.39
503.60	16643.55
503.78	16980.59
503.95	16940.80
504.13	16943.14
504.30	17310.60
504.48	17114.00
504.65	17167.83
504.83	17483.80
505.01	17551.68
505.18	17376.14
505.36	17462.74
505.53	17345.71
505.71	17425.29
505.88	17685.09
506.06	17776.37
506.23	17619.55
506.41	17930.84
506.58	17853.61
506.76	18272.56
506.93	17977.65
507.11	18125.11
507.28	17989.36
507.46	17916.80
507.63	18326.39
507.81	17954.25
507.98	18162.56
508.16	18113.41
508.33	18600.24
508.50	18200.01
508.68	18555.77
508.85	18640.03
509.03	18317.03
509.20	18857.70
509.38	18806.20
509.55	18740.67
509.73	18511.30
509.90	18869.40
510.08	18871.74
510.25	18909.19
510.42	19145.58
510.60	18946.64
510.77	19178.35
510.95	19480.28
511.12	19007.49
511.30	19112.81
511.47	19262.61
511.64	19267.29
511.82	19632.41
511.99	19651.14
512.17	19592.62
512.34	19702.63
512.51	19674.54
512.69	19903.92
512.86	19559.86
513.04	19934.34
513.21	20088.82
513.38	20163.72
513.56	19922.64
513.73	19817.32
513.90	19997.54
514.08	20287.76
514.25	19924.98
514.43	20257.34
514.60	20524.16
514.77	20215.21
514.95	20372.02
515.12	20269.04
515.29	20372.02
515.47	20067.75
515.64	20453.94
515.81	20648.21
515.99	21025.03
516.16	21074.18
516.33	20748.85
516.51	20765.23
516.68	20713.74
516.85	20613.10
517.03	20936.09
517.20	20947.79
517.37	21120.99
517.54	21319.94
517.72	21074.18
517.89	20947.79
518.06	21177.17
518.24	21036.74
518.41	20877.58
518.58	21785.71
518.75	21479.10
518.93	21469.73
519.10	21439.31
519.27	21584.42
519.45	21390.16
519.62	21617.19
519.79	21565.70
519.96	21455.69
520.14	21853.58
520.31	21394.84
520.48	21872.31
520.65	22251.47
520.83	21979.97
521.00	22150.83
521.17	21741.24
521.34	22169.55
521.52	21998.70
521.69	22281.90
521.86	22373.18
522.03	22314.67
522.20	22010.40
522.38	22359.14
522.55	22256.15
522.72	22719.58
522.89	22405.95
523.07	22852.99
523.24	22515.95
523.41	22452.76
523.58	22436.38
523.75	22494.89
523.92	22703.20
524.10	22415.31
524.27	22789.80
524.44	23044.91
524.61	23005.13
524.78	23077.68
524.96	22801.50
525.13	23065.98
525.30	23185.35
525.47	23035.55
525.64	23377.27
525.81	23206.41
525.98	23470.89
526.16	23070.66
526.33	23564.51
526.50	23934.32
526.67	23297.69
526.84	23349.18
527.01	23295.35
527.18	23571.54
527.36	23763.46
527.53	23913.25
527.70	24046.66
527.87	23974.11
528.04	23749.42
528.21	23889.85
528.38	23761.12
528.55	24336.89
528.72	24205.82
528.89	24332.21
529.07	23981.13
529.24	24393.06
529.41	24091.13
529.58	24343.91
529.75	24276.04
529.92	24500.73
530.09	24088.79
530.26	24608.39
530.43	24425.83
530.60	24332.21
530.77	24327.53
530.94	24505.41
531.11	24318.17
531.28	24177.73
531.46	24442.21
531.63	24680.95
531.80	24638.82
531.97	24683.29
532.14	24713.72
532.31	24842.45
532.48	24999.26
532.65	24694.99
532.82	24355.61
532.99	24835.42
533.16	24774.57
533.33	25254.38
533.50	25516.52
533.67	25111.61
533.84	25209.91
534.01	24732.44
534.18	24968.84
534.35	24950.11
534.52	24945.43
534.69	25462.69
534.86	25177.14
535.03	24992.24
535.20	25415.88
535.37	25345.66
535.54	25612.48
535.71	25205.23
535.88	25523.54
536.05	25238.00
536.22	25558.65
536.38	25631.21
536.55	25713.13
536.72	25715.47
536.89	25673.34
537.06	25542.27
537.23	25577.37
537.40	25851.22
537.57	25741.21
537.74	25596.10
537.91	26038.46
538.08	26075.91
538.25	25628.87
538.42	26026.76
538.59	25979.95
538.75	25399.49
538.92	26075.91
539.09	26206.98
539.26	26050.16
539.43	26291.24
539.60	26150.81
539.77	25844.20
539.94	26284.22
540.11	26394.22
540.28	26249.11
540.44	26396.56
540.61	26223.36
540.78	26532.31
540.95	26052.50
541.12	26567.42
541.29	26232.72
541.46	26281.88
541.62	26586.15
541.79	26831.90
541.96	26211.66
542.13	26544.02
542.30	26480.82
542.47	26843.60
542.63	26836.58
542.80	26857.65
542.97	27419.38
543.14	27218.09
543.31	26644.66
543.48	27101.06
543.64	27325.75
543.81	27433.42
543.98	27431.08
544.15	27384.27
544.32	27365.54
544.48	27367.88
544.65	27023.83
544.82	27136.17
544.99	26967.65
545.16	27374.91
545.32	27274.26
545.49	27679.18
545.66	27857.06
545.83	27459.16
546.00	27758.75
546.16	27585.55
546.33	27508.32
546.50	27262.56
546.67	27253.20
546.83	27414.69
547.00	27307.03
547.17	27337.46
547.34	27955.36
547.50	27777.48
547.67	27824.29
547.84	27835.99
548.00	28025.57
548.17	28208.14
548.34	27747.05
548.51	27852.38
548.67	28112.17
548.84	27957.70
549.01	28154.30
549.18	28161.33
549.34	27812.59
549.51	28217.50
549.68	28130.90
549.84	28158.99
550.01	28304.10
550.18	28074.73
550.34	28322.82
550.51	28297.08
550.68	28376.66
550.84	28343.89
551.01	28329.84
551.18	28294.74
551.34	28247.93
551.51	28341.55
551.68	28788.59
551.84	28797.95
552.01	28767.52
552.18	28577.94
552.34	28606.03
552.51	28683.27
552.68	28458.57
552.84	28411.76
553.01	28666.88
553.18	28716.03
553.34	28741.78
553.51	28877.53
553.67	28650.50
553.84	28837.74
554.01	28840.08
554.17	29326.91
554.34	28704.33
554.51	28800.29
554.67	29046.05
554.84	28926.68
555.00	28744.12
555.17	29053.07
555.33	28882.21
555.50	28912.64
555.67	29177.12
555.83	29181.80
556.00	28971.15
556.16	29254.36
556.33	28971.15
556.50	29284.78
556.66	28746.46
556.83	29214.57
556.99	29647.57
557.16	29481.39
557.32	29277.76
557.49	29586.71
557.65	29113.92
557.82	29158.39
557.98	28954.77
558.15	29350.32
558.32	29343.30
558.48	29132.65
558.65	29567.99
558.81	29734.17
558.98	29450.96
559.14	29406.49
559.31	29600.76
559.47	29338.62
559.64	29827.79
559.80	29605.44
559.97	29876.94
560.13	29399.47
560.30	29649.91
560.46	29642.88
560.63	29558.63
560.79	29570.33
560.96	29626.50
561.12	29792.68
561.29	29488.41
561.45	29638.20
561.61	29537.56
561.78	29614.80
561.94	29965.88
562.11	30054.82
562.27	29532.88
562.44	29591.39
562.60	29970.56
562.77	29567.99
562.93	29731.83
563.10	29907.37
563.26	29795.02
563.42	30059.50
563.59	29790.34
563.75	29928.43
563.92	29916.73
564.08	29841.83
564.24	30000.99
564.41	29766.93
564.57	29916.73
564.74	30080.56
564.90	30213.98
565.07	30176.53
565.23	30057.16
565.39	30232.70
565.56	30204.61
565.72	30113.33
565.88	30136.74
566.05	29876.94
566.21	29886.30
566.38	30026.73
566.54	30293.55
566.70	30169.51
566.87	30284.19
567.03	30284.19
567.19	30272.49
567.36	30384.83
567.52	29970.56
567.68	30382.49
567.85	30506.54
568.01	29844.17
568.17	30202.27
568.34	30506.54
568.50	30143.76
568.66	30665.70
568.83	30331.00
568.99	30307.60
569.15	30129.72
569.32	30441.01
569.48	30359.09
569.64	30632.93
569.81	30930.18
569.97	30321.64
570.13	30600.16
570.30	30527.61
570.46	30281.85
570.62	30120.35
570.78	29823.11
570.95	30279.51
571.11	30188.23
571.27	30080.56
571.43	30483.14
571.60	30373.13
571.76	30167.16
571.92	30597.82
572.09	30717.19
572.25	30494.84
572.41	30293.55
572.57	30426.96
572.74	30698.47
572.90	30244.40
573.06	30008.01
573.22	30747.62
573.38	30260.79
573.55	30225.68
573.71	30726.55
573.87	30689.10
574.03	30749.96
574.20	30558.03
574.36	30368.45
574.52	30558.03
574.68	30497.18
574.84	30480.80
575.01	30565.06
575.17	30665.70
575.33	30768.68
575.49	30188.23
575.65	30684.42
575.82	30852.94
575.98	30808.47
576.14	30714.85
576.30	30967.63
576.46	30384.83
576.62	30281.85
576.79	30469.09
576.95	30829.54
577.11	30764.00
577.27	30735.92
577.43	30976.99
577.59	30668.04
577.75	30759.32
577.92	30553.35
578.08	30478.46
578.24	30586.12
578.40	30588.46
578.56	30881.03
578.72	30483.14
578.88	30909.11
579.04	31180.62
579.21	30895.07
579.37	31386.58
579.53	30740.60
579.69	30487.82
579.85	30752.30
580.01	30677.40
580.17	30698.47
580.33	30527.61
580.49	30426.96
580.65	30995.71
580.82	31012.10
580.98	30998.06
581.14	30752.30
581.30	30911.46
581.46	30710.17
581.62	30768.68
581.78	30562.72
581.94	30677.40
582.10	30696.13
582.26	30897.41
582.42	30857.62
582.58	31145.51
582.74	30953.58
582.90	31498.93
583.06	30913.80
583.22	30679.74
583.38	30567.40
583.54	30654.00
583.70	30419.94
583.86	30946.56
584.02	30803.79
584.18	30995.71
584.34	30892.73
584.50	31119.76
584.66	30939.54
584.82	30799.11
584.98	30684.42
585.14	30520.59
585.30	30689.10
585.46	30794.43
585.62	30656.34
585.78	30796.77
585.94	30937.20
586.10	30768.68
586.26	30738.26
586.42	30918.48
586.58	30885.71
586.74	30962.95
586.90	30679.74
587.06	30551.01
587.22	30988.69
587.38	30462.07
587.54	30911.46
587.70	31482.55
587.86	31070.61
588.02	31117.42
588.18	31494.25
588.34	31407.65
588.49	30974.65
588.65	30946.56
588.81	30906.77
588.97	31545.74
589.13	31096.36
589.29	30927.84
589.45	31505.95
589.61	31058.91
589.77	31421.69
589.93	31117.42
590.08	31351.48
590.24	31030.82
590.40	30958.27
590.56	31452.12
590.72	31391.26
590.88	31225.09
591.04	31161.89
591.20	31412.33
591.35	31346.79
591.51	32039.59
591.67	31461.48
591.83	31428.71
