SpectraSuite Data File
++++++++++++++++++++++++++++++++++++
Date: Fri Oct 18 13:58:03 GMT-05:00 2013
User: bianchi
Dark Spectrum Present: No
Reference Spectrum Present: No
Number of Sampled Component Spectra: 1
Spectrometers: USB2+H05261
Integration Time (usec): 50000 (USB2+H05261)
Spectra Averaged: 1 (USB2+H05261)
Boxcar Smoothing: 0 (USB2+H05261)
Correct for Electrical Dark: No (USB2+H05261)
Strobe/Lamp Enabled: No (USB2+H05261)
Correct for Detector Non-linearity: No (USB2+H05261)
Correct for Stray Light: No (USB2+H05261)
Number of Pixels in Processed Spectrum: 2048
>>>>>Begin Processed Spectral Data<<<<<
365.73	0.00
365.92	0.00
366.12	0.00
366.32	0.00
366.52	0.00
366.72	0.00
366.91	0.00
367.11	0.00
367.31	0.00
367.51	0.00
367.70	0.00
367.90	0.00
368.10	0.00
368.30	0.00
368.49	0.00
368.69	0.00
368.89	0.00
369.09	0.00
369.28	0.00
369.48	0.00
369.68	0.00
369.87	0.00
370.07	0.00
370.27	0.00
370.47	11.70
370.66	39.79
370.86	65.54
371.06	255.12
371.25	161.50
371.45	81.92
371.65	135.75
371.84	114.69
372.04	168.52
372.24	154.48
372.44	156.82
372.63	159.16
372.83	194.26
373.03	227.03
373.22	161.50
373.42	266.82
373.62	238.73
373.81	227.03
374.01	222.35
374.21	198.95
374.40	259.80
374.60	236.39
374.79	278.52
374.99	234.05
375.19	248.10
375.38	262.14
375.58	259.80
375.78	306.61
375.97	252.78
376.17	306.61
376.37	234.05
376.56	292.57
376.76	198.95
376.95	257.46
377.15	229.37
377.35	220.01
377.54	248.10
377.74	241.08
377.93	229.37
378.13	271.50
378.33	269.16
378.52	285.55
378.72	208.31
378.91	348.74
379.11	273.84
379.31	320.65
379.50	271.50
379.70	311.29
379.89	311.29
380.09	332.36
380.28	337.04
380.48	287.89
380.68	318.31
380.87	287.89
381.07	285.55
381.26	360.44
381.46	376.83
381.65	365.12
381.85	332.36
382.04	348.74
382.24	383.85
382.43	313.63
382.63	348.74
382.83	367.46
383.02	280.86
383.22	449.38
383.41	308.95
383.61	367.46
383.80	423.64
384.00	332.36
384.19	330.02
384.39	379.17
384.58	418.96
384.78	418.96
384.97	430.66
385.17	379.17
385.36	360.44
385.56	330.02
385.75	393.21
385.95	374.49
386.14	402.57
386.34	442.36
386.53	437.68
386.72	383.85
386.92	444.70
387.11	388.53
387.31	435.34
387.50	463.43
387.70	451.72
387.89	428.32
388.09	435.34
388.28	491.51
388.48	423.64
388.67	428.32
388.86	423.64
389.06	435.34
389.25	451.72
389.45	430.66
389.64	535.98
389.84	545.34
390.03	372.15
390.22	538.32
390.42	447.04
390.61	433.00
390.81	404.91
391.00	486.83
391.19	456.40
391.39	491.51
391.58	557.05
391.78	463.43
391.97	587.47
392.16	521.94
392.36	601.52
392.55	510.24
392.75	482.15
392.94	493.85
393.13	580.45
393.33	531.30
393.52	521.94
393.71	543.00
393.91	606.20
394.10	617.90
394.29	533.64
394.49	631.94
394.68	559.39
394.88	641.31
395.07	650.67
395.26	678.76
395.46	608.54
395.65	664.71
395.84	606.20
396.04	653.01
396.23	683.44
396.42	636.63
396.62	617.90
396.81	660.03
397.00	655.35
397.19	648.33
397.39	601.52
397.58	702.16
397.77	603.86
397.97	617.90
398.16	727.91
398.35	720.88
398.55	589.82
398.74	760.67
398.93	732.59
399.12	725.57
399.32	692.80
399.51	706.84
399.70	763.01
399.90	784.08
400.09	840.25
400.28	828.55
400.47	702.16
400.67	739.61
400.86	837.91
401.05	767.70
401.24	716.20
401.44	858.98
401.63	793.44
401.82	873.02
402.01	772.38
402.21	786.42
402.40	772.38
402.59	870.68
402.78	793.44
402.97	748.97
403.17	891.74
403.36	882.38
403.55	912.81
403.74	816.85
403.93	933.87
404.13	877.70
404.32	919.83
404.51	1011.11
404.70	908.13
404.89	896.43
405.09	926.85
405.28	922.17
405.47	959.62
405.66	924.51
405.85	985.37
406.05	940.90
406.24	938.55
406.43	943.24
406.62	968.98
406.81	1090.69
407.00	990.05
407.20	961.96
407.39	1039.20
407.58	1046.22
407.77	1006.43
407.96	1125.80
408.15	1036.86
408.34	1095.37
408.54	1053.24
408.73	1118.78
408.92	1109.41
409.11	1074.31
409.30	1116.44
409.49	1074.31
409.68	1160.91
409.87	1149.20
410.07	1179.63
410.26	1118.78
410.45	1121.12
410.64	1156.22
410.83	1275.59
411.02	1273.25
411.21	1275.59
411.40	1249.85
411.59	1385.60
411.78	1259.21
411.98	1275.59
412.17	1376.24
412.36	1294.32
412.55	1355.17
412.74	1357.51
412.93	1369.21
413.12	1249.85
413.31	1427.73
413.50	1357.51
413.69	1390.28
413.88	1439.43
414.07	1488.58
414.26	1423.05
414.45	1401.98
414.64	1416.02
414.83	1502.62
415.02	1474.54
415.22	1535.39
415.41	1600.93
415.60	1579.86
415.79	1570.50
415.98	1535.39
416.17	1586.88
416.36	1570.50
416.55	1582.20
416.74	1708.59
416.93	1547.09
417.12	1652.42
417.31	1549.43
417.50	1640.72
417.69	1640.72
417.88	1750.72
418.07	1746.04
418.26	1736.68
418.45	1853.70
418.64	1874.77
418.83	1863.07
419.02	1755.40
419.21	1764.76
419.39	1809.23
419.58	1717.95
419.77	1846.68
419.96	1795.19
420.15	1863.07
420.34	1900.52
420.53	1884.13
420.72	1935.62
420.91	1874.77
421.10	2017.54
421.29	1907.54
421.48	1830.30
421.67	2001.16
421.86	1942.64
422.05	1954.35
422.24	1912.22
422.43	1928.60
422.61	1900.52
422.80	2019.88
422.99	2050.31
423.18	2012.86
423.37	2080.74
423.56	1952.01
423.75	2125.21
423.94	2015.20
424.13	1912.22
424.32	1940.30
424.50	1996.48
424.69	1994.14
424.88	1956.69
425.07	1928.60
425.26	2029.24
425.45	1968.39
425.64	1944.99
425.83	1959.03
426.01	2029.24
426.20	1998.82
426.39	2033.93
426.58	2001.16
426.77	2097.12
426.96	2073.71
427.15	2160.31
427.33	2148.61
427.52	2146.27
427.71	2132.23
427.90	2174.36
428.09	2167.34
428.28	2244.57
428.46	2183.72
428.65	1989.46
428.84	2218.83
429.03	2249.25
429.22	2165.00
429.40	2249.25
429.59	2181.38
429.78	2146.27
429.97	2186.06
430.16	2214.15
430.34	2223.51
430.53	2307.77
430.72	2340.54
430.91	2296.07
431.10	2265.64
431.28	2366.28
431.47	2415.43
431.66	2389.69
431.85	2221.17
432.03	2452.88
432.22	2490.33
432.41	2387.35
432.60	2431.82
432.79	2403.73
432.97	2513.74
433.16	2459.90
433.35	2504.37
433.54	2530.12
433.72	2492.67
433.91	2558.21
434.10	2490.33
434.28	2539.48
434.47	2597.99
434.66	2534.80
434.85	2574.59
435.03	2576.93
435.22	2560.55
435.41	2579.27
435.59	2644.81
435.78	2628.42
435.97	2586.29
436.16	2684.59
436.34	2633.10
436.53	2635.44
436.72	2806.30
436.90	2712.68
437.09	2773.53
437.28	2745.45
437.46	2782.90
437.65	2771.19
437.84	2853.11
438.02	2850.77
438.21	2801.62
438.40	2679.91
438.58	2913.97
438.77	2874.18
438.96	2895.24
439.14	2949.08
439.33	2916.31
439.52	3080.14
439.70	2920.99
439.89	2998.23
440.08	3220.58
440.26	3056.74
440.45	3052.06
440.63	2949.08
440.82	3066.10
441.01	3094.19
441.19	3087.17
441.38	3234.62
441.57	3126.96
441.75	3311.86
441.94	3318.88
442.12	3339.94
442.31	3459.31
442.50	3440.59
442.68	3372.71
442.87	3229.94
443.05	3180.79
443.24	3414.84
443.43	3318.88
443.61	3192.49
443.80	3550.59
443.98	3365.69
444.17	3246.32
444.35	3314.20
444.54	3494.42
444.73	3412.50
444.91	3337.60
445.10	3396.12
445.28	3251.00
445.47	3370.37
445.65	3517.83
445.84	3489.74
446.02	3552.93
446.21	3499.10
446.39	3356.33
446.58	3585.70
446.77	3412.50
446.95	3510.80
447.14	3590.38
447.32	3597.40
447.51	3398.46
447.69	3536.55
447.88	3520.17
448.06	3658.26
448.25	3569.32
448.43	3456.97
448.62	3426.54
448.80	3475.70
448.99	3557.61
449.17	3616.13
449.36	3459.31
449.54	3653.58
449.73	3669.96
449.91	3749.54
450.10	3833.80
450.28	3836.14
450.46	3728.47
450.65	3625.49
450.83	3712.09
451.02	3747.20
451.20	3913.38
451.39	3721.45
451.57	3712.09
451.76	3824.44
451.94	3920.40
452.13	3948.48
452.31	3861.88
452.49	3801.03
452.68	3878.27
452.86	3749.54
453.05	3826.78
453.23	3953.16
453.42	3843.16
453.60	3978.91
453.78	3941.46
453.97	3871.25
454.15	3927.42
454.34	3941.46
454.52	4109.98
454.70	4063.17
454.89	4088.92
455.07	4016.36
455.26	3922.74
455.44	4201.26
455.62	4138.07
455.81	4086.58
455.99	4091.26
456.17	4252.75
456.36	4154.45
456.54	4248.07
456.73	4227.01
456.91	4315.95
457.09	4285.52
457.28	4271.48
457.46	4149.77
457.64	4320.63
457.83	4383.82
458.01	4348.72
458.19	4479.79
458.38	4428.29
458.56	4500.85
458.74	4449.36
458.93	4348.72
459.11	4454.04
459.29	4386.16
459.48	4456.38
459.66	4510.21
459.84	4599.15
460.03	4547.66
460.21	4592.13
460.39	4550.00
460.57	4521.92
460.76	4599.15
460.94	4615.54
461.12	4643.62
461.31	4674.05
461.49	4519.57
461.67	4641.28
461.85	4760.65
462.04	4704.48
462.22	4746.61
462.40	4826.18
462.59	4809.80
462.77	4901.08
462.95	4798.10
463.13	4723.20
463.32	4784.06
463.50	4830.87
463.68	4809.80
463.86	4755.97
464.05	4865.97
464.23	4830.87
464.41	4968.96
464.59	4936.19
464.78	4882.36
464.96	4905.76
465.14	4910.44
465.32	4952.57
465.50	5081.30
465.69	4983.00
465.87	5013.43
466.05	5085.98
466.23	4868.31
466.41	5074.28
466.60	5149.18
466.78	5081.30
466.96	4990.02
467.14	4901.08
467.32	5205.35
467.51	5282.59
467.69	5093.01
467.87	5198.33
468.05	5139.82
468.23	5109.39
468.41	5097.69
468.60	5135.14
468.78	5465.15
468.96	5233.44
469.14	5153.86
469.32	5446.43
469.50	5348.12
469.69	5380.89
469.87	5327.06
470.05	5572.82
470.23	5476.85
470.41	5408.98
470.59	5493.24
470.77	5359.83
470.95	5568.13
471.14	5720.27
471.32	5408.98
471.50	5596.22
471.68	5682.82
471.86	5579.84
472.04	5650.05
472.22	5738.99
472.40	5628.99
472.58	5586.86
472.77	5643.03
472.95	5966.03
473.13	5942.62
473.31	5895.81
473.49	5841.98
473.67	5872.40
473.85	5865.38
474.03	5970.71
474.21	5956.66
474.39	6076.03
474.57	6043.26
474.75	6258.59
474.93	6216.46
475.12	6108.80
475.30	6274.98
475.48	6232.85
475.66	6314.77
475.84	6181.35
476.02	6335.83
476.20	6471.58
476.38	6523.07
476.56	6670.53
476.74	6668.19
476.92	6642.44
477.10	6677.55
477.28	6619.04
477.46	6469.24
477.64	6628.40
477.82	6906.92
478.00	7012.24
478.18	6843.73
478.36	7002.88
478.54	7033.31
478.72	7166.72
478.90	7073.10
479.08	7232.26
479.26	7375.03
479.44	7236.94
479.62	7229.91
479.80	7412.48
479.98	7424.18
480.16	7412.48
480.34	7375.03
480.52	7637.17
480.70	7747.17
480.88	7480.35
481.06	7714.41
481.24	7595.04
481.41	7967.18
481.59	7990.59
481.77	8037.40
481.95	7988.25
482.13	8212.94
482.31	8037.40
482.49	8423.59
482.67	8285.50
482.85	8552.32
483.03	8568.70
483.21	8463.38
483.39	8566.36
483.57	8720.84
483.74	8657.64
483.92	8748.92
484.10	8713.81
484.28	8720.84
484.46	9149.15
484.64	9078.94
484.82	8982.98
485.00	9027.45
485.18	9270.86
485.35	9338.74
485.53	9423.00
485.71	9525.98
485.89	9720.24
486.07	9657.05
486.25	9528.32
486.43	9851.31
486.61	9881.74
486.78	9907.49
486.96	9809.19
487.14	10235.16
487.32	10225.80
487.50	10200.05
487.68	10197.71
487.85	10263.25
488.03	10548.79
488.21	10523.05
488.39	10658.80
488.57	10675.18
488.75	10663.48
488.92	10909.24
489.10	11147.97
489.28	10897.53
489.46	11030.94
489.64	11157.33
489.81	11302.45
489.99	11227.55
490.17	11250.96
490.35	11754.17
490.53	11351.60
490.70	11522.46
490.88	11672.25
491.06	11763.53
491.24	11836.09
491.41	11824.39
491.59	11840.77
491.77	11985.88
491.95	12297.17
492.13	12154.40
492.30	12208.23
492.48	12259.73
492.66	12276.11
492.84	12327.60
493.01	12339.30
493.19	12617.83
493.37	12688.04
493.54	12896.35
493.72	12741.88
493.90	12699.75
494.08	12971.25
494.25	13097.64
494.43	13235.73
494.61	13270.84
494.79	13221.69
494.96	13303.60
495.14	13371.48
495.32	13451.06
495.49	13397.23
495.67	13834.91
495.85	13671.07
496.02	13804.48
496.20	13921.51
496.38	13928.53
496.55	13998.74
496.73	14490.26
496.91	14073.64
497.09	14256.20
497.26	14403.66
497.44	14115.77
497.62	14232.80
497.79	14764.10
497.97	14499.62
498.14	14927.94
498.32	14710.27
498.50	14913.89
498.67	14995.81
498.85	14890.49
499.03	15236.89
499.20	14986.45
499.38	15101.14
499.56	15281.36
499.73	15180.71
499.91	15346.89
500.08	15477.96
500.26	15187.74
500.44	15599.67
500.61	15592.65
500.79	15456.90
500.97	15632.44
501.14	16065.44
501.32	15917.98
501.49	15793.94
501.67	15681.59
501.84	15964.79
502.02	15999.90
502.20	16004.58
502.37	16416.52
502.55	16079.48
502.72	16257.36
502.90	16271.40
503.07	16243.32
503.25	16161.40
503.43	16350.98
503.60	16453.97
503.78	16760.58
503.95	16634.19
504.13	16702.06
504.30	16915.05
504.48	16563.97
504.65	16783.98
504.83	16856.54
505.01	17158.47
505.18	16994.63
505.36	17144.42
505.53	16690.36
505.71	16957.18
505.88	17174.85
506.06	17132.72
506.23	17422.95
506.41	17301.24
506.58	17345.71
506.76	17469.76
506.93	17596.15
507.11	17231.02
507.28	17497.84
507.46	17851.27
507.63	17942.55
507.81	17699.13
507.98	17771.69
508.16	17757.64
508.33	17689.77
508.50	17987.02
508.68	18029.15
508.85	18183.62
509.03	17748.28
509.20	18310.01
509.38	18249.16
509.55	18518.32
509.73	18539.38
509.90	18272.56
510.08	18469.17
510.25	18420.02
510.42	18747.69
510.60	18904.51
510.77	19012.17
510.95	18906.85
511.12	18600.24
511.30	18740.67
511.47	18951.32
511.64	19112.81
511.82	19393.68
511.99	18719.60
512.17	18867.06
512.34	19040.26
512.51	18932.59
512.69	19419.42
512.86	19442.83
513.04	19524.75
513.21	19557.52
513.38	19829.02
513.56	19618.37
513.73	19337.51
513.90	19475.60
514.08	19283.67
514.25	19658.16
514.43	19913.28
514.60	20095.84
514.77	19985.83
514.95	19960.09
515.12	19885.19
515.29	19782.21
515.47	20170.74
515.64	20149.67
515.81	19847.74
515.99	20475.01
516.16	20664.59
516.33	20409.47
516.51	20301.81
516.68	20245.63
516.85	20250.32
517.03	20404.79
517.20	20678.63
517.37	20636.50
517.54	20610.76
517.72	20596.71
517.89	20498.41
518.06	20812.04
518.24	20606.08
518.41	20790.98
518.58	20826.09
518.75	20961.84
518.93	21050.78
519.10	20823.75
519.27	21177.17
519.45	21205.25
519.62	20975.88
519.79	21165.46
519.96	21462.71
520.14	21013.33
520.31	21399.52
520.48	21654.64
520.65	21500.16
520.83	21465.05
521.00	21158.44
521.17	21600.80
521.34	21448.67
521.52	21556.33
521.69	21521.23
521.86	21720.17
522.03	21661.66
522.20	21947.20
522.38	22057.21
522.55	21900.39
522.72	21710.81
522.89	21783.37
523.07	22394.25
523.24	22338.07
523.41	22326.37
523.58	22354.46
523.75	22356.80
523.92	22125.08
524.10	22354.46
524.27	22483.19
524.44	22995.76
524.61	22787.46
524.78	22356.80
524.96	22464.46
525.13	22473.82
525.30	22923.21
525.47	22609.58
525.64	22771.07
525.81	22656.39
525.98	22555.74
526.16	22710.22
526.33	22630.64
526.50	22953.63
526.67	23138.54
526.84	23161.94
527.01	22675.11
527.18	22885.76
527.36	23367.91
527.53	23080.02
527.70	23222.80
527.87	23007.47
528.04	23281.31
528.21	23222.80
528.38	23513.02
528.55	23410.04
528.72	23321.10
528.89	23620.69
529.07	23606.64
529.24	23562.17
529.41	23847.72
529.58	23274.29
529.75	23466.21
529.92	23562.17
530.09	23515.36
530.26	23836.02
530.43	23843.04
530.60	23496.64
530.77	23826.65
530.94	23868.78
531.11	23515.36
531.28	23892.19
531.46	23555.15
531.63	24053.69
531.80	24217.52
531.97	23985.81
532.14	24140.29
532.31	24123.90
532.48	24273.70
532.65	24149.65
532.82	23798.57
532.99	24507.75
533.16	24257.31
533.33	24603.71
533.50	24622.44
533.67	24519.45
533.84	24563.92
534.01	24332.21
534.18	24395.40
534.35	24889.26
534.52	24507.75
534.69	24922.02
534.86	24624.78
535.03	24465.62
535.20	24762.87
535.37	25006.28
535.54	24381.36
535.71	24790.95
535.88	24737.12
536.05	24830.74
536.22	25064.80
536.38	25170.12
536.55	25181.82
536.72	25310.55
536.89	25259.06
537.06	24912.66
537.23	25153.74
537.40	24989.90
537.57	24933.73
537.74	25090.54
537.91	25310.55
538.08	25380.77
538.25	25193.53
538.42	25207.57
538.59	25441.62
538.75	24968.84
538.92	25312.89
539.09	25663.97
539.26	25394.81
539.43	25624.18
539.60	25678.02
539.77	25734.19
539.94	25521.20
540.11	25905.05
540.28	25680.36
540.44	25563.33
540.61	25876.96
540.78	25369.07
540.95	25759.94
541.12	25568.01
541.29	25984.63
541.46	25731.85
541.62	25813.77
541.79	26057.18
541.96	25689.72
542.13	25947.18
542.30	25914.41
542.47	26539.33
542.63	26101.65
542.80	26307.62
542.97	26239.75
543.14	26286.56
543.31	26544.02
543.48	26185.91
543.64	26881.05
543.81	26663.38
543.98	26532.31
544.15	26789.77
544.32	26820.20
544.48	26822.54
544.65	26745.30
544.82	26349.75
544.99	26274.85
545.16	26829.56
545.32	26639.98
545.49	27037.87
545.66	27321.07
545.83	26979.36
546.00	26984.04
546.16	26654.02
546.33	26284.22
546.50	26349.75
546.67	26881.05
546.83	26677.43
547.00	27098.72
547.17	26785.09
547.34	27131.49
547.50	27206.39
547.67	27433.42
547.84	26977.01
548.00	27051.91
548.17	27311.71
548.34	27096.38
548.51	27524.70
548.67	27468.53
548.84	27648.75
549.01	27077.66
549.18	27569.17
549.34	27330.44
549.51	27271.92
549.68	27665.13
549.84	27573.85
550.01	27569.17
550.18	27452.14
550.34	27311.71
550.51	27697.90
550.68	27810.25
550.84	27498.95
551.01	27646.41
551.18	27332.78
551.34	27545.76
551.51	27365.54
551.68	27845.35
551.84	27899.19
552.01	27784.50
552.18	27943.66
552.34	27873.44
552.51	27990.47
552.68	27690.88
552.84	27817.27
553.01	27936.63
553.18	27826.63
553.34	27662.79
553.51	27880.46
553.67	28287.71
553.84	28346.23
554.01	28261.97
554.17	28109.83
554.34	28526.45
554.51	28133.24
554.67	28126.22
554.84	28273.67
555.00	27922.59
555.17	27894.50
555.33	28498.36
555.50	28004.51
555.67	28353.25
555.83	28371.97
556.00	28442.19
556.16	28414.10
556.33	28610.71
556.50	28470.28
556.66	28816.68
556.83	28645.82
556.99	28994.56
557.16	28936.04
557.32	28315.80
557.49	28617.73
557.65	28390.70
557.82	28147.28
557.98	28552.20
558.15	28510.07
558.32	28713.69
558.48	28563.90
558.65	28959.45
558.81	28758.16
558.98	28889.23
559.14	28517.09
559.31	28507.72
559.47	28863.49
559.64	28601.35
559.80	28519.43
559.97	29123.29
560.13	29118.60
560.30	29081.16
560.46	29270.74
560.63	29020.30
560.79	29071.79
560.96	28856.46
561.12	28891.57
561.29	28889.23
561.45	28547.51
561.61	29055.41
561.78	29378.40
561.94	28783.91
562.11	29050.73
562.27	29118.60
562.44	29144.35
562.60	28945.41
562.77	28830.72
562.93	29158.39
563.10	29366.70
563.26	29191.16
563.42	29820.77
563.59	29315.21
563.75	29233.29
563.92	29415.85
564.08	29095.20
564.24	29048.39
564.41	29188.82
564.57	29172.44
564.74	28774.55
564.90	29359.68
565.07	29223.93
565.23	29455.64
565.39	29071.79
565.56	29614.80
565.72	29256.70
565.88	29266.06
566.05	29333.93
566.21	29345.64
566.38	29523.52
566.54	29244.99
566.70	29713.10
566.87	29631.18
567.03	29446.28
567.19	30031.41
567.36	29603.10
567.52	29329.25
567.68	29184.14
567.85	29483.73
568.01	29476.71
568.17	29553.94
568.34	29465.00
568.50	29329.25
568.66	29453.30
568.83	29460.32
568.99	29376.06
569.15	29429.90
569.32	29340.96
569.48	29511.81
569.64	29666.29
569.81	29912.05
569.97	29453.30
570.13	29827.79
570.30	29483.73
570.46	29759.91
570.62	29661.61
570.78	29516.50
570.95	29633.52
571.11	29727.14
571.27	29441.60
571.43	29467.34
571.60	29549.26
571.76	29600.76
571.92	29909.71
572.09	29893.32
572.25	29792.68
572.41	29886.30
572.57	29788.00
572.74	29567.99
572.90	29715.44
573.06	29570.33
573.22	29755.23
573.38	29560.97
573.55	29783.32
573.71	29869.92
573.87	29851.19
574.03	29788.00
574.20	30068.86
574.36	29715.44
574.52	29586.71
574.68	29907.37
574.84	29867.58
575.01	29827.79
575.17	29846.51
575.33	29862.90
575.49	29535.22
575.65	29832.47
575.82	29818.42
575.98	29563.31
576.14	29900.34
576.30	29893.32
576.46	29701.40
576.62	29727.14
576.79	29993.97
576.95	29570.33
577.11	29865.24
577.27	30148.44
577.43	29830.13
577.59	29933.11
577.75	29956.52
577.92	29589.05
578.08	29404.15
578.24	29680.33
578.40	29919.07
578.56	30206.95
578.72	29586.71
578.88	30249.08
579.04	29975.24
579.21	30326.32
579.37	30181.21
579.53	29865.24
579.69	30043.12
579.85	30033.75
580.01	29846.51
580.17	29937.79
580.33	29715.44
580.49	30164.82
580.65	30284.19
580.82	30405.90
580.98	30040.78
581.14	29642.88
581.30	29876.94
581.46	30178.87
581.62	29928.43
581.78	29612.46
581.94	29764.59
582.10	29549.26
582.26	29605.44
582.42	29970.56
582.58	30045.46
582.74	30071.20
582.90	30307.60
583.06	30008.01
583.22	29947.15
583.38	29949.50
583.54	30010.35
583.70	30113.33
583.86	30031.41
584.02	30321.64
584.18	30171.85
584.34	30333.34
584.50	30132.06
584.66	30370.79
584.82	29656.93
584.98	29827.79
585.14	29977.58
585.30	29722.46
585.46	30000.99
585.62	29788.00
585.78	29846.51
585.94	30022.05
586.10	30206.95
586.26	30450.37
586.42	30132.06
586.58	30391.86
586.74	30008.01
586.90	29635.86
587.06	29710.76
587.22	30335.68
587.38	29692.04
587.54	30293.55
587.70	30300.58
587.86	30237.38
588.02	30412.92
588.18	30099.29
588.34	30466.75
588.49	30319.30
588.65	30071.20
588.81	29982.26
588.97	30216.32
589.13	30284.19
589.29	30218.66
589.45	30433.99
589.61	30221.00
589.77	30487.82
589.93	30583.78
590.08	30438.67
590.24	30792.09
590.40	30536.97
590.56	30782.73
590.72	30160.14
590.88	29942.47
591.04	30307.60
591.20	30553.35
591.35	30546.33
591.51	30431.65
591.67	30518.25
591.83	30618.89
591.99	30646.97
