SpectraSuite Data File
++++++++++++++++++++++++++++++++++++
Date: Fri Oct 18 13:58:24 GMT-05:00 2013
User: bianchi
Dark Spectrum Present: No
Reference Spectrum Present: No
Number of Sampled Component Spectra: 1
Spectrometers: USB2+H05261
Integration Time (usec): 50000 (USB2+H05261)
Spectra Averaged: 1 (USB2+H05261)
Boxcar Smoothing: 0 (USB2+H05261)
Correct for Electrical Dark: No (USB2+H05261)
Strobe/Lamp Enabled: No (USB2+H05261)
Correct for Detector Non-linearity: No (USB2+H05261)
Correct for Stray Light: No (USB2+H05261)
Number of Pixels in Processed Spectrum: 2048
>>>>>Begin Processed Spectral Data<<<<<
365.73	0.00
365.92	0.00
366.12	0.00
366.32	0.00
366.52	0.00
366.72	0.00
366.91	0.00
367.11	0.00
367.31	0.00
367.51	0.00
367.70	0.00
367.90	0.00
368.10	0.00
368.30	0.00
368.49	0.00
368.69	0.00
368.89	0.00
369.09	0.00
369.28	0.00
369.48	0.00
369.68	0.00
369.87	0.00
370.07	0.00
370.27	0.00
370.47	0.00
370.66	53.83
370.86	65.54
371.06	184.90
371.25	128.73
371.45	95.96
371.65	173.20
371.84	110.01
372.04	145.11
372.24	217.67
372.44	210.65
372.63	149.79
372.83	196.60
373.03	201.29
373.22	231.71
373.42	264.48
373.62	205.97
373.81	245.76
374.01	168.52
374.21	299.59
374.40	252.78
374.60	229.37
374.79	220.01
374.99	208.31
375.19	229.37
375.38	238.73
375.58	276.18
375.78	241.08
375.97	269.16
376.17	259.80
376.37	191.92
376.56	294.91
376.76	278.52
376.95	322.99
377.15	276.18
377.35	271.50
377.54	262.14
377.74	259.80
377.93	280.86
378.13	234.05
378.33	315.97
378.52	266.82
378.72	297.25
378.91	369.80
379.11	250.44
379.31	266.82
379.50	290.23
379.70	346.40
379.89	292.57
380.09	236.39
380.28	238.73
380.48	259.80
380.68	322.99
380.87	297.25
381.07	325.33
381.26	341.72
381.46	320.65
381.65	367.46
381.85	315.97
382.04	318.31
382.24	430.66
382.43	388.53
382.63	332.36
382.83	318.31
383.02	372.15
383.22	418.96
383.41	344.06
383.61	362.78
383.80	411.93
384.00	362.78
384.19	404.91
384.39	348.74
384.58	442.36
384.78	444.70
384.97	367.46
385.17	351.08
385.36	411.93
385.56	365.12
385.75	344.06
385.95	383.85
386.14	435.34
386.34	395.55
386.53	477.47
386.72	404.91
386.92	465.77
387.11	421.30
387.31	430.66
387.50	337.04
387.70	376.83
387.89	465.77
388.09	472.79
388.28	451.72
388.48	463.43
388.67	564.07
388.86	517.26
389.06	521.94
389.25	557.05
389.45	433.00
389.64	486.83
389.84	465.77
390.03	437.68
390.22	524.28
390.42	468.11
390.61	461.09
390.81	482.15
391.00	512.58
391.19	465.77
391.39	484.49
391.58	493.85
391.78	517.26
391.97	472.79
392.16	440.02
392.36	627.26
392.55	543.00
392.75	660.03
392.94	592.16
393.13	514.92
393.33	535.98
393.52	496.19
393.71	566.41
393.91	641.31
394.10	547.69
394.29	617.90
394.49	631.94
394.68	589.82
394.88	655.35
395.07	606.20
395.26	596.84
395.46	688.12
395.65	585.13
395.84	545.34
396.04	690.46
396.23	603.86
396.42	664.71
396.62	720.88
396.81	643.65
397.00	716.20
397.19	645.99
397.39	690.46
397.58	671.73
397.77	681.10
397.97	620.24
398.16	617.90
398.35	671.73
398.55	697.48
398.74	760.67
398.93	758.33
399.12	795.78
399.32	767.70
399.51	767.70
399.70	688.12
399.90	678.76
400.09	791.10
400.28	718.54
400.47	734.93
400.67	826.21
400.86	800.46
401.05	767.70
401.24	830.89
401.44	828.55
401.63	800.46
401.82	828.55
402.01	880.04
402.21	791.10
402.40	805.14
402.59	887.06
402.78	849.61
402.97	779.40
403.17	889.40
403.36	854.30
403.55	821.53
403.74	884.72
403.93	823.87
404.13	816.85
404.32	997.07
404.51	929.19
404.70	940.90
404.89	908.13
405.09	945.58
405.28	1008.77
405.47	884.72
405.66	966.64
405.85	884.72
406.05	912.81
406.24	966.64
406.43	983.02
406.62	1011.11
406.81	1043.88
407.00	1008.77
407.20	1071.97
407.39	1053.24
407.58	1118.78
407.77	1071.97
407.96	994.73
408.15	1036.86
408.34	1104.73
408.54	1015.79
408.73	1114.10
408.92	1100.05
409.11	1198.35
409.30	1107.07
409.49	1081.33
409.68	1020.47
409.87	1170.27
410.07	1146.86
410.26	1151.54
410.45	1165.59
410.64	1203.04
410.83	1165.59
411.02	1256.87
411.21	1306.02
411.40	1263.89
411.59	1186.65
411.78	1146.86
411.98	1160.91
412.17	1210.06
412.36	1308.36
412.55	1331.76
412.74	1385.60
412.93	1350.49
413.12	1348.15
413.31	1401.98
413.50	1291.98
413.69	1385.60
413.88	1486.24
414.07	1486.24
414.26	1446.45
414.45	1439.43
414.64	1565.82
414.83	1584.54
415.02	1434.75
415.22	1521.35
415.41	1561.14
415.60	1540.07
415.79	1633.69
415.98	1561.14
416.17	1554.12
416.36	1591.56
416.55	1643.06
416.74	1619.65
416.93	1696.89
417.12	1689.87
417.31	1643.06
417.50	1561.14
417.69	1753.06
417.88	1795.19
418.07	1729.66
418.26	1699.23
418.45	1732.00
418.64	1891.15
418.83	1825.62
419.02	1832.64
419.21	1909.88
419.39	1863.07
419.58	1750.72
419.77	1785.83
419.96	1785.83
420.15	1753.06
420.34	1909.88
420.53	1909.88
420.72	1949.67
420.91	1856.04
421.10	1991.80
421.29	2022.22
421.48	1865.41
421.67	1984.77
421.86	1893.49
422.05	1982.43
422.24	1865.41
422.43	1966.05
422.61	2022.22
422.80	2069.03
422.99	2073.71
423.18	2076.06
423.37	2059.67
423.56	2076.06
423.75	1996.48
423.94	2057.33
424.13	1827.96
424.32	1842.00
424.50	1954.35
424.69	2094.78
424.88	2080.74
425.07	2052.65
425.26	2083.08
425.45	2101.80
425.64	2017.54
425.83	2062.01
426.01	2139.25
426.20	2062.01
426.39	2094.78
426.58	2001.16
426.77	1984.77
426.96	2094.78
427.15	2078.40
427.33	2174.36
427.52	2087.76
427.71	2242.23
427.90	2188.40
428.09	2085.42
428.28	2211.81
428.46	2225.85
428.65	2216.49
428.84	2289.04
429.03	2242.23
429.22	2202.44
429.40	2291.38
429.59	2289.04
429.78	2181.38
429.97	2211.81
430.16	2303.09
430.34	2272.66
430.53	2335.85
430.72	2277.34
430.91	2347.56
431.10	2312.45
431.28	2366.28
431.47	2356.92
431.66	2335.85
431.85	2389.69
432.03	2424.80
432.22	2436.50
432.41	2478.63
432.60	2506.71
432.79	2317.13
432.97	2377.98
433.16	2436.50
433.35	2459.90
433.54	2492.67
433.72	2530.12
433.91	2532.46
434.10	2502.03
434.28	2424.80
434.47	2525.44
434.66	2597.99
434.85	2640.12
435.03	2710.34
435.22	2429.48
435.41	2792.26
435.59	2703.32
435.78	2635.44
435.97	2715.02
436.16	2731.41
436.34	2551.18
436.53	2712.68
436.72	2745.45
436.90	2605.02
437.09	2843.75
437.28	2679.91
437.46	2696.30
437.65	2747.79
437.84	2693.96
438.02	2796.94
438.21	2848.43
438.40	2932.69
438.58	2885.88
438.77	2750.13
438.96	2895.24
439.14	2988.86
439.33	2885.88
439.52	3000.57
439.70	3117.59
439.89	3070.78
440.08	2977.16
440.26	3082.49
440.45	3091.85
440.63	3056.74
440.82	3049.72
441.01	3080.14
441.19	3206.53
441.38	3300.16
441.57	3164.40
441.75	3173.77
441.94	3368.03
442.12	3269.73
442.31	3290.79
442.50	3363.35
442.68	3274.41
442.87	3290.79
443.05	3403.14
443.24	3323.56
443.43	3400.80
443.61	3361.01
443.80	3492.08
443.98	3342.28
444.17	3220.58
444.35	3492.08
444.54	3438.25
444.73	3545.91
444.91	3398.46
445.10	3414.84
445.28	3372.71
445.47	3349.31
445.65	3461.65
445.84	3475.70
446.02	3375.05
446.21	3438.25
446.39	3353.99
446.58	3473.36
446.77	3370.37
446.95	3363.35
447.14	3435.91
447.32	3442.93
447.51	3574.00
447.69	3562.30
447.88	3494.42
448.06	3536.55
448.25	3571.66
448.43	3431.23
448.62	3566.98
448.80	3611.45
448.99	3583.36
449.17	3599.74
449.36	3599.74
449.54	3623.15
449.73	3779.97
449.91	3641.87
450.10	3641.87
450.28	3707.41
450.46	3728.47
450.65	3772.94
450.83	3824.44
451.02	3735.50
451.20	3665.28
451.39	3854.86
451.57	3770.60
451.76	3688.68
451.94	3939.12
452.13	3798.69
452.31	3784.65
452.49	3791.67
452.68	3737.84
452.86	3779.97
453.05	3815.07
453.23	3847.84
453.42	3946.14
453.60	3786.99
453.78	3929.76
453.97	4025.72
454.15	4046.79
454.34	3941.46
454.52	4004.66
454.70	3974.23
454.89	4037.42
455.07	3946.14
455.26	4081.89
455.44	4039.76
455.62	4035.08
455.81	3964.87
455.99	4070.19
456.17	4067.85
456.36	4231.69
456.54	4210.62
456.73	4173.18
456.91	4381.48
457.09	4292.54
457.28	4308.93
457.46	4128.70
457.64	4313.61
457.83	4404.89
458.01	4362.76
458.19	4372.12
458.38	4435.32
458.56	4472.76
458.74	4393.19
458.93	4484.47
459.11	4461.06
459.29	4393.19
459.48	4451.70
459.66	4468.08
459.84	4594.47
460.03	4660.01
460.21	4564.04
460.39	4547.66
460.57	4458.72
460.76	4599.15
460.94	4564.04
461.12	4542.98
461.31	4610.86
461.49	4615.54
461.67	4528.94
461.85	4634.26
462.04	4779.37
462.22	4706.82
462.40	4802.78
462.59	4849.59
462.77	4744.27
462.95	4809.80
463.13	4744.27
463.32	4809.80
463.50	4896.40
463.68	4875.34
463.86	4929.17
464.05	4809.80
464.23	4868.31
464.41	4910.44
464.59	4788.74
464.78	4884.70
464.96	4849.59
465.14	4767.67
465.32	5008.75
465.50	4968.96
465.69	5048.54
465.87	5008.75
466.05	5029.81
466.23	5093.01
466.41	4821.50
466.60	5341.10
466.78	5078.96
466.96	5022.79
467.14	4999.38
467.32	5041.51
467.51	5238.12
467.69	5036.83
467.87	5160.88
468.05	5233.44
468.23	5125.77
468.41	5160.88
468.60	5207.69
468.78	5355.15
468.96	5207.69
469.14	5287.27
469.32	5214.71
469.50	5081.30
469.69	5394.93
469.87	5418.34
470.05	5451.11
470.23	5390.25
470.41	5418.34
470.59	5352.81
470.77	5359.83
470.95	5483.88
471.14	5441.75
471.32	5268.55
471.50	5612.60
471.68	5528.35
471.86	5439.40
472.04	5640.69
472.22	5671.12
472.40	5792.83
472.58	5612.60
472.77	5605.58
472.95	5792.83
473.13	5816.23
473.31	5846.66
473.49	5755.38
473.67	5799.85
473.85	5865.38
474.03	5879.43
474.21	6069.01
474.39	5987.09
474.57	6113.48
474.75	6054.97
474.93	6183.70
475.12	6129.86
475.30	6094.76
475.48	6209.44
475.66	6181.35
475.84	6406.05
476.02	6429.45
476.20	6377.96
476.38	6401.37
476.56	6436.47
476.74	6546.48
476.92	6537.12
477.10	6415.41
477.28	6593.29
477.46	6665.85
477.64	6759.47
477.82	6750.10
478.00	6993.52
478.18	7091.82
478.36	6895.22
478.54	6935.01
478.72	7073.10
478.90	7119.91
479.08	7295.45
479.26	7243.96
479.44	7222.89
479.62	7330.56
479.80	7211.19
479.98	7463.97
480.16	7576.31
480.34	7529.50
480.52	7571.63
480.70	7819.73
480.88	7651.21
481.06	7691.00
481.24	7599.72
481.41	7805.69
481.59	8028.04
481.77	8016.33
481.95	7906.33
482.13	8056.12
482.31	8100.59
482.49	8121.66
482.67	8257.41
482.85	8442.31
483.03	8365.07
483.21	8280.82
483.39	8542.96
483.57	8592.11
483.74	8552.32
483.92	8617.85
484.10	8856.59
484.28	8854.25
484.46	8982.98
484.64	9163.20
484.82	8891.70
485.00	9207.67
485.18	9362.14
485.35	9476.83
485.53	9439.38
485.71	9392.57
485.89	9591.52
486.07	9680.46
486.25	9540.02
486.43	9720.24
486.61	9760.03
486.78	9935.57
486.96	9853.66
487.14	10218.78
487.32	10092.39
487.50	10207.08
487.68	10108.77
487.85	10296.02
488.03	10324.10
488.21	10443.47
488.39	10593.26
488.57	10698.59
488.75	10693.91
488.92	10846.04
489.10	10806.25
489.28	10986.47
489.46	11087.12
489.64	11014.56
489.81	10995.84
489.99	11351.60
490.17	11297.77
490.35	11473.31
490.53	11424.15
490.70	11719.06
490.88	11744.81
491.06	11749.49
491.24	11934.39
491.41	11695.66
491.59	11983.54
491.77	12035.03
491.95	12184.83
492.13	12093.55
492.30	12212.92
492.48	12170.79
492.66	12184.83
492.84	12280.79
493.01	12498.46
493.19	12421.22
493.37	12779.32
493.54	12603.78
493.72	12896.35
493.90	12685.70
494.08	13053.17
494.25	12837.84
494.43	13195.94
494.61	13184.24
494.79	13294.24
494.96	13231.05
495.14	13411.27
495.32	13371.48
495.49	13511.91
495.67	13479.15
495.85	13645.32
496.02	13640.64
496.20	13692.13
496.38	13767.03
496.55	13837.25
496.73	14221.10
496.91	14033.85
497.09	14331.10
497.26	14464.51
497.44	14141.52
497.62	14333.44
497.79	14434.08
497.97	14331.10
498.14	14656.43
498.32	14977.09
498.50	14546.43
498.67	14726.65
498.85	15035.60
499.03	15037.94
499.20	14913.89
499.38	14991.13
499.56	15403.07
499.73	15176.03
499.91	15442.85
500.08	15351.57
500.26	15211.14
500.44	15669.89
500.61	15555.20
500.79	15393.70
500.97	15616.05
501.14	15854.79
501.32	15728.40
501.49	15826.70
501.67	15620.74
501.84	15875.85
502.02	16037.35
502.20	15950.75
502.37	16018.63
502.55	15815.00
502.72	16304.17
502.90	15950.75
503.07	15899.26
503.25	16257.36
503.43	16505.46
503.60	16414.18
503.78	16327.58
503.95	16472.69
504.13	16437.58
504.30	16613.12
504.48	16664.61
504.65	16861.22
504.83	16812.07
505.01	17069.53
505.18	16915.05
505.36	17280.18
505.53	16730.15
505.71	16856.54
505.88	17092.93
506.06	16980.59
506.23	16985.27
506.41	17083.57
506.58	17270.81
506.76	17649.98
506.93	17111.66
507.11	17277.83
507.28	17617.21
507.46	17624.23
507.63	17673.39
507.81	17823.18
507.98	17802.11
508.16	17680.41
508.33	17635.94
508.50	17792.75
508.68	17642.96
508.85	17816.16
509.03	17767.01
509.20	18373.21
509.38	18443.42
509.55	18246.82
509.73	18405.97
509.90	18377.89
510.08	18443.42
510.25	18448.10
510.42	18424.70
510.60	18466.83
510.77	18717.26
510.95	18792.16
511.12	18625.98
511.30	18696.20
511.47	18829.61
511.64	18883.44
511.82	18862.38
511.99	19098.77
512.17	19183.03
512.34	19049.62
512.51	19297.72
512.69	19087.07
512.86	19140.90
513.04	19283.67
513.21	19346.87
513.38	19681.56
513.56	19119.84
513.73	19288.35
513.90	19440.49
514.08	19658.16
514.25	19770.51
514.43	19932.00
514.60	19573.90
514.77	19777.53
514.95	19716.67
515.12	19728.38
515.29	20034.99
515.47	19927.32
515.64	20084.14
515.81	19981.15
515.99	20255.00
516.16	20306.49
516.33	20170.74
516.51	20109.88
516.68	19988.18
516.85	20360.32
517.03	20446.92
517.20	20262.02
517.37	20620.12
517.54	20519.48
517.72	20463.30
517.89	20788.64
518.06	20538.20
518.24	20545.22
518.41	20587.35
518.58	20524.16
518.75	20456.28
518.93	20989.92
519.10	20865.88
519.27	20765.23
519.45	20863.54
519.62	20865.88
519.79	20786.30
519.96	20978.22
520.14	20772.25
520.31	20915.03
520.48	21425.26
520.65	21289.51
520.83	21341.00
521.00	21348.03
521.17	21333.98
521.34	21425.26
521.52	21694.43
521.69	21766.98
521.86	21771.66
522.03	21844.22
522.20	21589.10
522.38	21750.60
522.55	21783.37
522.72	21755.28
522.89	21673.36
523.07	22153.17
523.24	21984.65
523.41	21991.67
523.58	21851.24
523.75	22412.97
523.92	21916.78
524.10	22080.61
524.27	22298.28
524.44	22445.74
524.61	22340.41
524.78	22352.12
524.96	22298.28
525.13	22466.80
525.30	22199.98
525.47	22429.35
525.64	22654.05
525.81	22487.87
525.98	22656.39
526.16	22937.25
526.33	22789.80
526.50	22965.34
526.67	22604.89
526.84	22693.83
527.01	22654.05
527.18	23023.85
527.36	23166.62
527.53	23374.93
527.70	23218.11
527.87	23250.88
528.04	23126.83
528.21	22883.42
528.38	23101.09
528.55	23506.00
528.72	23470.89
528.89	23377.27
529.07	23129.17
529.24	23129.17
529.41	23318.76
529.58	23850.06
529.75	23262.58
529.92	23328.12
530.09	23379.61
530.26	23562.17
530.43	23737.71
530.60	23587.92
530.77	23714.31
530.94	23784.52
531.11	23711.97
531.28	23711.97
531.46	23885.17
531.63	24123.90
531.80	24004.53
531.97	24077.09
532.14	24060.71
532.31	24304.12
532.48	24095.82
532.65	24290.08
532.82	23978.79
532.99	24133.26
533.16	24362.64
533.33	24547.54
533.50	24638.82
533.67	23953.04
533.84	24283.06
534.01	23950.70
534.18	24446.90
534.35	24606.05
534.52	24329.87
534.69	24542.86
534.86	24657.54
535.03	24496.05
535.20	24790.95
535.37	24833.08
535.54	24680.95
535.71	24762.87
535.88	24786.27
536.05	24769.89
536.22	24758.19
536.38	25174.80
536.55	24919.68
536.72	25036.71
536.89	24903.30
537.06	24776.91
537.23	25032.03
537.40	25034.37
537.57	25207.57
537.74	25067.14
537.91	25097.56
538.08	25242.68
538.25	25006.28
538.42	25453.33
538.59	25362.04
538.75	25010.96
538.92	25233.32
539.09	25385.45
539.26	25081.18
539.43	25418.22
539.60	25603.12
539.77	25261.40
539.94	25455.67
540.11	25130.33
540.28	25198.21
540.44	25432.26
540.61	25488.43
540.78	25582.06
540.95	25556.31
541.12	25350.34
541.29	25713.13
541.46	25645.25
541.62	25371.41
541.79	25703.76
541.96	25490.77
542.13	25928.45
542.30	25942.50
542.47	25841.85
542.63	25949.52
542.80	26136.76
542.97	26356.77
543.14	26132.08
543.31	25961.22
543.48	26836.58
543.64	26478.48
543.81	26487.84
543.98	26544.02
544.15	26525.29
544.32	26515.93
544.48	26871.69
544.65	26478.48
544.82	26331.03
544.99	26412.95
545.16	26593.17
545.32	26478.48
545.49	26508.91
545.66	26782.75
545.83	26684.45
546.00	26808.50
546.16	26707.85
546.33	26218.68
546.50	26377.84
546.67	26757.00
546.83	26668.06
547.00	27140.85
547.17	26974.67
547.34	26902.12
547.50	26675.09
547.67	27168.94
547.84	26831.90
548.00	26799.13
548.17	27227.45
548.34	26967.65
548.51	27058.93
548.67	27007.44
548.84	27147.87
549.01	27388.95
549.18	26939.57
549.34	27386.61
549.51	27417.04
549.68	26808.50
549.84	27248.52
550.01	27108.08
550.18	27370.22
550.34	26967.65
550.51	27395.97
550.68	27215.75
550.84	27559.81
551.01	27236.81
551.18	27164.26
551.34	27201.71
551.51	27393.63
551.68	27346.82
551.84	27559.81
552.01	27482.57
552.18	28013.87
552.34	27665.13
552.51	27611.30
552.68	27828.97
552.84	27936.63
553.01	27505.98
553.18	27936.63
553.34	27819.61
553.51	27873.44
553.67	28006.85
553.84	27894.50
554.01	28261.97
554.17	28182.39
554.34	27948.34
554.51	28046.64
554.67	27601.94
554.84	27847.69
555.00	28048.98
555.17	28182.39
555.33	27751.73
555.50	28072.39
555.67	27889.82
555.83	27920.25
556.00	28243.24
556.16	28243.24
556.33	28180.05
556.50	28479.64
556.66	28259.63
556.83	28250.27
556.99	28994.56
557.16	28503.04
557.32	28709.01
557.49	28348.57
557.65	28292.40
557.82	28231.54
557.98	28212.82
558.15	28542.83
558.32	28610.71
558.48	28500.70
558.65	28648.16
558.81	28451.55
558.98	28629.43
559.14	28587.30
559.31	28540.49
559.47	28336.87
559.64	28823.70
559.80	28650.50
559.97	28833.06
560.13	28498.36
560.30	28741.78
560.46	29048.39
560.63	28683.27
560.79	28762.84
560.96	28692.63
561.12	28437.51
561.29	28596.67
561.45	28484.32
561.61	28652.84
561.78	29006.26
561.94	29043.71
562.11	28622.41
562.27	28882.21
562.44	28697.31
562.60	28776.89
562.77	28491.34
562.93	28636.45
563.10	28879.87
563.26	28870.51
563.42	28961.79
563.59	28987.53
563.75	28964.13
563.92	28982.85
564.08	28833.06
564.24	28863.49
564.41	28580.28
564.57	28811.99
564.74	29083.50
564.90	29111.58
565.07	29071.79
565.23	29376.06
565.39	29127.97
565.56	29317.55
565.72	29205.20
565.88	28929.02
566.05	28882.21
566.21	28826.04
566.38	29177.12
566.54	29095.20
566.70	29305.85
566.87	29525.86
567.03	29163.08
567.19	29420.53
567.36	29535.22
567.52	28856.46
567.68	29413.51
567.85	29200.52
568.01	29516.50
568.17	29333.93
568.34	29364.36
568.50	29493.09
568.66	29455.64
568.83	29610.12
568.99	29324.57
569.15	29336.27
569.32	29209.89
569.48	29511.81
569.64	29252.02
569.81	29167.76
569.97	29457.98
570.13	29317.55
570.30	29174.78
570.46	29139.67
570.62	29352.66
570.78	29614.80
570.95	29380.74
571.11	29694.38
571.27	29125.63
571.43	28891.57
571.60	29312.87
571.76	29450.96
571.92	29741.19
572.09	29149.03
572.25	29867.58
572.41	29617.14
572.57	29593.73
572.74	29457.98
572.90	29542.24
573.06	29465.00
573.22	29509.47
573.38	29266.06
573.55	29523.52
573.71	29661.61
573.87	29912.05
574.03	29467.34
574.20	29755.23
574.36	29303.51
574.52	29663.95
574.68	29165.42
574.84	29626.50
575.01	29692.04
575.17	29364.36
575.33	29689.70
575.49	29324.57
575.65	29734.17
575.82	29727.14
575.98	29549.26
576.14	30024.39
576.30	29755.23
576.46	29563.31
576.62	29397.13
576.79	29666.29
576.95	29654.59
577.11	29888.64
577.27	29685.01
577.43	29862.90
577.59	29780.98
577.75	29680.33
577.92	29518.84
578.08	29214.57
578.24	29516.50
578.40	29263.72
578.56	29670.97
578.72	29649.91
578.88	29972.90
579.04	30064.18
579.21	29898.00
579.37	29872.26
579.53	29673.31
579.69	29572.67
579.85	29528.20
580.01	29462.66
580.17	29872.26
580.33	29713.10
580.49	29565.65
580.65	29762.25
580.82	29853.53
580.98	29748.21
581.14	29769.27
581.30	30132.06
581.46	29708.42
581.62	29465.00
581.78	29474.37
581.94	29841.83
582.10	29675.65
582.26	29673.31
582.42	29605.44
582.58	29837.15
582.74	29813.74
582.90	30071.20
583.06	29692.04
583.22	29947.15
583.38	29837.15
583.54	30113.33
583.70	29385.43
583.86	29612.46
584.02	29940.13
584.18	30094.61
584.34	29963.54
584.50	29675.65
584.66	30022.05
584.82	29687.36
584.98	29724.80
585.14	29628.84
585.30	29694.38
585.46	29652.25
585.62	29879.28
585.78	29818.42
585.94	29516.50
586.10	29858.21
586.26	29919.07
586.42	30368.45
586.58	30162.48
586.74	29558.63
586.90	29905.02
587.06	29951.84
587.22	29567.99
587.38	29785.66
587.54	30284.19
587.70	30366.11
587.86	30026.73
588.02	30192.91
588.18	30682.08
588.34	29923.75
588.49	29942.47
588.65	29685.01
588.81	29670.97
588.97	29546.92
589.13	30008.01
589.29	29593.73
589.45	30029.07
589.61	30122.69
589.77	30263.13
589.93	30410.58
590.08	30192.91
590.24	30417.60
590.40	30251.42
590.56	30185.89
590.72	30178.87
590.88	29872.26
591.04	30099.29
591.20	30335.68
591.35	30103.97
591.51	30263.13
591.67	30726.55
591.83	30103.97
591.99	30190.57
