SpectraSuite Data File
++++++++++++++++++++++++++++++++++++
Date: Fri Oct 18 13:58:23 GMT-05:00 2013
User: bianchi
Dark Spectrum Present: No
Reference Spectrum Present: No
Number of Sampled Component Spectra: 1
Spectrometers: USB2+H05261
Integration Time (usec): 50000 (USB2+H05261)
Spectra Averaged: 1 (USB2+H05261)
Boxcar Smoothing: 0 (USB2+H05261)
Correct for Electrical Dark: No (USB2+H05261)
Strobe/Lamp Enabled: No (USB2+H05261)
Correct for Detector Non-linearity: No (USB2+H05261)
Correct for Stray Light: No (USB2+H05261)
Number of Pixels in Processed Spectrum: 2048
>>>>>Begin Processed Spectral Data<<<<<
365.73	0.00
365.92	0.00
366.12	0.00
366.32	0.00
366.52	0.00
366.72	0.00
366.91	0.00
367.11	0.00
367.31	0.00
367.51	0.00
367.70	0.00
367.90	0.00
368.10	0.00
368.30	0.00
368.49	0.00
368.69	0.00
368.89	0.00
369.09	0.00
369.28	0.00
369.48	0.00
369.68	0.00
369.87	0.00
370.07	0.00
370.27	0.00
370.47	0.00
370.66	77.24
370.86	93.62
371.06	114.69
371.25	215.33
371.45	102.98
371.65	156.82
371.84	170.86
372.04	126.39
372.24	208.31
372.44	154.48
372.63	196.60
372.83	301.93
373.03	257.46
373.22	175.54
373.42	229.37
373.62	243.42
373.81	210.65
374.01	294.91
374.21	283.20
374.40	145.11
374.60	255.12
374.79	301.93
374.99	264.48
375.19	231.71
375.38	248.10
375.58	255.12
375.78	217.67
375.97	255.12
376.17	236.39
376.37	311.29
376.56	313.63
376.76	161.50
376.95	245.76
377.15	210.65
377.35	262.14
377.54	264.48
377.74	283.20
377.93	252.78
378.13	276.18
378.33	285.55
378.52	266.82
378.72	404.91
378.91	341.72
379.11	252.78
379.31	255.12
379.50	369.80
379.70	320.65
379.89	330.02
380.09	262.14
380.28	250.44
380.48	325.33
380.68	264.48
380.87	280.86
381.07	332.36
381.26	365.12
381.46	386.19
381.65	348.74
381.85	337.04
382.04	315.97
382.24	280.86
382.43	337.04
382.63	318.31
382.83	428.32
383.02	290.23
383.22	369.80
383.41	327.68
383.61	344.06
383.80	306.61
384.00	337.04
384.19	433.00
384.39	463.43
384.58	358.10
384.78	351.08
384.97	341.72
385.17	294.91
385.36	397.89
385.56	414.27
385.75	395.55
385.95	414.27
386.14	454.06
386.34	470.45
386.53	390.87
386.72	442.36
386.92	407.25
387.11	362.78
387.31	425.98
387.50	372.15
387.70	444.70
387.89	454.06
388.09	447.04
388.28	458.74
388.48	486.83
388.67	402.57
388.86	468.11
389.06	472.79
389.25	376.83
389.45	505.56
389.64	500.87
389.84	444.70
390.03	414.27
390.22	533.64
390.42	479.81
390.61	489.17
390.81	489.17
391.00	484.49
391.19	580.45
391.39	535.98
391.58	484.49
391.78	468.11
391.97	409.59
392.16	517.26
392.36	557.05
392.55	524.28
392.75	472.79
392.94	561.73
393.13	512.58
393.33	589.82
393.52	543.00
393.71	540.66
393.91	552.37
394.10	571.09
394.29	664.71
394.49	587.47
394.68	638.97
394.88	585.13
395.07	578.11
395.26	519.60
395.46	503.22
395.65	643.65
395.84	592.16
396.04	711.52
396.23	704.50
396.42	629.60
396.62	641.31
396.81	615.56
397.00	610.88
397.19	540.66
397.39	648.33
397.58	744.29
397.77	692.80
397.97	784.08
398.16	674.07
398.35	690.46
398.55	739.61
398.74	765.36
398.93	805.14
399.12	667.05
399.32	725.57
399.51	657.69
399.70	748.97
399.90	744.29
400.09	781.74
400.28	676.41
400.47	767.70
400.67	788.76
400.86	805.14
401.05	753.65
401.24	765.36
401.44	807.48
401.63	807.48
401.82	744.29
402.01	744.29
402.21	816.85
402.40	882.38
402.59	809.83
402.78	809.83
402.97	819.19
403.17	833.23
403.36	802.80
403.55	866.00
403.74	912.81
403.93	959.62
404.13	950.26
404.32	964.30
404.51	922.17
404.70	915.15
404.89	931.53
405.09	1043.88
405.28	882.38
405.47	915.15
405.66	1060.26
405.85	924.51
406.05	961.96
406.24	999.41
406.43	929.19
406.62	1062.60
406.81	1032.18
407.00	983.02
407.20	1041.54
407.39	983.02
407.58	1025.15
407.77	1022.81
407.96	1046.22
408.15	1034.52
408.34	1111.75
408.54	1158.57
408.73	1083.67
408.92	1090.69
409.11	1053.24
409.30	1142.18
409.49	1050.90
409.68	1151.54
409.87	1086.01
410.07	1198.35
410.26	1167.93
410.45	1240.48
410.64	1156.22
410.83	1165.59
411.02	1156.22
411.21	1203.04
411.40	1259.21
411.59	1221.76
411.78	1231.12
411.98	1245.16
412.17	1221.76
412.36	1287.29
412.55	1294.32
412.74	1390.28
412.93	1343.47
413.12	1238.14
413.31	1345.81
413.50	1446.45
413.69	1446.45
413.88	1380.92
414.07	1523.69
414.26	1465.18
414.45	1462.83
414.64	1434.75
414.83	1383.26
415.02	1507.30
415.22	1598.59
415.41	1589.22
415.60	1584.54
415.79	1577.52
415.98	1605.61
416.17	1591.56
416.36	1652.42
416.55	1631.35
416.74	1640.72
416.93	1652.42
417.12	1619.65
417.31	1685.19
417.50	1652.42
417.69	1788.17
417.88	1753.06
418.07	1767.10
418.26	1769.44
418.45	1739.02
418.64	1806.89
418.83	1877.11
419.02	1760.08
419.21	1774.13
419.39	1771.79
419.58	1715.61
419.77	1879.45
419.96	1851.36
420.15	1851.36
420.34	1886.47
420.53	1879.45
420.72	1846.68
420.91	1975.41
421.10	2024.56
421.29	2111.16
421.48	1863.07
421.67	1984.77
421.86	1980.09
422.05	1884.13
422.24	1956.69
422.43	1977.75
422.61	1989.46
422.80	1989.46
422.99	1989.46
423.18	2069.03
423.37	2015.20
423.56	2017.54
423.75	1970.73
423.94	1944.99
424.13	1818.60
424.32	1933.28
424.50	2029.24
424.69	2029.24
424.88	2101.80
425.07	1991.80
425.26	2054.99
425.45	1980.09
425.64	2066.69
425.83	2045.63
426.01	2113.50
426.20	2069.03
426.39	2127.55
426.58	2047.97
426.77	1994.14
426.96	2127.55
427.15	2221.17
427.33	2141.59
427.52	2183.72
427.71	2197.76
427.90	2186.06
428.09	2176.70
428.28	2132.23
428.46	2218.83
428.65	2167.34
428.84	2188.40
429.03	2225.85
429.22	2167.34
429.40	2338.20
429.59	2328.83
429.78	2148.61
429.97	2115.84
430.16	2176.70
430.34	2284.36
430.53	2396.71
430.72	2251.60
430.91	2246.91
431.10	2321.81
431.28	2476.29
431.47	2406.07
431.66	2352.24
431.85	2333.51
432.03	2459.90
432.22	2469.27
432.41	2359.26
432.60	2490.33
432.79	2345.22
432.97	2338.20
433.16	2480.97
433.35	2469.27
433.54	2431.82
433.72	2530.12
433.91	2555.86
434.10	2523.10
434.28	2581.61
434.47	2490.33
434.66	2630.76
434.85	2560.55
435.03	2588.63
435.22	2586.29
435.41	2698.64
435.59	2607.36
435.78	2609.70
435.97	2609.70
436.16	2747.79
436.34	2691.62
436.53	2565.23
436.72	2726.72
436.90	2668.21
437.09	2679.91
437.28	2705.66
437.46	2794.60
437.65	2708.00
437.84	2808.64
438.02	2722.04
438.21	2726.72
438.40	2682.25
438.58	2883.54
438.77	2965.46
438.96	2827.37
439.14	3007.59
439.33	3014.61
439.52	3056.74
439.70	3026.31
439.89	2918.65
440.08	3033.33
440.26	3002.91
440.45	3084.83
440.63	3005.25
440.82	3103.55
441.01	3176.11
441.19	3171.43
441.38	3098.87
441.57	3227.60
441.75	3220.58
441.94	3267.39
442.12	3398.46
442.31	3435.91
442.50	3349.31
442.68	3389.10
442.87	3307.18
443.05	3269.73
443.24	3391.44
443.43	3410.16
443.61	3332.92
443.80	3440.59
443.98	3241.64
444.17	3297.81
444.35	3552.93
444.54	3414.84
444.73	3419.52
444.91	3449.95
445.10	3494.42
445.28	3325.90
445.47	3363.35
445.65	3576.34
445.84	3489.74
446.02	3487.40
446.21	3618.47
446.39	3349.31
446.58	3398.46
446.77	3414.84
446.95	3396.12
447.14	3485.06
447.32	3459.31
447.51	3536.55
447.69	3452.29
447.88	3503.78
448.06	3583.36
448.25	3445.27
448.43	3459.31
448.62	3466.33
448.80	3653.58
448.99	3522.51
449.17	3501.44
449.36	3590.38
449.54	3702.73
449.73	3735.50
449.91	3744.86
450.10	3632.51
450.28	3714.43
450.46	3698.05
450.65	3686.34
450.83	3669.96
451.02	3721.45
451.20	3915.72
451.39	3929.76
451.57	3719.11
451.76	3733.15
451.94	3749.54
452.13	3911.04
452.31	3824.44
452.49	3775.28
452.68	3880.61
452.86	3946.14
453.05	3840.82
453.23	3925.08
453.42	3988.27
453.60	3953.16
453.78	3927.42
453.97	3852.52
454.15	3889.97
454.34	3873.59
454.52	4009.34
454.70	4128.70
454.89	4018.70
455.07	3962.53
455.26	4161.47
455.44	4290.20
455.62	4037.42
455.81	4098.28
455.99	4084.23
456.17	4194.24
456.36	4217.65
456.54	4140.41
456.73	4152.11
456.91	4203.60
457.09	4201.26
457.28	4327.65
457.46	4308.93
457.64	4283.18
457.83	4458.72
458.01	4152.11
458.19	4442.34
458.38	4472.76
458.56	4542.98
458.74	4278.50
458.93	4486.81
459.11	4418.93
459.29	4299.56
459.48	4458.72
459.66	4554.68
459.84	4638.94
460.03	4678.73
460.21	4493.83
460.39	4620.22
460.57	4568.73
460.76	4610.86
460.94	4486.81
461.12	4615.54
461.31	4578.09
461.49	4627.24
461.67	4767.67
461.85	4842.57
462.04	4655.33
462.22	4704.48
462.40	4678.73
462.59	4774.69
462.77	4755.97
462.95	4943.21
463.13	4718.52
463.32	4821.50
463.50	4844.91
463.68	4842.57
463.86	4851.93
464.05	4788.74
464.23	4999.38
464.41	4865.97
464.59	4655.33
464.78	4943.21
464.96	4929.17
465.14	4950.23
465.32	5064.92
465.50	5039.17
465.69	5064.92
465.87	5018.11
466.05	4975.98
466.23	4997.04
466.41	5057.90
466.60	5226.42
466.78	5004.07
466.96	5027.47
467.14	4985.34
467.32	5109.39
467.51	5235.78
467.69	4947.89
467.87	5114.07
468.05	5181.95
468.23	5266.21
468.41	5142.16
468.60	5097.69
468.78	5137.48
468.96	5289.61
469.14	5252.16
469.32	5364.51
469.50	5205.35
469.69	5523.66
469.87	5401.96
470.05	5425.36
470.23	5397.28
470.41	5416.00
470.59	5338.76
470.77	5320.04
470.95	5645.37
471.14	5605.58
471.32	5509.62
471.50	5647.71
471.68	5591.54
471.86	5731.97
472.04	5624.31
472.22	5687.50
472.40	5638.35
472.58	5579.84
472.77	5820.91
472.95	5839.64
473.13	5919.21
473.31	5841.98
473.49	5827.93
473.67	5729.63
473.85	5881.77
474.03	6176.67
474.21	6038.58
474.39	5912.19
474.57	6066.67
474.75	6211.78
474.93	6310.08
475.12	6237.53
475.30	6298.38
475.48	6221.14
475.66	6267.95
475.84	6324.13
476.02	6366.26
476.20	6450.52
476.38	6267.95
476.56	6527.75
476.74	6745.42
476.92	6448.18
477.10	6455.20
477.28	6656.48
477.46	6604.99
477.64	6640.10
477.82	6881.18
478.00	6951.39
478.18	6913.94
478.36	7117.57
478.54	7129.27
478.72	7035.65
478.90	7084.80
479.08	7133.95
479.26	7194.81
479.44	7386.73
479.62	7248.64
479.80	7442.90
479.98	7513.12
480.16	7517.80
480.34	7438.22
480.52	7786.96
480.70	7681.64
480.88	7552.91
481.06	7833.77
481.24	7630.15
481.41	7817.39
481.59	8002.29
481.77	8273.79
481.95	8098.25
482.13	8229.32
482.31	8023.36
482.49	8243.37
482.67	8358.05
482.85	8290.18
483.03	8573.38
483.21	8816.80
483.39	8664.66
483.57	8634.24
483.74	8573.38
483.92	8821.48
484.10	8667.00
484.28	9027.45
484.46	8990.00
484.64	9177.24
484.82	9067.24
485.00	9231.07
485.18	9287.25
485.35	9401.93
485.53	9289.59
485.71	9488.53
485.89	9743.65
486.07	9591.52
486.25	9678.12
486.43	9678.12
486.61	9813.87
486.78	9844.29
486.96	10045.58
487.14	10216.44
487.32	10040.90
487.50	10104.09
487.68	10017.49
487.85	10197.71
488.03	10291.34
488.21	10761.78
488.39	10567.52
488.57	10740.72
488.75	10829.66
488.92	10899.87
489.10	10663.48
489.28	10794.55
489.46	11353.94
489.64	11269.68
489.81	11529.48
489.99	11215.85
490.17	11431.18
490.35	11442.88
490.53	11492.03
490.70	11779.92
490.88	11803.32
491.06	11946.09
491.24	11880.56
491.41	11836.09
491.59	11971.84
491.77	12102.91
491.95	12215.26
492.13	12156.74
492.30	12306.54
492.48	12189.51
492.66	12226.96
492.84	12264.41
493.01	12580.38
493.19	12575.70
493.37	12706.77
493.54	12812.09
493.72	12879.97
493.90	12929.12
494.08	13130.41
494.25	13039.12
494.43	13139.77
494.61	13631.28
494.79	13289.56
494.96	13184.24
495.14	13371.48
495.32	13579.79
495.49	13816.18
495.67	13797.46
495.85	13661.71
496.02	13928.53
496.20	13940.23
496.38	14059.60
496.55	13975.34
496.73	14197.69
496.91	14342.80
497.09	14359.19
497.26	14555.79
497.44	14347.48
497.62	14319.40
497.79	14806.23
497.97	14607.28
498.14	14899.85
498.32	14785.16
498.50	14733.67
498.67	15016.88
498.85	15087.09
499.03	15087.09
499.20	14979.43
499.38	15140.93
499.56	15115.18
499.73	15426.47
499.91	15342.21
500.08	15604.35
500.26	15243.91
500.44	15384.34
500.61	15735.42
500.79	15709.68
500.97	15513.07
501.14	16067.78
501.32	15618.39
501.49	16325.24
501.67	15749.46
501.84	15955.43
502.02	15957.77
502.20	16079.48
502.37	16269.06
502.55	16243.32
502.72	16116.93
502.90	16346.30
503.07	16222.25
503.25	16400.13
503.43	16608.44
503.60	16517.16
503.78	16634.19
503.95	16692.70
504.13	16751.21
504.30	16718.45
504.48	16652.91
504.65	16776.96
504.83	17043.78
505.01	17142.08
505.18	16952.50
505.36	17254.43
505.53	17132.72
505.71	16994.63
505.88	17149.11
506.06	17200.60
506.23	17338.69
506.41	17212.30
506.58	17432.31
506.76	17282.52
506.93	17809.14
507.11	17568.06
507.28	17514.23
507.46	17818.50
507.63	17657.00
507.81	17830.20
507.98	17858.29
508.16	17652.32
508.33	17975.31
508.50	18057.23
508.68	18050.21
508.85	18099.36
509.03	18022.12
509.20	18256.18
509.38	18539.38
509.55	18288.95
509.73	18312.35
509.90	18625.98
510.08	18370.86
510.25	18672.79
510.42	18527.68
510.60	18670.45
510.77	18583.85
510.95	18768.76
511.12	18658.75
511.30	18750.03
511.47	18951.32
511.64	18923.23
511.82	19405.38
511.99	18836.63
512.17	19115.16
512.34	19026.21
512.51	19028.56
512.69	19300.06
512.86	19171.33
513.04	19538.79
513.21	19578.58
513.38	19590.28
513.56	19342.19
513.73	19470.92
513.90	19665.18
514.08	19573.90
514.25	19679.22
514.43	19644.12
514.60	19871.15
514.77	20105.20
514.95	19824.34
515.12	20060.73
515.29	19662.84
515.47	20056.05
515.64	20271.38
515.81	20128.61
515.99	20198.82
516.16	20292.44
516.33	20229.25
516.51	20510.11
516.68	20540.54
516.85	20215.21
517.03	20201.16
517.20	20451.60
517.37	20449.26
517.54	20739.49
517.72	20620.12
517.89	20786.30
518.06	20482.03
518.24	20549.90
518.41	20748.85
518.58	20697.36
518.75	20837.79
518.93	20985.24
519.10	21156.10
519.27	20830.77
519.45	21113.97
519.62	20971.20
519.79	20964.18
519.96	21383.13
520.14	21205.25
520.31	21355.05
520.48	21455.69
520.65	21355.05
520.83	21656.98
521.00	21745.92
521.17	21511.86
521.34	21481.44
521.52	21399.52
521.69	21867.63
521.86	21954.22
522.03	21860.60
522.20	21933.16
522.38	21769.32
522.55	21867.63
522.72	21970.61
522.89	21933.16
523.07	22230.41
523.24	21930.82
523.41	22169.55
523.58	22354.46
523.75	22377.86
523.92	22412.97
524.10	22216.36
524.27	22342.75
524.44	22183.60
524.61	22691.49
524.78	22485.53
524.96	22864.69
525.13	22448.08
525.30	22485.53
525.47	22476.16
525.64	22789.80
525.81	22813.20
525.98	22965.34
526.16	22579.15
526.33	22913.84
526.50	23246.20
526.67	22937.25
526.84	22841.29
527.01	23206.41
527.18	23035.55
527.36	23316.42
527.53	23168.96
527.70	23552.81
527.87	23463.87
528.04	22747.67
528.21	23424.08
528.38	23477.91
528.55	23314.08
528.72	23403.02
528.89	23597.28
529.07	23393.65
529.24	23463.87
529.41	23473.23
529.58	23545.79
529.75	23215.77
529.92	23754.10
530.09	23859.42
530.26	23625.37
530.43	23943.68
530.60	23601.96
530.77	23833.68
530.94	23931.98
531.11	23623.03
531.28	23889.85
531.46	24020.92
531.63	23910.91
531.80	24325.19
531.97	24374.34
532.14	24280.72
532.31	24304.12
532.48	24023.26
532.65	24388.38
532.82	24233.91
532.99	24346.25
533.16	24465.62
533.33	24336.89
533.50	24741.80
533.67	24554.56
533.84	24428.17
534.01	24650.52
534.18	24201.14
534.35	24680.95
534.52	24503.07
534.69	24566.26
534.86	24659.88
535.03	25010.96
535.20	24727.76
535.37	24652.86
535.54	24961.81
535.71	24575.62
535.88	25132.67
536.05	24744.14
536.22	25172.46
536.38	25282.47
536.55	25223.95
536.72	25228.63
536.89	24912.66
537.06	25062.46
537.23	25277.79
537.40	25209.91
537.57	24692.65
537.74	24868.19
537.91	25453.33
538.08	25336.30
538.25	25209.91
538.42	25319.92
538.59	25479.07
538.75	25425.24
538.92	25507.16
539.09	25743.55
539.26	25289.49
539.43	25439.28
539.60	25710.78
539.77	25640.57
539.94	25844.20
540.11	25511.84
540.28	25778.66
540.44	25504.82
540.61	25799.73
540.78	25797.38
540.95	25832.49
541.12	26036.12
541.29	25678.02
541.46	25802.07
541.62	25647.59
541.79	25825.47
541.96	25729.51
542.13	25762.28
542.30	26068.89
542.47	26115.70
542.63	26178.89
542.80	26501.89
542.97	26338.05
543.14	26211.66
543.31	26242.09
543.48	26321.66
543.64	26698.49
543.81	26829.56
543.98	26389.54
544.15	26698.49
544.32	26553.38
544.48	26944.25
544.65	26647.00
544.82	26813.18
544.99	26616.57
545.16	26349.75
545.32	26675.09
545.49	26948.93
545.66	27058.93
545.83	26834.24
546.00	27395.97
546.16	26813.18
546.33	26677.43
546.50	26466.78
546.67	26995.74
546.83	26628.27
547.00	26951.27
547.17	26969.99
547.34	27063.61
547.50	27513.00
547.67	27161.92
547.84	27201.71
548.00	27332.78
548.17	27110.43
548.34	27075.32
548.51	27328.10
548.67	27356.18
548.84	27269.58
549.01	27030.85
549.18	27356.18
549.34	27288.31
549.51	27260.22
549.68	27234.47
549.84	27344.48
550.01	27466.19
550.18	27297.67
550.34	27302.35
550.51	27700.24
550.68	27531.72
550.84	27424.06
551.01	27971.74
551.18	27372.57
551.34	27269.58
551.51	27686.20
551.68	27674.49
551.84	27646.41
552.01	27615.98
552.18	27957.70
552.34	27709.60
552.51	28245.58
552.68	28065.36
552.84	27852.38
553.01	27917.91
553.18	27548.11
553.34	27910.89
553.51	28004.51
553.67	28166.01
553.84	28409.42
554.01	28285.37
554.17	28451.55
554.34	28077.07
554.51	27887.48
554.67	28128.56
554.84	28126.22
555.00	28107.49
555.17	28116.86
555.33	28360.27
555.50	28240.90
555.67	28374.31
555.83	28149.62
556.00	28212.82
556.16	28458.57
556.33	28266.65
556.50	28528.79
556.66	28606.03
556.83	28318.14
556.99	28584.96
557.16	28666.88
557.32	28622.41
557.49	28683.27
557.65	28322.82
557.82	28425.81
557.98	28348.57
558.15	28788.59
558.32	28341.55
558.48	28676.24
558.65	28739.44
558.81	28905.62
558.98	28851.78
559.14	28594.32
559.31	28769.86
559.47	28685.61
559.64	28800.29
559.80	28973.49
559.97	29104.56
560.13	28875.19
560.30	28683.27
560.46	28999.24
560.63	28732.42
560.79	28786.25
560.96	29151.37
561.12	29067.11
561.29	28526.45
561.45	28889.23
561.61	28926.68
561.78	29205.20
561.94	29249.67
562.11	28929.02
562.27	29556.28
562.44	29305.85
562.60	29195.84
562.77	29221.59
562.93	29167.76
563.10	29191.16
563.26	29109.24
563.42	29448.62
563.59	28875.19
563.75	29109.24
563.92	29090.52
564.08	28823.70
564.24	29235.63
564.41	28964.13
564.57	28896.25
564.74	29310.53
564.90	29151.37
565.07	29078.82
565.23	29401.81
565.39	29254.36
565.56	29340.96
565.72	29188.82
565.88	29352.66
566.05	29158.39
566.21	29181.80
566.38	29439.26
566.54	29642.88
566.70	29518.84
566.87	29975.24
567.03	29851.19
567.19	29652.25
567.36	29661.61
567.52	29303.51
567.68	29773.95
567.85	29352.66
568.01	29317.55
568.17	28973.49
568.34	29530.54
568.50	29385.43
568.66	29434.58
568.83	29532.88
568.99	29535.22
569.15	29383.09
569.32	29289.46
569.48	28943.06
569.64	29727.14
569.81	29490.75
569.97	29338.62
570.13	29680.33
570.30	29600.76
570.46	29778.64
570.62	29759.91
570.78	29600.76
570.95	29614.80
571.11	29502.45
571.27	29472.03
571.43	29343.30
571.60	29446.28
571.76	29544.58
571.92	29465.00
572.09	30059.50
572.25	29771.61
572.41	29806.72
572.57	29935.45
572.74	29923.75
572.90	29579.69
573.06	29654.59
573.22	29605.44
573.38	29450.96
573.55	29762.25
573.71	29909.71
573.87	29926.09
574.03	29893.32
574.20	29619.48
574.36	29851.19
574.52	29792.68
574.68	29811.40
574.84	29802.04
575.01	29729.48
575.17	29869.92
575.33	29326.91
575.49	30213.98
575.65	30153.12
575.82	30064.18
575.98	29411.17
576.14	30022.05
576.30	29825.45
576.46	29998.65
576.62	29881.62
576.79	29855.87
576.95	29820.77
577.11	30005.67
577.27	29848.85
577.43	29890.98
577.59	29951.84
577.75	30019.71
577.92	29502.45
578.08	29528.20
578.24	29928.43
578.40	29996.31
578.56	30071.20
578.72	29745.87
578.88	30146.10
579.04	30265.47
579.21	29900.34
579.37	29982.26
579.53	30387.18
579.69	29853.53
579.85	29818.42
580.01	29802.04
580.17	29628.84
580.33	30185.89
580.49	29654.59
580.65	29998.65
580.82	30110.99
580.98	29771.61
581.14	30309.94
581.30	30178.87
581.46	29846.51
581.62	30164.82
581.78	30139.08
581.94	30092.27
582.10	29727.14
582.26	29900.34
582.42	30155.46
582.58	30251.42
582.74	29736.51
582.90	29879.28
583.06	29865.24
583.22	29998.65
583.38	29841.83
583.54	30263.13
583.70	29703.74
583.86	29872.26
584.02	29635.86
584.18	30352.07
584.34	30464.41
584.50	30258.45
584.66	29862.90
584.82	29912.05
584.98	30258.45
585.14	29844.17
585.30	29677.99
585.46	29900.34
585.62	30038.44
585.78	30272.49
585.94	29394.79
586.10	30277.17
586.26	30256.11
586.42	30387.18
586.58	30047.80
586.74	30321.64
586.90	30022.05
587.06	29788.00
587.22	30408.24
587.38	29965.88
587.54	30160.14
587.70	30508.88
587.86	30120.35
588.02	30099.29
588.18	30316.96
588.34	30279.51
588.49	30668.04
588.65	30057.16
588.81	30291.21
588.97	29937.79
589.13	30370.79
589.29	29886.30
589.45	30450.37
589.61	30326.32
589.77	30314.62
589.93	30314.62
590.08	30445.69
590.24	30501.86
590.40	30548.67
590.56	30682.08
590.72	30199.93
590.88	29982.26
591.04	30307.60
591.20	30644.63
591.35	30412.92
591.51	30527.61
591.67	30464.41
591.83	30576.76
591.99	30789.75
