SpectraSuite Data File
++++++++++++++++++++++++++++++++++++
Date: Fri Oct 18 13:58:19 GMT-05:00 2013
User: bianchi
Dark Spectrum Present: No
Reference Spectrum Present: No
Number of Sampled Component Spectra: 1
Spectrometers: USB2+H05261
Integration Time (usec): 50000 (USB2+H05261)
Spectra Averaged: 1 (USB2+H05261)
Boxcar Smoothing: 0 (USB2+H05261)
Correct for Electrical Dark: No (USB2+H05261)
Strobe/Lamp Enabled: No (USB2+H05261)
Correct for Detector Non-linearity: No (USB2+H05261)
Correct for Stray Light: No (USB2+H05261)
Number of Pixels in Processed Spectrum: 2048
>>>>>Begin Processed Spectral Data<<<<<
365.73	0.00
365.92	0.00
366.12	0.00
366.32	0.00
366.52	0.00
366.72	0.00
366.91	0.00
367.11	0.00
367.31	0.00
367.51	0.00
367.70	0.00
367.90	0.00
368.10	0.00
368.30	0.00
368.49	0.00
368.69	0.00
368.89	0.00
369.09	0.00
369.28	0.00
369.48	0.00
369.68	0.00
369.87	0.00
370.07	0.00
370.27	0.00
370.47	0.00
370.66	51.49
370.86	138.09
371.06	131.07
371.25	135.75
371.45	121.71
371.65	138.09
371.84	177.88
372.04	149.79
372.24	212.99
372.44	121.71
372.63	191.92
372.83	149.79
373.03	170.86
373.22	208.31
373.42	255.12
373.62	271.50
373.81	252.78
374.01	224.69
374.21	203.63
374.40	255.12
374.60	238.73
374.79	257.46
374.99	215.33
375.19	241.08
375.38	327.68
375.58	266.82
375.78	184.90
375.97	224.69
376.17	210.65
376.37	208.31
376.56	322.99
376.76	236.39
376.95	182.56
377.15	348.74
377.35	278.52
377.54	243.42
377.74	198.95
377.93	262.14
378.13	294.91
378.33	266.82
378.52	241.08
378.72	283.20
378.91	245.76
379.11	229.37
379.31	351.08
379.50	313.63
379.70	318.31
379.89	348.74
380.09	262.14
380.28	290.23
380.48	320.65
380.68	327.68
380.87	266.82
381.07	269.16
381.26	308.95
381.46	355.76
381.65	346.40
381.85	311.29
382.04	376.83
382.24	290.23
382.43	301.93
382.63	297.25
382.83	353.42
383.02	318.31
383.22	348.74
383.41	344.06
383.61	365.12
383.80	463.43
384.00	365.12
384.19	461.09
384.39	393.21
384.58	393.21
384.78	365.12
384.97	341.72
385.17	379.17
385.36	393.21
385.56	390.87
385.75	348.74
385.95	369.80
386.14	433.00
386.34	400.23
386.53	334.70
386.72	430.66
386.92	442.36
387.11	423.64
387.31	381.51
387.50	365.12
387.70	440.02
387.89	353.42
388.09	402.57
388.28	475.13
388.48	444.70
388.67	437.68
388.86	444.70
389.06	437.68
389.25	503.22
389.45	479.81
389.64	423.64
389.84	444.70
390.03	444.70
390.22	433.00
390.42	491.51
390.61	451.72
390.81	512.58
391.00	524.28
391.19	512.58
391.39	482.15
391.58	470.45
391.78	505.56
391.97	531.30
392.16	533.64
392.36	470.45
392.55	503.22
392.75	407.25
392.94	465.77
393.13	517.26
393.33	545.34
393.52	543.00
393.71	650.67
393.91	500.87
394.10	557.05
394.29	631.94
394.49	643.65
394.68	566.41
394.88	603.86
395.07	571.09
395.26	627.26
395.46	589.82
395.65	606.20
395.84	592.16
396.04	653.01
396.23	723.23
396.42	657.69
396.62	695.14
396.81	641.31
397.00	610.88
397.19	664.71
397.39	709.18
397.58	629.60
397.77	699.82
397.97	674.07
398.16	753.65
398.35	711.52
398.55	660.03
398.74	622.58
398.93	664.71
399.12	692.80
399.32	667.05
399.51	699.82
399.70	718.54
399.90	695.14
400.09	737.27
400.28	781.74
400.47	760.67
400.67	706.84
400.86	732.59
401.05	732.59
401.24	851.96
401.44	772.38
401.63	800.46
401.82	807.48
402.01	786.42
402.21	798.12
402.40	866.00
402.59	901.11
402.78	723.23
402.97	781.74
403.17	875.36
403.36	882.38
403.55	849.61
403.74	917.49
403.93	812.17
404.13	788.76
404.32	877.70
404.51	889.40
404.70	884.72
404.89	961.96
405.09	898.77
405.28	950.26
405.47	1029.84
405.66	973.66
405.85	1008.77
406.05	1107.07
406.24	976.00
406.43	1025.15
406.62	1036.86
406.81	983.02
407.00	1057.92
407.20	1004.09
407.39	1006.43
407.58	1034.52
407.77	1132.82
407.96	1151.54
408.15	1078.99
408.34	1086.01
408.54	1153.88
408.73	1100.05
408.92	1177.29
409.11	1097.71
409.30	1139.84
409.49	1041.54
409.68	1111.75
409.87	1214.74
410.07	1196.01
410.26	1268.57
410.45	1226.44
410.64	1228.78
410.83	1207.72
411.02	1165.59
411.21	1273.25
411.40	1231.12
411.59	1315.38
411.78	1282.61
411.98	1313.04
412.17	1294.32
412.36	1409.00
412.55	1397.30
412.74	1376.24
412.93	1334.11
413.12	1315.38
413.31	1409.00
413.50	1458.15
413.69	1359.85
413.88	1425.39
414.07	1481.56
414.26	1378.58
414.45	1406.66
414.64	1418.36
414.83	1427.73
415.02	1514.33
415.22	1540.07
415.41	1530.71
415.60	1516.67
415.79	1544.75
415.98	1535.39
416.17	1661.78
416.36	1579.86
416.55	1640.72
416.74	1519.01
416.93	1619.65
417.12	1650.08
417.31	1659.44
417.50	1629.01
417.69	1830.30
417.88	1785.83
418.07	1647.74
418.26	1699.23
418.45	1839.66
418.64	1769.44
418.83	1748.38
419.02	1694.55
419.21	1874.77
419.39	1750.72
419.58	1804.55
419.77	1802.21
419.96	1790.51
420.15	1902.86
420.34	1795.19
420.53	1839.66
420.72	1933.28
420.91	1905.20
421.10	1959.03
421.29	1891.15
421.48	1886.47
421.67	1874.77
421.86	1942.64
422.05	1909.88
422.24	1984.77
422.43	1991.80
422.61	1996.48
422.80	2005.84
422.99	2001.16
423.18	2047.97
423.37	1987.11
423.56	1947.33
423.75	2040.95
423.94	1977.75
424.13	1849.02
424.32	1881.79
424.50	1952.01
424.69	1996.48
424.88	2099.46
425.07	2040.95
425.26	1975.41
425.45	1973.07
425.64	1952.01
425.83	1968.39
426.01	2099.46
426.20	1942.64
426.39	2108.82
426.58	2069.03
426.77	2139.25
426.96	2001.16
427.15	2090.10
427.33	2195.42
427.52	2146.27
427.71	2064.35
427.90	2125.21
428.09	2174.36
428.28	2157.97
428.46	2181.38
428.65	2228.19
428.84	2197.76
429.03	2251.60
429.22	2235.21
429.40	2253.94
429.59	2207.13
429.78	2181.38
429.97	2139.25
430.16	2239.89
430.34	2417.77
430.53	2328.83
430.72	2291.38
430.91	2326.49
431.10	2298.41
431.28	2417.77
431.47	2368.62
431.66	2483.31
431.85	2312.45
432.03	2340.54
432.22	2487.99
432.41	2408.41
432.60	2492.67
432.79	2431.82
432.97	2464.58
433.16	2450.54
433.35	2457.56
433.54	2569.91
433.72	2504.37
433.91	2485.65
434.10	2576.93
434.28	2443.52
434.47	2518.42
434.66	2532.46
434.85	2569.91
435.03	2572.25
435.22	2551.18
435.41	2722.04
435.59	2658.85
435.78	2740.77
435.97	2562.89
436.16	2626.08
436.34	2649.49
436.53	2850.77
436.72	2642.46
436.90	2630.76
437.09	2686.94
437.28	2682.25
437.46	2693.96
437.65	2658.85
437.84	2923.33
438.02	2736.09
438.21	2759.49
438.40	2693.96
438.58	2918.65
438.77	2937.37
438.96	2942.05
439.14	2747.79
439.33	2958.44
439.52	2970.14
439.70	2967.80
439.89	3070.78
440.08	3000.57
440.26	3077.80
440.45	3012.27
440.63	2935.03
440.82	3096.53
441.01	3087.17
441.19	3150.36
441.38	3141.00
441.57	3201.85
441.75	3206.53
441.94	3239.30
442.12	3255.69
442.31	3281.43
442.50	3314.20
442.68	3279.09
442.87	3286.11
443.05	3403.14
443.24	3346.97
443.43	3384.41
443.61	3433.57
443.80	3482.72
443.98	3302.50
444.17	3295.47
444.35	3379.73
444.54	3473.36
444.73	3435.91
444.91	3412.50
445.10	3447.61
445.28	3339.94
445.47	3365.69
445.65	3426.54
445.84	3382.07
446.02	3461.65
446.21	3288.45
446.39	3471.01
446.58	3494.42
446.77	3342.28
446.95	3365.69
447.14	3419.52
447.32	3442.93
447.51	3559.95
447.69	3449.95
447.88	3466.33
448.06	3604.42
448.25	3463.99
448.43	3545.91
448.62	3559.95
448.80	3499.10
448.99	3548.25
449.17	3602.08
449.36	3520.17
449.54	3730.81
449.73	3728.47
449.91	3641.87
450.10	3861.88
450.28	3730.81
450.46	3749.54
450.65	3674.64
450.83	3613.79
451.02	3676.98
451.20	3831.46
451.39	3669.96
451.57	3784.65
451.76	3812.73
451.94	3866.56
452.13	3796.35
452.31	3882.95
452.49	3911.04
452.68	3936.78
452.86	3936.78
453.05	3908.69
453.23	3964.87
453.42	3880.61
453.60	3866.56
453.78	4030.40
453.97	3880.61
454.15	4028.06
454.34	3861.88
454.52	4091.26
454.70	3936.78
454.89	4079.55
455.07	3913.38
455.26	4035.08
455.44	4250.41
455.62	4070.19
455.81	4121.68
455.99	4222.33
456.17	4074.87
456.36	4091.26
456.54	4065.51
456.73	4166.15
456.91	4374.46
457.09	4252.75
457.28	4320.63
457.46	4266.80
457.64	4376.80
457.83	4241.05
458.01	4386.16
458.19	4479.79
458.38	4290.20
458.56	4514.89
458.74	4383.82
458.93	4341.69
459.11	4472.76
459.29	4440.00
459.48	4402.55
459.66	4486.81
459.84	4386.16
460.03	4594.47
460.21	4498.51
460.39	4407.23
460.57	4564.04
460.76	4510.21
460.94	4596.81
461.12	4711.50
461.31	4660.01
461.49	4596.81
461.67	4667.03
461.85	4681.07
462.04	4662.35
462.22	4943.21
462.40	4716.18
462.59	4512.55
462.77	4695.11
462.95	4898.74
463.13	4741.93
463.32	4835.55
463.50	4800.44
463.68	5029.81
463.86	4732.56
464.05	4791.08
464.23	4816.82
464.41	4908.10
464.59	4755.97
464.78	4971.30
464.96	4894.06
465.14	4786.40
465.32	4915.12
465.50	4919.81
465.69	5001.72
465.87	5032.15
466.05	4973.64
466.23	5011.09
466.41	4985.34
466.60	5203.01
466.78	4868.31
466.96	4980.66
467.14	5057.90
467.32	5118.75
467.51	5132.79
467.69	4968.96
467.87	5207.69
468.05	5074.28
468.23	5093.01
468.41	5177.26
468.60	5109.39
468.78	5270.89
468.96	5191.31
469.14	5249.82
469.32	5455.79
469.50	5207.69
469.69	5350.46
469.87	5352.81
470.05	5441.75
470.23	5430.04
470.41	5252.16
470.59	5371.53
470.77	5455.79
470.95	5448.77
471.14	5596.22
471.32	5481.53
471.50	5425.36
471.68	5563.45
471.86	5640.69
472.04	5738.99
472.22	5755.38
472.40	5537.71
472.58	5509.62
472.77	5767.08
472.95	5771.76
473.13	6050.28
473.31	5837.30
473.49	5682.82
473.67	5825.59
473.85	5921.56
474.03	5830.27
474.21	5912.19
474.39	6115.82
474.57	6092.41
474.75	6249.23
474.93	6209.44
475.12	6076.03
475.30	5947.30
475.48	6186.04
475.66	6265.61
475.84	6200.08
476.02	6235.19
476.20	6352.21
476.38	6352.21
476.56	6506.69
476.74	6537.12
476.92	6534.78
477.10	6616.69
477.28	6574.56
477.46	6696.27
477.64	6738.40
477.82	6731.38
478.00	6918.62
478.18	6951.39
478.36	7040.33
478.54	7012.24
478.72	7239.28
478.90	7005.22
479.08	7122.25
479.26	7218.21
479.44	7365.67
479.62	7290.77
479.80	7372.69
479.98	7403.11
480.16	7566.95
480.34	7414.82
480.52	7442.90
480.70	7693.34
480.88	7463.97
481.06	7700.36
481.24	7772.92
481.41	7789.30
481.59	7726.11
481.77	8018.68
481.95	8025.70
482.13	8070.17
482.31	8077.19
482.49	8290.18
482.67	8124.00
482.85	8269.11
483.03	8446.99
483.21	8592.11
483.39	8517.21
483.57	8557.00
483.74	8657.64
483.92	8809.78
484.10	8603.81
484.28	8898.72
484.46	8809.78
484.64	9144.47
484.82	9015.74
485.00	8978.30
485.18	9256.82
485.35	9521.30
485.53	9380.87
485.71	9633.64
485.89	9650.03
486.07	9371.50
486.25	9472.15
486.43	9504.92
486.61	9935.57
486.78	9802.16
486.96	9755.35
487.14	10024.51
487.32	10080.69
487.50	10108.77
487.68	10349.85
487.85	10150.90
488.03	10541.77
488.21	10539.43
488.39	10733.70
488.57	10487.94
488.75	10700.93
488.92	10855.40
489.10	10993.50
489.28	10761.78
489.46	11082.44
489.64	10993.50
489.81	11321.17
489.99	11220.53
490.17	11459.26
490.35	11346.92
490.53	11337.56
490.70	11712.04
490.88	11618.42
491.06	11672.25
491.24	11705.02
491.41	11587.99
491.59	11882.90
491.77	11915.67
491.95	12020.99
492.13	12236.32
492.30	12145.04
492.48	12135.68
492.66	12065.46
492.84	12360.37
493.01	12416.54
493.19	12627.19
493.37	12762.94
493.54	12685.70
493.72	12767.62
493.90	12805.07
494.08	12807.41
494.25	13046.15
494.43	12950.18
494.61	13205.30
494.79	13369.14
494.96	13275.52
495.14	13198.28
495.32	13802.14
495.49	13647.66
495.67	13525.96
495.85	13635.96
496.02	14019.81
496.20	14019.81
496.38	13748.31
496.55	13942.57
496.73	14396.64
496.91	14207.05
497.09	14298.33
497.26	14256.20
497.44	14162.58
497.62	14382.59
497.79	14656.43
497.97	14445.79
498.14	14670.48
498.32	14871.76
498.50	14878.79
498.67	14728.99
498.85	14733.67
499.03	15051.99
499.20	15040.28
499.38	15033.26
499.56	15267.31
499.73	15129.22
499.91	15276.68
500.08	15520.09
500.26	15227.53
500.44	15552.86
500.61	15342.21
500.79	15604.35
500.97	15672.23
501.14	15922.66
501.32	15967.13
501.49	15704.99
501.67	15730.74
501.84	15978.84
502.02	15974.16
502.20	16130.97
502.37	16248.00
502.55	16112.25
502.72	16329.92
502.90	16320.56
503.07	16198.85
503.25	16444.60
503.43	16081.82
503.60	16367.37
503.78	16615.46
503.95	16475.03
504.13	16432.90
504.30	16596.74
504.48	16493.76
504.65	16683.34
504.83	16744.19
505.01	16992.29
505.18	17013.35
505.36	17165.49
505.53	16882.28
505.71	17029.74
505.88	17102.29
506.06	17097.61
506.23	17172.51
506.41	17188.89
506.58	17071.87
506.76	17659.34
506.93	17277.83
507.11	17455.72
507.28	17769.35
507.46	17404.22
507.63	17792.75
507.81	18082.98
507.98	17759.98
508.16	17380.82
508.33	17984.68
508.50	17713.17
508.68	17980.00
508.85	18104.04
509.03	18228.09
509.20	18169.58
509.38	18398.95
509.55	18340.44
509.73	18324.05
509.90	18150.85
510.08	18583.85
510.25	18532.36
510.42	18490.23
510.60	18511.30
510.77	18670.45
510.95	18705.56
511.12	18487.89
511.30	18757.05
511.47	18661.09
511.64	18850.67
511.82	19440.49
511.99	18881.10
512.17	19040.26
512.34	19014.51
512.51	19070.68
512.69	18956.00
512.86	19152.60
513.04	19449.85
513.21	19300.06
513.38	19199.41
513.56	19421.77
513.73	19548.15
513.90	19620.71
514.08	19641.78
514.25	19726.04
514.43	19606.67
514.60	19639.44
514.77	19637.09
514.95	19653.48
515.12	19538.79
515.29	19892.21
515.47	19957.75
515.64	20070.09
515.81	19934.34
515.99	19997.54
516.16	20322.87
516.33	20341.60
516.51	20425.86
516.68	20250.32
516.85	20250.32
517.03	20453.94
517.20	20622.46
517.37	20521.82
517.54	20594.37
517.72	20788.64
517.89	20524.16
518.06	20622.46
518.24	20414.15
518.41	20589.69
518.58	20381.38
518.75	20615.44
518.93	21102.27
519.10	20875.24
519.27	21071.84
519.45	20844.81
519.62	21270.79
519.79	20716.08
519.96	20823.75
520.14	21336.32
520.31	21046.10
520.48	21371.43
520.65	21036.74
520.83	21099.93
521.00	21451.01
521.17	21502.50
521.34	21635.91
521.52	21561.02
521.69	21561.02
521.86	21549.31
522.03	21504.84
522.20	21518.89
522.38	21874.65
522.55	21799.75
522.72	22005.72
522.89	21792.73
523.07	21994.01
523.24	21996.35
523.41	22040.82
523.58	21869.97
523.75	22174.24
523.92	21970.61
524.10	22314.67
524.27	22401.27
524.44	22375.52
524.61	22600.21
524.78	22195.30
524.96	22274.88
525.13	22829.59
525.30	22527.66
525.47	22707.88
525.64	22654.05
525.81	22946.61
525.98	22799.16
526.16	22459.78
526.33	22609.58
526.50	23232.16
526.67	22705.54
526.84	23154.92
527.01	22658.73
527.18	22789.80
527.36	22714.90
527.53	23187.69
527.70	23377.27
527.87	22972.36
528.04	23152.58
528.21	23393.65
528.38	22967.68
528.55	23131.51
528.72	23068.32
528.89	23381.95
529.07	23587.92
529.24	23550.47
529.41	23405.36
529.58	23204.07
529.75	23564.51
529.92	23325.78
530.09	23616.01
530.26	23962.40
530.43	23428.76
530.60	23817.29
530.77	23800.91
530.94	23997.51
531.11	23679.20
531.28	23442.81
531.46	23920.28
531.63	23775.16
531.80	23939.00
531.97	24229.23
532.14	23793.89
532.31	24196.46
532.48	24339.23
532.65	23962.40
532.82	24046.66
532.99	24269.01
533.16	23908.57
533.33	24271.36
533.50	23990.49
533.67	24540.52
533.84	24250.29
534.01	24243.27
534.18	24212.84
534.35	24498.39
534.52	24503.07
534.69	24641.16
534.86	24758.19
535.03	24395.40
535.20	24793.29
535.37	24795.64
535.54	24669.25
535.71	24336.89
535.88	24865.85
536.05	24414.13
536.22	24753.51
536.38	24870.53
536.55	24451.58
536.72	24769.89
536.89	25010.96
537.06	24755.85
537.23	25282.47
537.40	24971.18
537.57	25041.39
537.74	24994.58
537.91	25174.80
538.08	24952.45
538.25	24889.26
538.42	25282.47
538.59	25139.69
538.75	24917.34
538.92	24987.56
539.09	25249.70
539.26	25329.28
539.43	25476.73
539.60	25731.85
539.77	25411.20
539.94	25738.87
540.11	25521.20
540.28	25448.64
540.44	25443.96
540.61	25453.33
540.78	25443.96
540.95	25654.61
541.12	25827.81
541.29	25970.58
541.46	26073.57
541.62	25399.49
541.79	25635.89
541.96	25511.84
542.13	25607.80
542.30	26103.99
542.47	26108.68
542.63	26103.99
542.80	25895.69
542.97	25902.71
543.14	26600.19
543.31	26319.32
543.48	26382.52
543.64	26408.26
543.81	26366.13
543.98	26764.03
544.15	26668.06
544.32	26415.29
544.48	26888.07
544.65	26302.94
544.82	26551.04
544.99	26548.70
545.16	26480.82
545.32	26731.26
545.49	26506.57
545.66	26731.26
545.83	26829.56
546.00	27056.59
546.16	26902.12
546.33	26562.74
546.50	26452.73
546.67	26939.57
546.83	26637.64
547.00	27080.00
547.17	27007.44
547.34	26939.57
547.50	27173.62
547.67	27087.02
547.84	26796.79
548.00	27227.45
548.17	27463.85
548.34	27316.39
548.51	27133.83
548.67	27157.24
548.84	27154.90
549.01	27101.06
549.18	27225.11
549.34	27119.79
549.51	27122.13
549.68	27126.81
549.84	26946.59
550.01	27407.67
550.18	27072.98
550.34	27143.19
550.51	27468.53
550.68	27314.05
550.84	27274.26
551.01	27594.92
551.18	27374.91
551.34	27735.35
551.51	27321.07
551.68	27449.80
551.84	27580.87
552.01	27623.00
552.18	27590.24
552.34	27321.07
552.51	27606.62
552.68	27843.01
552.84	27955.36
553.01	27702.58
553.18	27646.41
553.34	27873.44
553.51	27873.44
553.67	27824.29
553.84	28240.90
554.01	27718.96
554.17	27906.21
554.34	27910.89
554.51	27859.40
554.67	27761.09
554.84	27761.09
555.00	28154.30
555.17	28290.06
555.33	28432.83
555.50	28081.75
555.67	28297.08
555.83	28236.22
556.00	28299.42
556.16	28472.62
556.33	27868.76
556.50	28048.98
556.66	28524.11
556.83	28283.03
556.99	28610.71
557.16	28528.79
557.32	28287.71
557.49	28542.83
557.65	28170.69
557.82	28645.82
557.98	28215.16
558.15	28505.38
558.32	28701.99
558.48	28648.16
558.65	28411.76
558.81	28723.05
558.98	28610.71
559.14	28631.77
559.31	28591.98
559.47	28236.22
559.64	28554.54
559.80	28500.70
559.97	28779.23
560.13	28453.89
560.30	28933.70
560.46	28882.21
560.63	28727.74
560.79	28795.61
560.96	28814.34
561.12	28570.92
561.29	28690.29
561.45	28961.79
561.61	29050.73
561.78	28828.38
561.94	29209.89
562.11	28884.55
562.27	28694.97
562.44	29120.95
562.60	29113.92
562.77	28816.68
562.93	28952.43
563.10	29099.88
563.26	28716.03
563.42	29448.62
563.59	28910.30
563.75	29057.75
563.92	29441.60
564.08	28737.10
564.24	29041.37
564.41	28968.81
564.57	28931.36
564.74	29027.32
564.90	29184.14
565.07	29188.82
565.23	29109.24
565.39	29315.21
565.56	29345.64
565.72	29109.24
565.88	29240.31
566.05	29088.18
566.21	29106.90
566.38	29469.69
566.54	29151.37
566.70	29455.64
566.87	29158.39
567.03	29226.27
567.19	29659.27
567.36	29591.39
567.52	29357.34
567.68	29399.47
567.85	29144.35
568.01	29064.77
568.17	29352.66
568.34	29378.40
568.50	29322.23
568.66	29144.35
568.83	29951.84
568.99	29577.35
569.15	29443.94
569.32	29179.46
569.48	29408.83
569.64	29408.83
569.81	29312.87
569.97	29549.26
570.13	29766.93
570.30	29312.87
570.46	29439.26
570.62	29411.17
570.78	29266.06
570.95	29151.37
571.11	29474.37
571.27	29560.97
571.43	28992.22
571.60	29001.58
571.76	29343.30
571.92	29397.13
572.09	29369.04
572.25	29860.55
572.41	29619.48
572.57	29900.34
572.74	29811.40
572.90	29507.13
573.06	29399.47
573.22	29778.64
573.38	29539.90
573.55	29717.78
573.71	29869.92
573.87	29647.57
574.03	29373.72
574.20	29792.68
574.36	29497.77
574.52	29544.58
574.68	29394.79
574.84	29443.94
575.01	29825.45
575.17	29591.39
575.33	29469.69
575.49	29394.79
575.65	30031.41
575.82	29441.60
575.98	29612.46
576.14	29865.24
576.30	29582.03
576.46	29469.69
576.62	29502.45
576.79	29876.94
576.95	29551.60
577.11	29567.99
577.27	30263.13
577.43	29549.26
577.59	29799.70
577.75	29783.32
577.92	29247.33
578.08	29207.55
578.24	29565.65
578.40	29544.58
578.56	29895.66
578.72	29724.80
578.88	29921.41
579.04	30089.93
579.21	29851.19
579.37	29689.70
579.53	30047.80
579.69	29795.02
579.85	29628.84
580.01	29883.96
580.17	29752.89
580.33	29736.51
580.49	29462.66
580.65	29951.84
580.82	29886.30
580.98	29149.03
581.14	29900.34
581.30	29825.45
581.46	29984.60
581.62	29652.25
581.78	29713.10
581.94	29710.76
582.10	29996.31
582.26	29888.64
582.42	29717.78
582.58	30120.35
582.74	29876.94
582.90	30029.07
583.06	29895.66
583.22	29699.06
583.38	29900.34
583.54	29979.92
583.70	30192.91
583.86	29757.57
584.02	29846.51
584.18	29956.52
584.34	29944.81
584.50	30110.99
584.66	30038.44
584.82	29453.30
584.98	30120.35
585.14	30122.69
585.30	29553.94
585.46	29715.44
585.62	29537.56
585.78	29888.64
585.94	29495.43
586.10	29975.24
586.26	29855.87
586.42	29764.59
586.58	29942.47
586.74	29853.53
586.90	29713.10
587.06	29640.54
587.22	29558.63
587.38	29759.91
587.54	30122.69
587.70	30181.21
587.86	29766.93
588.02	30403.56
588.18	29986.94
588.34	30078.22
588.49	30103.97
588.65	29979.92
588.81	29876.94
588.97	29909.71
589.13	30026.73
589.29	29788.00
589.45	30103.97
589.61	30164.82
589.77	30300.58
589.93	30558.03
590.08	30408.24
590.24	30246.74
590.40	30377.81
590.56	30251.42
590.72	30075.88
590.88	30223.34
591.04	30092.27
591.20	30345.05
591.35	30506.54
591.51	30527.61
591.67	30204.61
591.83	30581.44
591.99	30132.06
