SpectraSuite Data File
++++++++++++++++++++++++++++++++++++
Date: Fri Oct 18 13:58:26 GMT-05:00 2013
User: bianchi
Dark Spectrum Present: No
Reference Spectrum Present: No
Number of Sampled Component Spectra: 1
Spectrometers: USB2+H05261
Integration Time (usec): 50000 (USB2+H05261)
Spectra Averaged: 1 (USB2+H05261)
Boxcar Smoothing: 0 (USB2+H05261)
Correct for Electrical Dark: No (USB2+H05261)
Strobe/Lamp Enabled: No (USB2+H05261)
Correct for Detector Non-linearity: No (USB2+H05261)
Correct for Stray Light: No (USB2+H05261)
Number of Pixels in Processed Spectrum: 2048
>>>>>Begin Processed Spectral Data<<<<<
365.73	0.00
365.92	0.00
366.12	0.00
366.32	0.00
366.52	0.00
366.72	0.00
366.91	0.00
367.11	0.00
367.31	0.00
367.51	0.00
367.70	0.00
367.90	0.00
368.10	0.00
368.30	0.00
368.49	0.00
368.69	0.00
368.89	0.00
369.09	0.00
369.28	0.00
369.48	0.00
369.68	0.00
369.87	0.00
370.07	0.00
370.27	0.00
370.47	0.00
370.66	58.51
370.86	119.37
371.06	72.56
371.25	95.96
371.45	138.09
371.65	88.94
371.84	142.77
372.04	135.75
372.24	163.84
372.44	180.22
372.63	210.65
372.83	175.54
373.03	163.84
373.22	264.48
373.42	175.54
373.62	231.71
373.81	196.60
374.01	255.12
374.21	203.63
374.40	205.97
374.60	259.80
374.79	187.24
374.99	292.57
375.19	241.08
375.38	283.20
375.58	250.44
375.78	299.59
375.97	318.31
376.17	287.89
376.37	362.78
376.56	306.61
376.76	250.44
376.95	290.23
377.15	259.80
377.35	166.18
377.54	259.80
377.74	224.69
377.93	243.42
378.13	266.82
378.33	287.89
378.52	238.73
378.72	283.20
378.91	269.16
379.11	334.70
379.31	322.99
379.50	297.25
379.70	320.65
379.89	292.57
380.09	339.38
380.28	358.10
380.48	269.16
380.68	283.20
380.87	290.23
381.07	292.57
381.26	285.55
381.46	355.76
381.65	308.95
381.85	320.65
382.04	337.04
382.24	255.12
382.43	231.71
382.63	292.57
382.83	325.33
383.02	444.70
383.22	355.76
383.41	341.72
383.61	383.85
383.80	346.40
384.00	344.06
384.19	381.51
384.39	346.40
384.58	374.49
384.78	346.40
384.97	395.55
385.17	388.53
385.36	402.57
385.56	334.70
385.75	339.38
385.95	388.53
386.14	407.25
386.34	404.91
386.53	442.36
386.72	416.62
386.92	442.36
387.11	447.04
387.31	437.68
387.50	397.89
387.70	454.06
387.89	498.53
388.09	484.49
388.28	444.70
388.48	442.36
388.67	538.32
388.86	435.34
389.06	465.77
389.25	456.40
389.45	484.49
389.64	435.34
389.84	510.24
390.03	409.59
390.22	479.81
390.42	496.19
390.61	505.56
390.81	503.22
391.00	456.40
391.19	561.73
391.39	538.32
391.58	573.43
391.78	477.47
391.97	517.26
392.16	498.53
392.36	484.49
392.55	486.83
392.75	510.24
392.94	545.34
393.13	557.05
393.33	540.66
393.52	507.90
393.71	571.09
393.91	575.77
394.10	580.45
394.29	559.39
394.49	631.94
394.68	657.69
394.88	575.77
395.07	592.16
395.26	634.29
395.46	601.52
395.65	589.82
395.84	657.69
396.04	629.60
396.23	653.01
396.42	564.07
396.62	603.86
396.81	561.73
397.00	697.48
397.19	645.99
397.39	713.86
397.58	592.16
397.77	624.92
397.97	627.26
398.16	634.29
398.35	676.41
398.55	781.74
398.74	638.97
398.93	706.84
399.12	641.31
399.32	695.14
399.51	732.59
399.70	650.67
399.90	753.65
400.09	723.23
400.28	706.84
400.47	737.27
400.67	718.54
400.86	748.97
401.05	751.31
401.24	751.31
401.44	723.23
401.63	788.76
401.82	809.83
402.01	763.01
402.21	805.14
402.40	809.83
402.59	880.04
402.78	868.34
402.97	847.27
403.17	788.76
403.36	786.42
403.55	849.61
403.74	866.00
403.93	863.66
404.13	966.64
404.32	884.72
404.51	943.24
404.70	966.64
404.89	959.62
405.09	968.98
405.28	966.64
405.47	973.66
405.66	1053.24
405.85	961.96
406.05	894.08
406.24	938.55
406.43	1025.15
406.62	929.19
406.81	1022.81
407.00	1074.31
407.20	1053.24
407.39	997.07
407.58	952.60
407.77	1081.33
407.96	990.05
408.15	1090.69
408.34	1004.09
408.54	1039.20
408.73	1060.26
408.92	1086.01
409.11	1144.52
409.30	1198.35
409.49	1132.82
409.68	1116.44
409.87	1114.10
410.07	1158.57
410.26	1191.33
410.45	1095.37
410.64	1203.04
410.83	1240.48
411.02	1193.67
411.21	1231.12
411.40	1125.80
411.59	1160.91
411.78	1289.64
411.98	1259.21
412.17	1282.61
412.36	1235.80
412.55	1231.12
412.74	1280.27
412.93	1275.59
413.12	1308.36
413.31	1483.90
413.50	1345.81
413.69	1287.29
413.88	1444.11
414.07	1369.21
414.26	1373.89
414.45	1394.96
414.64	1394.96
414.83	1551.78
415.02	1551.78
415.22	1568.16
415.41	1526.03
415.60	1657.10
415.79	1488.58
415.98	1577.52
416.17	1528.37
416.36	1715.61
416.55	1631.35
416.74	1607.95
416.93	1650.08
417.12	1682.85
417.31	1668.80
417.50	1685.19
417.69	1776.47
417.88	1724.97
418.07	1722.63
418.26	1762.42
418.45	1760.08
418.64	1732.00
418.83	1813.92
419.02	1774.13
419.21	1755.40
419.39	1722.63
419.58	1895.83
419.77	1820.94
419.96	1781.15
420.15	1973.07
420.34	1830.30
420.53	1842.00
420.72	1909.88
420.91	1867.75
421.10	1952.01
421.29	2069.03
421.48	1865.41
421.67	1937.96
421.86	1984.77
422.05	1956.69
422.24	1944.99
422.43	1902.86
422.61	1919.24
422.80	2083.08
422.99	1961.37
423.18	1959.03
423.37	2059.67
423.56	1952.01
423.75	2015.20
423.94	1989.46
424.13	1879.45
424.32	1870.09
424.50	2001.16
424.69	1959.03
424.88	2113.50
425.07	1944.99
425.26	2125.21
425.45	2012.86
425.64	2132.23
425.83	2017.54
426.01	2062.01
426.20	2022.22
426.39	2033.93
426.58	1996.48
426.77	2122.87
426.96	2141.59
427.15	2115.84
427.33	2120.53
427.52	2118.18
427.71	2108.82
427.90	2113.50
428.09	2218.83
428.28	2106.48
428.46	2286.70
428.65	2165.00
428.84	2305.43
429.03	2396.71
429.22	2195.42
429.40	2179.04
429.59	2296.07
429.78	2022.22
429.97	2092.44
430.16	2162.66
430.34	2314.79
430.53	2359.26
430.72	2317.13
430.91	2396.71
431.10	2394.37
431.28	2324.15
431.47	2431.82
431.66	2413.09
431.85	2401.39
432.03	2469.27
432.22	2504.37
432.41	2354.58
432.60	2422.45
432.79	2424.80
432.97	2553.52
433.16	2483.31
433.35	2438.84
433.54	2511.39
433.72	2565.23
433.91	2534.80
434.10	2509.05
434.28	2504.37
434.47	2520.76
434.66	2567.57
434.85	2555.86
435.03	2677.57
435.22	2612.04
435.41	2644.81
435.59	2635.44
435.78	2654.17
435.97	2600.34
436.16	2771.19
436.34	2597.99
436.53	2920.99
436.72	2846.09
436.90	2619.06
437.09	2787.58
437.28	2642.46
437.46	2745.45
437.65	2658.85
437.84	2677.57
438.02	2799.28
438.21	2731.41
438.40	2785.24
438.58	2869.50
438.77	2874.18
438.96	2822.69
439.14	2867.16
439.33	2841.41
439.52	3019.29
439.70	2949.08
439.89	2981.84
440.08	3038.02
440.26	2974.82
440.45	2988.86
440.63	3204.19
440.82	3063.76
441.01	3087.17
441.19	3126.96
441.38	3248.66
441.57	3302.50
441.75	3304.84
441.94	3316.54
442.12	3220.58
442.31	3286.11
442.50	3375.05
442.68	3192.49
442.87	3368.03
443.05	3286.11
443.24	3403.14
443.43	3396.12
443.61	3288.45
443.80	3487.40
443.98	3321.22
444.17	3288.45
444.35	3552.93
444.54	3466.33
444.73	3473.36
444.91	3445.27
445.10	3506.12
445.28	3506.12
445.47	3431.23
445.65	3365.69
445.84	3520.17
446.02	3569.32
446.21	3466.33
446.39	3543.57
446.58	3592.72
446.77	3536.55
446.95	3536.55
447.14	3480.38
447.32	3566.98
447.51	3382.07
447.69	3461.65
447.88	3431.23
448.06	3489.74
448.25	3541.23
448.43	3508.46
448.62	3545.91
448.80	3548.25
448.99	3513.14
449.17	3651.24
449.36	3588.04
449.54	3595.06
449.73	3758.90
449.91	3700.39
450.10	3672.30
450.28	3847.84
450.46	3763.58
450.65	3829.12
450.83	3796.35
451.02	3843.16
451.20	3838.48
451.39	3758.90
451.57	3742.52
451.76	3822.09
451.94	3838.48
452.13	3826.78
452.31	3920.40
452.49	3850.18
452.68	3906.35
452.86	3805.71
453.05	3911.04
453.23	3833.80
453.42	3749.54
453.60	3892.31
453.78	3911.04
453.97	3882.95
454.15	3939.12
454.34	3779.97
454.52	3868.91
454.70	4030.40
454.89	4208.28
455.07	3969.55
455.26	4084.23
455.44	4308.93
455.62	4070.19
455.81	4252.75
455.99	4049.13
456.17	3988.27
456.36	4170.83
456.54	4212.96
456.73	4114.66
456.91	4208.28
457.09	4339.35
457.28	4217.65
457.46	4124.02
457.64	4372.12
457.83	4297.22
458.01	4301.90
458.19	4365.10
458.38	4430.63
458.56	4379.14
458.74	4294.88
458.93	4498.51
459.11	4542.98
459.29	4355.74
459.48	4510.21
459.66	4442.34
459.84	4554.68
460.03	4631.92
460.21	4610.86
460.39	4568.73
460.57	4542.98
460.76	4542.98
460.94	4622.56
461.12	4636.60
461.31	4685.75
461.49	4540.64
461.67	4559.36
461.85	4660.01
462.04	4709.16
462.22	4805.12
462.40	4730.22
462.59	4828.53
462.77	4828.53
462.95	4812.14
463.13	4624.90
463.32	4737.24
463.50	4901.08
463.68	4765.33
463.86	4865.97
464.05	4795.76
464.23	4802.78
464.41	4908.10
464.59	4777.03
464.78	4938.53
464.96	4922.15
465.14	4870.65
465.32	4999.38
465.50	5025.13
465.69	5095.35
465.87	4971.30
466.05	4933.85
466.23	4961.94
466.41	4987.68
466.60	5142.16
466.78	5015.77
466.96	5053.22
467.14	5118.75
467.32	5109.39
467.51	5071.94
467.69	5170.24
467.87	5036.83
468.05	5181.95
468.23	5062.58
468.41	5191.31
468.60	5083.64
468.78	5088.32
468.96	5205.35
469.14	5050.88
469.32	5242.80
469.50	5259.18
469.69	5420.68
469.87	5483.88
470.05	5357.49
470.23	5352.81
470.41	5535.37
470.59	5544.73
470.77	5294.29
470.95	5451.11
471.14	5472.17
471.32	5526.00
471.50	5731.97
471.68	5673.46
471.86	5678.14
472.04	5614.95
472.22	5797.51
472.40	5596.22
472.58	5652.39
472.77	5788.14
472.95	5872.40
473.13	5996.45
473.31	5844.32
473.49	5661.76
473.67	5923.90
473.85	5921.56
474.03	6033.90
474.21	6031.56
474.39	5947.30
474.57	6040.92
474.75	6200.08
474.93	6052.63
475.12	6129.86
475.30	6059.65
475.48	6115.82
475.66	6230.51
475.84	6286.68
476.02	6537.12
476.20	6394.34
476.38	6466.90
476.56	6616.69
476.74	6541.80
476.92	6541.80
477.10	6480.94
477.28	6700.95
477.46	6771.17
477.64	6588.61
477.82	6839.05
478.00	7045.01
478.18	7002.88
478.36	7084.80
478.54	7117.57
478.72	7094.16
478.90	7023.95
479.08	7124.59
479.26	7150.34
479.44	7328.22
479.62	7433.54
479.80	7468.65
479.98	7531.84
480.16	7531.84
480.34	7609.08
480.52	7625.47
480.70	7473.33
480.88	7761.22
481.06	7903.99
481.24	7817.39
481.41	7943.78
481.59	8107.62
481.77	7892.29
481.95	7878.24
482.13	8049.10
482.31	7967.18
482.49	8201.24
482.67	8205.92
482.85	8360.39
483.03	8402.52
483.21	8439.97
483.39	8648.28
483.57	8500.83
483.74	8812.12
483.92	8706.79
484.10	8690.41
484.28	8999.36
484.46	9268.52
484.64	9132.77
484.82	8879.99
485.00	9380.87
485.18	9195.96
485.35	9631.30
485.53	9247.46
485.71	9334.06
485.89	9554.07
486.07	9544.70
486.25	9577.47
486.43	9493.21
486.61	9783.44
486.78	9994.09
486.96	10026.86
487.14	10033.88
487.32	10132.18
487.50	10200.05
487.68	10263.25
487.85	10361.55
488.03	10483.26
488.21	10370.91
488.39	10420.06
488.57	10459.85
488.75	10548.79
488.92	10817.96
489.10	10747.74
489.28	10757.10
489.46	11080.10
489.64	11040.31
489.81	11269.68
489.99	11267.34
490.17	11262.66
490.35	11564.59
490.53	11573.95
490.70	11707.36
490.88	11557.57
491.06	11634.80
491.24	11712.04
491.41	11847.79
491.59	11695.66
491.77	12006.95
491.95	12163.76
492.13	12224.62
492.30	12351.01
492.48	12760.60
492.66	12606.13
492.84	12500.80
493.01	12365.05
493.19	12582.72
493.37	12688.04
493.54	12835.50
493.72	13020.40
493.90	12856.56
494.08	12858.90
494.25	13043.81
494.43	13050.83
494.61	13249.77
494.79	13238.07
494.96	13298.92
495.14	13582.13
495.32	13614.90
495.49	13872.36
495.67	13547.02
495.85	13743.63
496.02	13785.76
496.20	13942.57
496.38	13783.41
496.55	13830.23
496.73	14043.21
496.91	14267.91
497.09	14310.04
497.26	14139.18
497.44	14457.49
497.62	14431.74
497.79	14331.10
497.97	14340.46
498.14	14719.63
498.32	14806.23
498.50	14696.22
498.67	14913.89
498.85	14899.85
499.03	14721.97
499.20	14824.95
499.38	14946.66
499.56	15208.80
499.73	15328.17
499.91	15501.37
500.08	15550.52
500.26	15080.07
500.44	15356.25
500.61	15393.70
500.79	15351.57
500.97	15686.27
501.14	15925.00
501.32	15917.98
501.49	15665.21
501.67	15824.36
501.84	16039.69
502.02	16191.83
502.20	15896.92
502.37	16077.14
502.55	15999.90
502.72	16222.25
502.90	16194.17
503.07	16285.45
503.25	15939.05
503.43	16233.96
503.60	16592.06
503.78	16381.41
503.95	16430.56
504.13	16573.33
504.30	16477.37
504.48	16673.98
504.65	16676.32
504.83	16793.34
505.01	17209.96
505.18	16751.21
505.36	17355.07
505.53	17032.08
505.71	17099.95
505.88	17158.47
506.06	17046.12
506.23	17209.96
506.41	17355.07
506.58	17364.43
506.76	17436.99
506.93	17427.63
507.11	17408.90
507.28	17441.67
507.46	17582.10
507.63	17642.96
507.81	17806.80
507.98	17429.97
508.16	17612.53
508.33	17748.28
508.50	17579.76
508.68	17799.77
508.85	18108.72
509.03	18108.72
509.20	18066.60
509.38	18623.64
509.55	18111.07
509.73	18504.28
509.90	18317.03
510.08	18354.48
510.25	18429.38
510.42	18506.62
510.60	18501.93
510.77	18951.32
510.95	18448.10
511.12	18499.59
511.30	18771.10
511.47	18539.38
511.64	18565.13
511.82	18857.70
511.99	19136.22
512.17	19016.85
512.34	19058.98
512.51	19543.47
512.69	19049.62
512.86	19421.77
513.04	19477.94
513.21	19367.93
513.38	19513.05
513.56	19288.35
513.73	19587.94
513.90	19585.60
514.08	19616.03
514.25	19325.80
514.43	19901.58
514.60	19910.94
514.77	19887.53
514.95	19339.85
515.12	19733.06
515.29	19601.99
515.47	19704.97
515.64	20140.31
515.81	19995.20
515.99	20308.83
516.16	20304.15
516.33	20072.43
516.51	20430.54
516.68	20013.92
516.85	20219.89
517.03	20259.68
517.20	20608.42
517.37	20517.14
517.54	20456.28
517.72	20702.04
517.89	20627.14
518.06	20524.16
518.24	20561.61
518.41	20617.78
518.58	20774.60
518.75	20900.98
518.93	20816.72
519.10	20950.14
519.27	21186.53
519.45	21146.74
519.62	21015.67
519.79	21179.51
519.96	21090.57
520.14	21214.62
520.31	21153.76
520.48	21462.71
520.65	21198.23
520.83	21434.63
521.00	21483.78
521.17	21111.63
521.34	21495.48
521.52	21223.98
521.69	21462.71
521.86	21923.80
522.03	21928.48
522.20	21820.81
522.38	21759.96
522.55	22036.14
522.72	21738.90
522.89	21731.87
523.07	22045.51
523.24	22328.71
523.41	21900.39
523.58	22101.68
523.75	22221.05
523.92	22300.62
524.10	22052.53
524.27	22089.98
524.44	22375.52
524.61	22490.21
524.78	22363.82
524.96	22375.52
525.13	22794.48
525.30	22750.01
525.47	22693.83
525.64	22738.30
525.81	22628.30
525.98	22628.30
526.16	22604.89
526.33	22675.11
526.50	23110.45
526.67	22717.24
526.84	22609.58
527.01	23005.13
527.18	22810.86
527.36	22672.77
527.53	23459.19
527.70	23484.94
527.87	23187.69
528.04	22890.44
528.21	23129.17
528.38	22911.50
528.55	23098.75
528.72	23241.52
528.89	23325.78
529.07	23424.08
529.24	23482.59
529.41	23688.56
529.58	23297.69
529.75	23222.80
529.92	23491.96
530.09	23597.28
530.26	23843.04
530.43	23756.44
530.60	23543.45
530.77	23585.58
530.94	23599.62
531.11	24053.69
531.28	23477.91
531.46	23793.89
531.63	24123.90
531.80	24109.86
531.97	24245.61
532.14	24093.47
532.31	24250.29
532.48	24149.65
532.65	24114.54
532.82	23906.23
532.99	24156.67
533.16	24549.88
533.33	24163.69
533.50	24367.32
533.67	24652.86
533.84	24479.66
534.01	24308.80
534.18	24070.07
534.35	24716.06
534.52	24517.11
534.69	24634.14
534.86	24905.64
535.03	24173.05
535.20	24683.29
535.37	24702.01
535.54	24730.10
535.71	24615.41
535.88	24882.24
536.05	24692.65
536.22	24812.02
536.38	25006.28
536.55	24828.40
536.72	25027.35
536.89	24514.77
537.06	25158.42
537.23	25060.12
537.40	24709.04
537.57	24772.23
537.74	24945.43
537.91	25359.70
538.08	25415.88
538.25	24915.00
538.42	25238.00
538.59	25200.55
538.75	25174.80
538.92	25238.00
539.09	25493.12
539.26	25205.23
539.43	25481.41
539.60	25504.82
539.77	25336.30
539.94	25687.38
540.11	25458.01
540.28	25518.86
540.44	25717.81
540.61	25301.19
540.78	25598.44
540.95	25303.53
541.12	26096.97
541.29	26008.03
541.46	25811.43
541.62	25556.31
541.79	25855.90
541.96	25713.13
542.13	25876.96
542.30	25626.53
542.47	25860.58
542.63	25998.67
542.80	26244.43
542.97	26480.82
543.14	26544.02
543.31	26272.51
543.48	26373.16
543.64	26639.98
543.81	26738.28
543.98	26492.52
544.15	26604.87
544.32	26548.70
544.48	27012.12
544.65	26466.78
544.82	26331.03
544.99	26286.56
545.16	26518.27
545.32	26639.98
545.49	26916.16
545.66	26831.90
545.83	26845.94
546.00	26934.88
546.16	26712.53
546.33	26670.40
546.50	26108.68
546.67	26771.05
546.83	26480.82
547.00	26450.39
547.17	26801.47
547.34	26867.01
547.50	26988.72
547.67	27070.64
547.84	27061.27
548.00	27126.81
548.17	27103.40
548.34	26993.40
548.51	27262.56
548.67	27459.16
548.84	26974.67
549.01	27154.90
549.18	27124.47
549.34	27393.63
549.51	27353.84
549.68	27316.39
549.84	27147.87
550.01	27473.21
550.18	27426.40
550.34	27545.76
550.51	27534.06
550.68	27765.78
550.84	27173.62
551.01	27733.01
551.18	27424.06
551.34	27517.68
551.51	27545.76
551.68	27695.56
551.84	27655.77
552.01	27489.59
552.18	27931.95
552.34	27723.65
552.51	27623.00
552.68	28016.21
552.84	27456.82
553.01	27665.13
553.18	27653.43
553.34	28168.35
553.51	27630.02
553.67	28112.17
553.84	28053.66
554.01	28280.69
554.17	27714.28
554.34	27915.57
554.51	28273.67
554.67	28116.86
554.84	27768.12
555.00	27828.97
555.17	28177.71
555.33	27613.64
555.50	27950.68
555.67	28240.90
555.83	28283.03
556.00	28020.89
556.16	28711.35
556.33	28177.71
556.50	27929.61
556.66	28474.96
556.83	28219.84
556.99	28423.47
557.16	28762.84
557.32	28299.42
557.49	28449.21
557.65	28191.75
557.82	28362.61
557.98	28079.41
558.15	28320.48
558.32	28622.41
558.48	28449.21
558.65	28615.39
558.81	28498.36
558.98	28484.32
559.14	28943.06
559.31	28470.28
559.47	28112.17
559.64	28811.99
559.80	28872.85
559.97	28526.45
560.13	28407.08
560.30	28472.62
560.46	28479.64
560.63	28601.35
560.79	28945.41
560.96	28723.05
561.12	28655.18
561.29	28521.77
561.45	28451.55
561.61	28631.77
561.78	28835.40
561.94	29205.20
562.11	28847.10
562.27	28917.32
562.44	28847.10
562.60	29181.80
562.77	28472.62
562.93	28545.17
563.10	29090.52
563.26	29020.30
563.42	29270.74
563.59	29020.30
563.75	28971.15
563.92	29113.92
564.08	28655.18
564.24	29244.99
564.41	28837.74
564.57	29502.45
564.74	29032.00
564.90	28905.62
565.07	29390.11
565.23	29069.45
565.39	29020.30
565.56	29083.50
565.72	29127.97
565.88	29078.82
566.05	29205.20
566.21	29380.74
566.38	28978.17
566.54	29490.75
566.70	29142.01
566.87	29420.53
567.03	29275.42
567.19	29376.06
567.36	29434.58
567.52	29249.67
567.68	29099.88
567.85	29350.32
568.01	29083.50
568.17	29240.31
568.34	29418.19
568.50	29572.67
568.66	29537.56
568.83	29436.92
568.99	29228.61
569.15	29317.55
569.32	29303.51
569.48	28985.19
569.64	29591.39
569.81	29312.87
569.97	29347.98
570.13	29394.79
570.30	29481.39
570.46	29296.49
570.62	29584.37
570.78	29586.71
570.95	29315.21
571.11	29373.72
571.27	29273.08
571.43	29514.16
571.60	29336.27
571.76	29553.94
571.92	28959.45
572.09	29647.57
572.25	29722.46
572.41	29539.90
572.57	29645.23
572.74	29759.91
572.90	29064.77
573.06	29635.86
573.22	29153.71
573.38	29546.92
573.55	29539.90
573.71	29895.66
573.87	30146.10
574.03	30038.44
574.20	29701.40
574.36	29343.30
574.52	29537.56
574.68	29525.86
574.84	29827.79
575.01	29731.83
575.17	29502.45
575.33	29404.15
575.49	29883.96
575.65	29799.70
575.82	29549.26
575.98	29523.52
576.14	29898.00
576.30	29345.64
576.46	29511.81
576.62	29144.35
576.79	29706.08
576.95	29530.54
577.11	29624.16
577.27	30118.01
577.43	29584.37
577.59	29933.11
577.75	29755.23
577.92	29633.52
578.08	29448.62
578.24	29575.01
578.40	29436.92
578.56	29455.64
578.72	29769.27
578.88	29879.28
579.04	29823.11
579.21	29727.14
579.37	29867.58
579.53	29886.30
579.69	29617.14
579.85	29558.63
580.01	29352.66
580.17	29324.57
580.33	29692.04
580.49	29762.25
580.65	29846.51
580.82	29584.37
580.98	30064.18
581.14	29685.01
581.30	29802.04
581.46	29479.05
581.62	29902.68
581.78	29715.44
581.94	29986.94
582.10	29687.36
582.26	29558.63
582.42	30075.88
582.58	30094.61
582.74	29614.80
582.90	30045.46
583.06	29703.74
583.22	29930.77
583.38	29888.64
583.54	29584.37
583.70	29460.32
583.86	29638.20
584.02	30101.63
584.18	29792.68
584.34	30183.55
584.50	29975.24
584.66	29757.57
584.82	29483.73
584.98	29432.24
585.14	29682.67
585.30	29425.22
585.46	30033.75
585.62	29876.94
585.78	29881.62
585.94	29565.65
586.10	30099.29
586.26	30003.33
586.42	30078.22
586.58	30031.41
586.74	29968.22
586.90	29516.50
587.06	29514.16
587.22	29790.34
587.38	30033.75
587.54	29888.64
587.70	29893.32
587.86	30132.06
588.02	30237.38
588.18	29965.88
588.34	30015.03
588.49	29954.18
588.65	30164.82
588.81	29951.84
588.97	29979.92
589.13	29989.28
589.29	29979.92
589.45	30148.44
589.61	29989.28
589.77	30232.70
589.93	30377.81
590.08	30199.93
590.24	30038.44
590.40	30113.33
590.56	30209.29
590.72	30492.50
590.88	30099.29
591.04	30148.44
591.20	30679.74
591.35	30445.69
591.51	30799.11
591.67	30368.45
591.83	30543.99
591.99	30403.56
