SpectraSuite Data File
++++++++++++++++++++++++++++++++++++
Date: Fri Oct 18 13:58:26 GMT-05:00 2013
User: bianchi
Dark Spectrum Present: No
Reference Spectrum Present: No
Number of Sampled Component Spectra: 1
Spectrometers: USB2+H05261
Integration Time (usec): 50000 (USB2+H05261)
Spectra Averaged: 1 (USB2+H05261)
Boxcar Smoothing: 0 (USB2+H05261)
Correct for Electrical Dark: No (USB2+H05261)
Strobe/Lamp Enabled: No (USB2+H05261)
Correct for Detector Non-linearity: No (USB2+H05261)
Correct for Stray Light: No (USB2+H05261)
Number of Pixels in Processed Spectrum: 2048
>>>>>Begin Processed Spectral Data<<<<<
365.73	0.00
365.92	0.00
366.12	0.00
366.32	0.00
366.52	0.00
366.72	0.00
366.91	0.00
367.11	0.00
367.31	0.00
367.51	0.00
367.70	0.00
367.90	0.00
368.10	0.00
368.30	0.00
368.49	0.00
368.69	0.00
368.89	0.00
369.09	0.00
369.28	0.00
369.48	0.00
369.68	0.00
369.87	0.00
370.07	0.00
370.27	0.00
370.47	0.00
370.66	46.81
370.86	156.82
371.06	117.03
371.25	161.50
371.45	110.01
371.65	250.44
371.84	149.79
372.04	131.07
372.24	231.71
372.44	163.84
372.63	161.50
372.83	248.10
373.03	229.37
373.22	210.65
373.42	201.29
373.62	196.60
373.81	212.99
374.01	203.63
374.21	245.76
374.40	229.37
374.60	285.55
374.79	241.08
374.99	315.97
375.19	285.55
375.38	208.31
375.58	205.97
375.78	220.01
375.97	252.78
376.17	285.55
376.37	320.65
376.56	348.74
376.76	355.76
376.95	264.48
377.15	205.97
377.35	250.44
377.54	304.27
377.74	210.65
377.93	231.71
378.13	259.80
378.33	341.72
378.52	294.91
378.72	285.55
378.91	360.44
379.11	308.95
379.31	374.49
379.50	234.05
379.70	297.25
379.89	348.74
380.09	236.39
380.28	287.89
380.48	325.33
380.68	346.40
380.87	334.70
381.07	325.33
381.26	250.44
381.46	383.85
381.65	348.74
381.85	311.29
382.04	332.36
382.24	311.29
382.43	334.70
382.63	367.46
382.83	306.61
383.02	360.44
383.22	423.64
383.41	372.15
383.61	348.74
383.80	334.70
384.00	355.76
384.19	383.85
384.39	367.46
384.58	334.70
384.78	327.68
384.97	327.68
385.17	344.06
385.36	339.38
385.56	341.72
385.75	351.08
385.95	355.76
386.14	306.61
386.34	266.82
386.53	486.83
386.72	374.49
386.92	433.00
387.11	353.42
387.31	374.49
387.50	428.32
387.70	393.21
387.89	449.38
388.09	421.30
388.28	444.70
388.48	402.57
388.67	477.47
388.86	454.06
389.06	517.26
389.25	414.27
389.45	472.79
389.64	463.43
389.84	454.06
390.03	505.56
390.22	437.68
390.42	519.60
390.61	437.68
390.81	479.81
391.00	468.11
391.19	540.66
391.39	533.64
391.58	482.15
391.78	535.98
391.97	479.81
392.16	470.45
392.36	528.96
392.55	521.94
392.75	496.19
392.94	554.71
393.13	479.81
393.33	620.24
393.52	554.71
393.71	580.45
393.91	599.18
394.10	573.43
394.29	568.75
394.49	610.88
394.68	545.34
394.88	599.18
395.07	627.26
395.26	648.33
395.46	575.77
395.65	613.22
395.84	620.24
396.04	669.39
396.23	732.59
396.42	657.69
396.62	620.24
396.81	638.97
397.00	617.90
397.19	688.12
397.39	692.80
397.58	655.35
397.77	702.16
397.97	655.35
398.16	627.26
398.35	725.57
398.55	631.94
398.74	727.91
398.93	695.14
399.12	655.35
399.32	739.61
399.51	601.52
399.70	781.74
399.90	741.95
400.09	791.10
400.28	758.33
400.47	786.42
400.67	692.80
400.86	711.52
401.05	767.70
401.24	816.85
401.44	819.19
401.63	774.72
401.82	952.60
402.01	772.38
402.21	800.46
402.40	744.29
402.59	894.08
402.78	882.38
402.97	889.40
403.17	840.25
403.36	866.00
403.55	807.48
403.74	830.89
403.93	896.43
404.13	961.96
404.32	877.70
404.51	924.51
404.70	945.58
404.89	931.53
405.09	894.08
405.28	973.66
405.47	959.62
405.66	823.87
405.85	983.02
406.05	889.40
406.24	980.68
406.43	933.87
406.62	1071.97
406.81	973.66
407.00	964.30
407.20	1025.15
407.39	919.83
407.58	997.07
407.77	1090.69
407.96	1078.99
408.15	1029.84
408.34	1013.45
408.54	1001.75
408.73	1048.56
408.92	1160.91
409.11	1093.03
409.30	1146.86
409.49	1123.46
409.68	1088.35
409.87	1090.69
410.07	1184.31
410.26	1163.25
410.45	1153.88
410.64	1226.44
410.83	1179.63
411.02	1151.54
411.21	1224.10
411.40	1198.35
411.59	1240.48
411.78	1160.91
411.98	1149.20
412.17	1315.38
412.36	1294.32
412.55	1280.27
412.74	1334.11
412.93	1320.06
413.12	1327.08
413.31	1331.76
413.50	1324.74
413.69	1411.34
413.88	1439.43
414.07	1406.66
414.26	1413.68
414.45	1551.78
414.64	1427.73
414.83	1455.81
415.02	1451.13
415.22	1526.03
415.41	1565.82
415.60	1556.46
415.79	1577.52
415.98	1619.65
416.17	1570.50
416.36	1598.59
416.55	1551.78
416.74	1568.16
416.93	1605.61
417.12	1643.06
417.31	1771.79
417.50	1739.02
417.69	1673.48
417.88	1605.61
418.07	1671.14
418.26	1739.02
418.45	1893.49
418.64	1874.77
418.83	1858.39
419.02	1722.63
419.21	1713.27
419.39	1853.70
419.58	1935.62
419.77	1806.89
419.96	1802.21
420.15	1898.17
420.34	1823.28
420.53	1834.98
420.72	1881.79
420.91	1998.82
421.10	1959.03
421.29	2019.88
421.48	1891.15
421.67	1952.01
421.86	1865.41
422.05	2099.46
422.24	1944.99
422.43	1863.07
422.61	1930.94
422.80	1947.33
422.99	1961.37
423.18	2127.55
423.37	2064.35
423.56	2029.24
423.75	2003.50
423.94	2036.27
424.13	1867.75
424.32	1994.14
424.50	2054.99
424.69	1914.56
424.88	1923.92
425.07	1984.77
425.26	1891.15
425.45	2026.90
425.64	2012.86
425.83	2019.88
426.01	2190.74
426.20	2008.18
426.39	2029.24
426.58	1989.46
426.77	2045.63
426.96	2129.89
427.15	2087.76
427.33	2122.87
427.52	2104.14
427.71	2015.20
427.90	2143.93
428.09	2176.70
428.28	2099.46
428.46	2169.68
428.65	2165.00
428.84	2272.66
429.03	2097.12
429.22	2200.10
429.40	2242.23
429.59	2253.94
429.78	2223.51
429.97	2209.47
430.16	2230.53
430.34	2186.06
430.53	2314.79
430.72	2270.32
430.91	2300.75
431.10	2307.77
431.28	2256.28
431.47	2324.15
431.66	2282.02
431.85	2354.58
432.03	2452.88
432.22	2457.56
432.41	2464.58
432.60	2420.11
432.79	2490.33
432.97	2490.33
433.16	2392.03
433.35	2370.96
433.54	2537.14
433.72	2492.67
433.91	2520.76
434.10	2539.48
434.28	2471.61
434.47	2490.33
434.66	2487.99
434.85	2619.06
435.03	2499.69
435.22	2614.38
435.41	2682.25
435.59	2635.44
435.78	2717.36
435.97	2548.84
436.16	2649.49
436.34	2633.10
436.53	2640.12
436.72	2815.66
436.90	2700.98
437.09	2768.85
437.28	2600.34
437.46	2752.47
437.65	2733.75
437.84	2761.83
438.02	2740.77
438.21	2834.39
438.40	2693.96
438.58	2857.79
438.77	2745.45
438.96	2759.49
439.14	2874.18
439.33	2794.60
439.52	2904.60
439.70	2885.88
439.89	2972.48
440.08	3047.38
440.26	2869.50
440.45	3009.93
440.63	3023.97
440.82	3105.89
441.01	2998.23
441.19	3112.91
441.38	3124.62
441.57	3199.51
441.75	3171.43
441.94	3351.65
442.12	3176.11
442.31	3389.10
442.50	3265.05
442.68	3243.98
442.87	3342.28
443.05	3407.82
443.24	3499.10
443.43	3323.56
443.61	3494.42
443.80	3459.31
443.98	3157.38
444.17	3267.39
444.35	3487.40
444.54	3485.06
444.73	3400.80
444.91	3368.03
445.10	3428.88
445.28	3393.78
445.47	3330.58
445.65	3316.54
445.84	3375.05
446.02	3365.69
446.21	3368.03
446.39	3405.48
446.58	3534.21
446.77	3478.04
446.95	3361.01
447.14	3459.31
447.32	3564.64
447.51	3332.92
447.69	3471.01
447.88	3564.64
448.06	3611.45
448.25	3398.46
448.43	3510.80
448.62	3440.59
448.80	3440.59
448.99	3592.72
449.17	3501.44
449.36	3590.38
449.54	3616.13
449.73	3733.15
449.91	3627.83
450.10	3625.49
450.28	3637.19
450.46	3716.77
450.65	3503.78
450.83	3669.96
451.02	3695.71
451.20	3936.78
451.39	3796.35
451.57	3796.35
451.76	3705.07
451.94	3700.39
452.13	3812.73
452.31	3859.54
452.49	3817.41
452.68	3756.56
452.86	3705.07
453.05	3859.54
453.23	3798.69
453.42	3817.41
453.60	3796.35
453.78	4004.66
453.97	4014.02
454.15	3915.72
454.34	3812.73
454.52	4070.19
454.70	3913.38
454.89	4088.92
455.07	3992.95
455.26	4077.21
455.44	4037.42
455.62	4032.74
455.81	3978.91
455.99	4128.70
456.17	4086.58
456.36	3985.93
456.54	4194.24
456.73	4180.20
456.91	4224.67
457.09	4299.56
457.28	4201.26
457.46	4168.49
457.64	4170.83
457.83	4231.69
458.01	4297.22
458.19	4344.03
458.38	4306.59
458.56	4409.57
458.74	4311.27
458.93	4372.12
459.11	4533.62
459.29	4454.04
459.48	4531.28
459.66	4559.36
459.84	4512.55
460.03	4479.79
460.21	4540.64
460.39	4423.61
460.57	4519.57
460.76	4475.10
460.94	4533.62
461.12	4503.19
461.31	4566.39
461.49	4620.22
461.67	4638.94
461.85	4748.95
462.04	4648.30
462.22	4660.01
462.40	4774.69
462.59	4617.88
462.77	4664.69
462.95	4739.58
463.13	4713.84
463.32	4732.56
463.50	4772.35
463.68	4784.06
463.86	4737.24
464.05	4786.40
464.23	4983.00
464.41	4823.84
464.59	4669.37
464.78	4828.53
464.96	4805.12
465.14	4711.50
465.32	4828.53
465.50	4997.04
465.69	4931.51
465.87	4882.36
466.05	4805.12
466.23	4950.23
466.41	4856.61
466.60	5156.20
466.78	4933.85
466.96	4931.51
467.14	5125.77
467.32	5039.17
467.51	5078.96
467.69	5055.56
467.87	5132.79
468.05	5088.32
468.23	5039.17
468.41	5123.43
468.60	5083.64
468.78	5158.54
468.96	5186.63
469.14	5277.91
469.32	5233.44
469.50	5121.09
469.69	5308.34
469.87	5425.36
470.05	5315.36
470.23	5324.72
470.41	5357.49
470.59	5303.65
470.77	5397.28
470.95	5514.30
471.14	5401.96
471.32	5329.40
471.50	5668.78
471.68	5570.48
471.86	5521.32
472.04	5727.29
472.22	5760.06
472.40	5664.10
472.58	5682.82
472.77	5654.73
472.95	5661.76
473.13	5823.25
473.31	5631.33
473.49	5781.12
473.67	5750.70
473.85	5771.76
474.03	5966.03
474.21	5951.98
474.39	6001.13
474.57	5849.00
474.75	5947.30
474.93	6183.70
475.12	5961.34
475.30	6136.88
475.48	6024.54
475.66	6050.28
475.84	6237.53
476.02	6382.64
476.20	6162.63
476.38	6396.68
476.56	6593.29
476.74	6586.27
476.92	6478.60
477.10	6565.20
477.28	6750.10
477.46	6572.22
477.64	6780.53
477.82	6752.45
478.00	6869.47
478.18	6665.85
478.36	6700.95
478.54	7082.46
478.72	6843.73
478.90	7089.48
479.08	6998.20
479.26	7302.47
479.44	7307.15
479.62	7283.75
479.80	7272.04
479.98	7227.57
480.16	7449.93
480.34	7529.50
480.52	7377.37
480.70	7681.64
480.88	7585.68
481.06	7639.51
481.24	7641.85
481.41	7744.83
481.59	7571.63
481.77	7908.67
481.95	7953.14
482.13	7915.69
482.31	7875.90
482.49	8241.03
482.67	8365.07
482.85	8271.45
483.03	8285.50
483.21	8402.52
483.39	8475.08
483.57	8390.82
483.74	8587.43
483.92	8573.38
484.10	8695.09
484.28	8861.27
484.46	9029.79
484.64	8940.85
484.82	8865.95
485.00	8947.87
485.18	9125.75
485.35	9160.86
485.53	9226.39
485.71	9238.09
485.89	9589.17
486.07	9582.15
486.25	9399.59
486.43	9401.93
486.61	9654.71
486.78	9841.95
486.96	9872.38
487.14	10064.30
487.32	10059.62
487.50	10181.33
487.68	10429.43
487.85	10352.19
488.03	10305.38
488.21	10511.35
488.39	10562.84
488.57	10539.43
488.75	10558.16
488.92	10792.21
489.10	10902.22
489.28	10913.92
489.46	10883.49
489.64	10890.51
489.81	11129.25
489.99	11138.61
490.17	11154.99
490.35	11522.46
490.53	11370.32
490.70	11496.71
490.88	11531.82
491.06	11496.71
491.24	11690.98
491.41	11978.86
491.59	11929.71
491.77	11894.60
491.95	11925.03
492.13	12053.76
492.30	12123.98
492.48	12386.12
492.66	12131.00
492.84	12102.91
493.01	12505.48
493.19	12411.86
493.37	12886.99
493.54	12851.88
493.72	12830.82
493.90	12903.37
494.08	12758.26
494.25	12966.57
494.43	12821.45
494.61	12961.89
494.79	13256.79
494.96	13060.19
495.14	13500.21
495.32	13502.55
495.49	13565.74
495.67	13207.64
495.85	13575.11
496.02	13685.11
496.20	13877.04
496.38	13816.18
496.55	13914.48
496.73	14251.52
496.91	14092.37
497.09	13860.65
497.26	14396.64
497.44	14160.24
497.62	14242.16
497.79	14284.29
497.97	14380.25
498.14	14370.89
498.32	14703.25
498.50	14618.99
498.67	14864.74
498.85	14871.76
499.03	14668.14
499.20	14967.73
499.38	15108.16
499.56	15140.93
499.73	15023.90
499.91	15208.80
500.08	15384.34
500.26	15005.17
500.44	15112.84
500.61	15304.76
500.79	15435.83
500.97	15536.48
501.14	15777.55
501.32	15695.63
501.49	15651.16
501.67	15545.84
501.84	15733.08
502.02	15772.87
502.20	15824.36
502.37	16147.36
502.55	16123.95
502.72	15983.52
502.90	16135.65
503.07	16180.12
503.25	16102.89
503.43	15917.98
503.60	16243.32
503.78	16369.71
503.95	16308.85
504.13	16575.67
504.30	16528.86
504.48	16327.58
504.65	16318.22
504.83	16690.36
505.01	17060.16
505.18	16908.03
505.36	16580.36
505.53	16624.83
505.71	16805.05
505.88	16980.59
506.06	16945.48
506.23	17266.13
506.41	17275.49
506.58	17380.82
506.76	17334.01
506.93	17348.05
507.11	16767.60
507.28	17277.83
507.46	17319.96
507.63	17385.50
507.81	17652.32
507.98	17619.55
508.16	17387.84
508.33	17722.54
508.50	17696.79
508.68	17872.33
508.85	18033.83
509.03	17930.84
509.20	18075.96
509.38	18106.38
509.55	18125.11
509.73	18204.69
509.90	18059.57
510.08	18160.22
510.25	18384.91
510.42	18192.98
510.60	18750.03
510.77	18490.23
510.95	18623.64
511.12	18544.06
511.30	18569.81
511.47	18450.44
511.64	18946.64
511.82	18831.95
511.99	18743.01
512.17	19281.33
512.34	19073.03
512.51	18909.19
512.69	19007.49
512.86	18923.23
513.04	19126.86
513.21	19286.01
513.38	19304.74
513.56	19243.88
513.73	19290.70
513.90	19428.79
514.08	19307.08
514.25	19150.26
514.43	19559.86
514.60	19681.56
514.77	19587.94
514.95	19807.95
515.12	19611.35
515.29	19529.43
515.47	19660.50
515.64	19941.36
515.81	19845.40
515.99	19932.00
516.16	20297.13
516.33	19974.13
516.51	19988.18
516.68	20229.25
516.85	20388.41
517.03	20081.80
517.20	20219.89
517.37	20290.10
517.54	20470.33
517.72	20690.34
517.89	20559.27
518.06	20294.79
518.24	20318.19
518.41	20624.80
518.58	20346.28
518.75	20512.46
518.93	20659.91
519.10	20870.56
519.27	20662.25
519.45	20680.97
519.62	20851.83
519.79	20732.47
519.96	20978.22
520.14	20879.92
520.31	21135.04
520.48	21284.83
520.65	21036.74
520.83	20840.13
521.00	21408.88
521.17	20891.62
521.34	21312.92
521.52	21493.14
521.69	21231.00
521.86	21502.50
522.03	21640.59
522.20	21404.20
522.38	21598.46
522.55	21446.33
522.72	21830.18
522.89	21516.54
523.07	22197.64
523.24	21685.06
523.41	21984.65
523.58	21535.27
523.75	22001.04
523.92	22010.40
524.10	21972.95
524.27	21998.70
524.44	21853.58
524.61	22228.07
524.78	22230.41
524.96	22328.71
525.13	22230.41
525.30	22363.82
525.47	22649.36
525.64	22508.93
525.81	22630.64
525.98	22579.15
526.16	22438.72
526.33	22377.86
526.50	22647.02
526.67	22522.98
526.84	22838.95
527.01	22600.21
527.18	22530.00
527.36	22941.93
527.53	22878.74
527.70	22876.40
527.87	22892.78
528.04	22707.88
528.21	23040.23
528.38	22712.56
528.55	22761.71
528.72	23307.05
528.89	23274.29
529.07	23175.98
529.24	23253.22
529.41	23260.24
529.58	23229.82
529.75	23054.28
529.92	23325.78
530.09	23360.89
530.26	23686.22
530.43	23590.26
530.60	23377.27
530.77	23552.81
530.94	23506.00
531.11	23428.76
531.28	23325.78
531.46	23920.28
531.63	23623.03
531.80	23576.22
531.97	23669.84
532.14	24063.05
532.31	23484.94
532.48	23601.96
532.65	23936.66
532.82	23775.16
532.99	23838.36
533.16	23641.75
533.33	24180.07
533.50	24257.31
533.67	24320.51
533.84	23906.23
534.01	23632.39
534.18	24177.73
534.35	24151.99
534.52	24032.62
534.69	24093.47
534.86	24379.02
535.03	24482.00
535.20	24404.77
535.37	24652.86
535.54	24678.61
535.71	24425.83
535.88	24652.86
536.05	24554.56
536.22	24589.67
536.38	24706.70
536.55	24865.85
536.72	25202.89
536.89	24666.91
537.06	25067.14
537.23	24573.28
537.40	24671.59
537.57	24858.83
537.74	25050.75
537.91	25078.84
538.08	24762.87
538.25	24837.76
538.42	24959.47
538.59	24992.24
538.75	24786.27
538.92	25008.62
539.09	25167.78
539.26	25153.74
539.43	25212.25
539.60	25125.65
539.77	25207.57
539.94	25116.29
540.11	25275.45
540.28	25266.08
540.44	25055.43
540.61	24987.56
540.78	25317.57
540.95	25488.43
541.12	25284.81
541.29	25298.85
541.46	25120.97
541.62	25399.49
541.79	25516.52
541.96	25113.95
542.13	25507.16
542.30	25586.74
542.47	25795.04
542.63	25539.93
542.80	25914.41
542.97	26010.37
543.14	25788.02
543.31	25923.77
543.48	25935.48
543.64	26012.71
543.81	26096.97
543.98	26417.63
544.15	26401.24
544.32	26169.53
544.48	26277.19
544.65	26338.05
544.82	26511.25
544.99	26183.57
545.16	26281.88
545.32	26080.59
545.49	26710.19
545.66	26511.25
545.83	26368.48
546.00	26607.21
546.16	26302.94
546.33	26249.11
546.50	26155.49
546.67	26298.26
546.83	26211.66
547.00	26581.46
547.17	26539.33
547.34	26609.55
547.50	27030.85
547.67	26995.74
547.84	26803.82
548.00	26787.43
548.17	27082.34
548.34	26647.00
548.51	27229.79
548.67	27239.15
548.84	27037.87
549.01	26944.25
549.18	26693.81
549.34	27019.14
549.51	26906.80
549.68	26759.34
549.84	26995.74
550.01	26948.93
550.18	26906.80
550.34	27119.79
550.51	26920.84
550.68	27136.17
550.84	26969.99
551.01	27417.04
551.18	26916.16
551.34	27143.19
551.51	27271.92
551.68	27218.09
551.84	27393.63
552.01	27218.09
552.18	27508.32
552.34	27648.75
552.51	27697.90
552.68	27234.47
552.84	27452.14
553.01	27349.16
553.18	27161.92
553.34	27466.19
553.51	27852.38
553.67	27740.03
553.84	27505.98
554.01	27913.23
554.17	27630.02
554.34	27683.86
554.51	27307.03
554.67	27835.99
554.84	27775.14
555.00	27988.13
555.17	27866.42
555.33	27505.98
555.50	27852.38
555.67	27510.66
555.83	28070.04
556.00	27967.06
556.16	28259.63
556.33	27819.61
556.50	27873.44
556.66	27936.63
556.83	28079.41
556.99	28301.76
557.16	28229.20
557.32	28453.89
557.49	28098.13
557.65	27943.66
557.82	28142.60
557.98	27938.97
558.15	28041.96
558.32	28215.16
558.48	27775.14
558.65	28313.46
558.81	28297.08
558.98	28210.48
559.14	28442.19
559.31	28128.56
559.47	28215.16
559.64	28608.37
559.80	28599.01
559.97	28758.16
560.13	28601.35
560.30	28409.42
560.46	28615.39
560.63	28407.08
560.79	28088.77
560.96	28697.31
561.12	28039.62
561.29	28212.82
561.45	28638.80
561.61	28664.54
561.78	28975.83
561.94	28709.01
562.11	28982.85
562.27	28568.58
562.44	28158.99
562.60	28327.50
562.77	28552.20
562.93	28329.84
563.10	29144.35
563.26	28411.76
563.42	28456.23
563.59	28971.15
563.75	28856.46
563.92	28701.99
564.08	28617.73
564.24	29008.60
564.41	28180.05
564.57	28563.90
564.74	28613.05
564.90	28811.99
565.07	28636.45
565.23	28964.13
565.39	29111.58
565.56	29249.67
565.72	28648.16
565.88	28973.49
566.05	28835.40
566.21	28940.72
566.38	28882.21
566.54	28868.17
566.70	29193.50
566.87	29212.23
567.03	29174.78
567.19	29380.74
567.36	28959.45
567.52	28947.75
567.68	29235.63
567.85	28936.04
568.01	29125.63
568.17	29010.94
568.34	28989.88
568.50	29181.80
568.66	28936.04
568.83	28797.95
568.99	29174.78
569.15	28837.74
569.32	28788.59
569.48	28636.45
569.64	29106.90
569.81	29095.20
569.97	28936.04
570.13	29022.64
570.30	28879.87
570.46	29195.84
570.62	29188.82
570.78	28952.43
570.95	29165.42
571.11	29160.73
571.27	29275.42
571.43	29022.64
571.60	29373.72
571.76	29345.64
571.92	29366.70
572.09	29242.65
572.25	29317.55
572.41	29053.07
572.57	29603.10
572.74	29528.20
572.90	29195.84
573.06	29053.07
573.22	28926.68
573.38	29104.56
573.55	29280.10
573.71	29673.31
573.87	29443.94
574.03	29249.67
574.20	29523.52
574.36	28893.91
574.52	29350.32
574.68	29291.80
574.84	28882.21
575.01	29757.57
575.17	29177.12
575.33	29106.90
575.49	28936.04
575.65	29593.73
575.82	29322.23
575.98	29301.17
576.14	29191.16
576.30	29422.87
576.46	29453.30
576.62	29359.68
576.79	29333.93
576.95	29216.91
577.11	29371.38
577.27	29497.77
577.43	29771.61
577.59	29362.02
577.75	29717.78
577.92	29247.33
578.08	29174.78
578.24	29355.00
578.40	29628.84
578.56	29497.77
578.72	29614.80
578.88	29832.47
579.04	29823.11
579.21	29198.18
579.37	29418.19
579.53	29668.63
579.69	29275.42
579.85	29371.38
580.01	29364.36
580.17	29242.65
580.33	29317.55
580.49	29476.71
580.65	29921.41
580.82	29642.88
580.98	29521.18
581.14	29727.14
581.30	29652.25
581.46	29392.45
581.62	29570.33
581.78	29399.47
581.94	29289.46
582.10	29078.82
582.26	29198.18
582.42	29507.13
582.58	29570.33
582.74	29516.50
582.90	29593.73
583.06	29862.90
583.22	29699.06
583.38	29401.81
583.54	29706.08
583.70	29317.55
583.86	29497.77
584.02	29174.78
584.18	29577.35
584.34	29631.18
584.50	30246.74
584.66	29486.07
584.82	29160.73
584.98	29598.41
585.14	29553.94
585.30	28971.15
585.46	29177.12
585.62	29359.68
585.78	30031.41
585.94	29654.59
586.10	29584.37
586.26	29724.80
586.42	30000.99
586.58	29731.83
586.74	29635.86
586.90	29291.80
587.06	29560.97
587.22	29235.63
587.38	29743.53
587.54	29766.93
587.70	29710.76
587.86	29818.42
588.02	29390.11
588.18	30457.39
588.34	29715.44
588.49	29706.08
588.65	29614.80
588.81	29757.57
588.97	29802.04
589.13	29570.33
589.29	29778.64
589.45	29893.32
589.61	29675.65
589.77	30052.48
589.93	30300.58
590.08	30300.58
590.24	30012.69
590.40	30141.42
590.56	29977.58
590.72	29525.86
590.88	29729.48
591.04	29762.25
591.20	30061.84
591.35	30019.71
591.51	29970.56
591.67	30204.61
591.83	30211.64
591.99	29954.18
