SpectraSuite Data File
++++++++++++++++++++++++++++++++++++
Date: Fri Oct 18 13:58:11 GMT-05:00 2013
User: bianchi
Dark Spectrum Present: No
Reference Spectrum Present: No
Number of Sampled Component Spectra: 1
Spectrometers: USB2+H05261
Integration Time (usec): 50000 (USB2+H05261)
Spectra Averaged: 1 (USB2+H05261)
Boxcar Smoothing: 0 (USB2+H05261)
Correct for Electrical Dark: No (USB2+H05261)
Strobe/Lamp Enabled: No (USB2+H05261)
Correct for Detector Non-linearity: No (USB2+H05261)
Correct for Stray Light: No (USB2+H05261)
Number of Pixels in Processed Spectrum: 2048
>>>>>Begin Processed Spectral Data<<<<<
365.73	0.00
365.92	0.00
366.12	0.00
366.32	0.00
366.52	0.00
366.72	0.00
366.91	0.00
367.11	0.00
367.31	0.00
367.51	0.00
367.70	0.00
367.90	0.00
368.10	0.00
368.30	0.00
368.49	0.00
368.69	0.00
368.89	0.00
369.09	0.00
369.28	0.00
369.48	0.00
369.68	0.00
369.87	0.00
370.07	0.00
370.27	0.00
370.47	0.00
370.66	25.75
370.86	91.28
371.06	138.09
371.25	184.90
371.45	198.95
371.65	142.77
371.84	135.75
372.04	198.95
372.24	91.28
372.44	161.50
372.63	177.88
372.83	201.29
373.03	191.92
373.22	149.79
373.42	182.56
373.62	264.48
373.81	203.63
374.01	262.14
374.21	292.57
374.40	248.10
374.60	238.73
374.79	187.24
374.99	306.61
375.19	287.89
375.38	266.82
375.58	304.27
375.78	194.26
375.97	210.65
376.17	208.31
376.37	276.18
376.56	315.97
376.76	262.14
376.95	330.02
377.15	236.39
377.35	294.91
377.54	280.86
377.74	173.20
377.93	222.35
378.13	238.73
378.33	315.97
378.52	269.16
378.72	250.44
378.91	318.31
379.11	276.18
379.31	210.65
379.50	243.42
379.70	255.12
379.89	369.80
380.09	306.61
380.28	346.40
380.48	287.89
380.68	250.44
380.87	264.48
381.07	369.80
381.26	348.74
381.46	315.97
381.65	292.57
381.85	313.63
382.04	306.61
382.24	341.72
382.43	374.49
382.63	381.51
382.83	360.44
383.02	271.50
383.22	390.87
383.41	372.15
383.61	451.72
383.80	353.42
384.00	348.74
384.19	395.55
384.39	402.57
384.58	379.17
384.78	400.23
384.97	353.42
385.17	411.93
385.36	402.57
385.56	379.17
385.75	430.66
385.95	421.30
386.14	512.58
386.34	435.34
386.53	374.49
386.72	360.44
386.92	365.12
387.11	393.21
387.31	355.76
387.50	411.93
387.70	454.06
387.89	374.49
388.09	433.00
388.28	404.91
388.48	463.43
388.67	444.70
388.86	400.23
389.06	472.79
389.25	524.28
389.45	463.43
389.64	493.85
389.84	425.98
390.03	484.49
390.22	458.74
390.42	477.47
390.61	477.47
390.81	514.92
391.00	533.64
391.19	540.66
391.39	557.05
391.58	615.56
391.78	533.64
391.97	629.60
392.16	482.15
392.36	601.52
392.55	526.62
392.75	578.11
392.94	519.60
393.13	538.32
393.33	550.03
393.52	606.20
393.71	575.77
393.91	566.41
394.10	526.62
394.29	641.31
394.49	601.52
394.68	664.71
394.88	617.90
395.07	615.56
395.26	699.82
395.46	538.32
395.65	688.12
395.84	664.71
396.04	699.82
396.23	641.31
396.42	662.37
396.62	692.80
396.81	685.78
397.00	645.99
397.19	650.67
397.39	695.14
397.58	678.76
397.77	692.80
397.97	655.35
398.16	669.39
398.35	774.72
398.55	653.01
398.74	681.10
398.93	809.83
399.12	767.70
399.32	753.65
399.51	603.86
399.70	777.06
399.90	753.65
400.09	765.36
400.28	777.06
400.47	788.76
400.67	774.72
400.86	870.68
401.05	807.48
401.24	823.87
401.44	795.78
401.63	833.23
401.82	882.38
402.01	807.48
402.21	812.17
402.40	896.43
402.59	873.02
402.78	798.12
402.97	903.45
403.17	847.27
403.36	880.04
403.55	945.58
403.74	835.57
403.93	901.11
404.13	978.34
404.32	985.37
404.51	880.04
404.70	1039.20
404.89	896.43
405.09	954.94
405.28	957.28
405.47	1004.09
405.66	940.90
405.85	1032.18
406.05	896.43
406.24	1022.81
406.43	1025.15
406.62	1093.03
406.81	1139.84
407.00	1022.81
407.20	983.02
407.39	994.73
407.58	1029.84
407.77	1107.07
407.96	1100.05
408.15	1142.18
408.34	1055.58
408.54	1135.16
408.73	1088.35
408.92	1156.22
409.11	1137.50
409.30	1139.84
409.49	1165.59
409.68	1165.59
409.87	1233.46
410.07	1214.74
410.26	1109.41
410.45	1142.18
410.64	1254.53
410.83	1231.12
411.02	1228.78
411.21	1235.80
411.40	1242.82
411.59	1287.29
411.78	1240.48
411.98	1308.36
412.17	1315.38
412.36	1364.53
412.55	1249.85
412.74	1392.62
412.93	1434.75
413.12	1432.41
413.31	1479.22
413.50	1296.66
413.69	1434.75
413.88	1444.11
414.07	1474.54
414.26	1479.22
414.45	1528.37
414.64	1404.32
414.83	1596.25
415.02	1528.37
415.22	1561.14
415.41	1547.09
415.60	1612.63
415.79	1739.02
415.98	1563.48
416.17	1589.22
416.36	1631.35
416.55	1577.52
416.74	1603.27
416.93	1715.61
417.12	1696.89
417.31	1799.87
417.50	1769.44
417.69	1762.42
417.88	1713.27
418.07	1820.94
418.26	1732.00
418.45	1834.98
418.64	1893.49
418.83	1926.26
419.02	1799.87
419.21	1863.07
419.39	1921.58
419.58	1916.90
419.77	1919.24
419.96	1905.20
420.15	2024.56
420.34	1926.26
420.53	1956.69
420.72	1898.17
420.91	1954.35
421.10	2001.16
421.29	1991.80
421.48	1940.30
421.67	2022.22
421.86	1916.90
422.05	2026.90
422.24	2087.76
422.43	2043.29
422.61	2090.10
422.80	2040.95
422.99	1970.73
423.18	2054.99
423.37	2101.80
423.56	2127.55
423.75	2043.29
423.94	2050.31
424.13	1846.68
424.32	1966.05
424.50	2085.42
424.69	2036.27
424.88	2125.21
425.07	2064.35
425.26	1912.22
425.45	2012.86
425.64	2069.03
425.83	2101.80
426.01	2155.63
426.20	2150.95
426.39	2026.90
426.58	2111.16
426.77	2111.16
426.96	2097.12
427.15	2172.02
427.33	2211.81
427.52	2176.70
427.71	2207.13
427.90	2139.25
428.09	2211.81
428.28	2342.88
428.46	2125.21
428.65	2200.10
428.84	2368.62
429.03	2284.36
429.22	2249.25
429.40	2216.49
429.59	2246.91
429.78	2087.76
429.97	2242.23
430.16	2179.04
430.34	2286.70
430.53	2392.03
430.72	2356.92
430.91	2401.39
431.10	2403.73
431.28	2347.56
431.47	2356.92
431.66	2445.86
431.85	2520.76
432.03	2382.67
432.22	2377.98
432.41	2509.05
432.60	2497.35
432.79	2455.22
432.97	2518.42
433.16	2431.82
433.35	2513.74
433.54	2565.23
433.72	2452.88
433.91	2523.10
434.10	2569.91
434.28	2691.62
434.47	2689.28
434.66	2656.51
434.85	2593.31
435.03	2686.94
435.22	2658.85
435.41	2658.85
435.59	2633.10
435.78	2729.06
435.97	2726.72
436.16	2640.12
436.34	2796.94
436.53	2738.43
436.72	2736.09
436.90	2717.36
437.09	2764.17
437.28	2813.32
437.46	2836.73
437.65	2740.77
437.84	2832.05
438.02	2806.30
438.21	2923.33
438.40	2944.39
438.58	2869.50
438.77	2864.82
438.96	2862.48
439.14	2892.90
439.33	2972.48
439.52	2979.50
439.70	3014.61
439.89	3220.58
440.08	3019.29
440.26	3180.79
440.45	3187.81
440.63	3183.13
440.82	3276.75
441.01	3080.14
441.19	3176.11
441.38	3253.34
441.57	3265.05
441.75	3232.28
441.94	3337.60
442.12	3286.11
442.31	3372.71
442.50	3365.69
442.68	3389.10
442.87	3396.12
443.05	3391.44
443.24	3412.50
443.43	3510.80
443.61	3363.35
443.80	3529.53
443.98	3229.94
444.17	3276.75
444.35	3550.59
444.54	3559.95
444.73	3583.36
444.91	3473.36
445.10	3466.33
445.28	3651.24
445.47	3440.59
445.65	3396.12
445.84	3534.21
446.02	3627.83
446.21	3499.10
446.39	3515.48
446.58	3648.90
446.77	3630.17
446.95	3590.38
447.14	3480.38
447.32	3623.15
447.51	3637.19
447.69	3515.48
447.88	3728.47
448.06	3515.48
448.25	3716.77
448.43	3595.06
448.62	3674.64
448.80	3651.24
448.99	3501.44
449.17	3641.87
449.36	3478.04
449.54	3644.21
449.73	3693.37
449.91	3911.04
450.10	3796.35
450.28	3929.76
450.46	3878.27
450.65	3784.65
450.83	3955.51
451.02	3819.75
451.20	3871.25
451.39	3840.82
451.57	3808.05
451.76	3831.46
451.94	3847.84
452.13	3967.21
452.31	3843.16
452.49	3925.08
452.68	3913.38
452.86	3838.48
453.05	3939.12
453.23	4056.15
453.42	4119.34
453.60	4086.58
453.78	3997.64
453.97	3934.44
454.15	4058.49
454.34	4074.87
454.52	3992.95
454.70	4133.39
454.89	4175.52
455.07	4100.62
455.26	4138.07
455.44	4210.62
455.62	4198.92
455.81	4191.90
455.99	4262.12
456.17	4142.75
456.36	4238.71
456.54	4292.54
456.73	4311.27
456.91	4376.80
457.09	4397.87
457.28	4521.92
457.46	4292.54
457.64	4512.55
457.83	4578.09
458.01	4528.94
458.19	4440.00
458.38	4388.50
458.56	4517.23
458.74	4465.74
458.93	4468.08
459.11	4561.70
459.29	4545.32
459.48	4636.60
459.66	4477.44
459.84	4580.43
460.03	4800.44
460.21	4704.48
460.39	4629.58
460.57	4697.46
460.76	4610.86
460.94	4809.80
461.12	4732.56
461.31	4657.67
461.49	4557.02
461.67	4636.60
461.85	4922.15
462.04	4784.06
462.22	5188.97
462.40	5043.85
462.59	4842.57
462.77	4821.50
462.95	4851.93
463.13	4999.38
463.32	5055.56
463.50	4868.31
463.68	4924.49
463.86	4933.85
464.05	4835.55
464.23	4926.83
464.41	4961.94
464.59	4994.70
464.78	5050.88
464.96	4985.34
465.14	5025.13
465.32	5177.26
465.50	5252.16
465.69	5245.14
465.87	5095.35
466.05	5048.54
466.23	5170.24
466.41	5151.52
466.60	5301.31
466.78	5041.51
466.96	5193.65
467.14	5270.89
467.32	5142.16
467.51	5277.91
467.69	5170.24
467.87	5233.44
468.05	5329.40
468.23	5210.03
468.41	5228.76
468.60	5331.74
468.78	5481.53
468.96	5291.95
469.14	5462.81
469.32	5514.30
469.50	5352.81
469.69	5369.19
469.87	5596.22
470.05	5640.69
470.23	5722.61
470.41	5628.99
470.59	5619.63
470.77	5589.20
470.95	5537.71
471.14	5834.96
471.32	5612.60
471.50	5818.57
471.68	5856.02
471.86	5731.97
472.04	5839.64
472.22	5909.85
472.40	5790.49
472.58	5923.90
472.77	5909.85
472.95	5872.40
473.13	6059.65
473.31	5919.21
473.49	5991.77
473.67	6050.28
473.85	5944.96
474.03	6218.80
474.21	6073.69
474.39	6267.95
474.57	6171.99
474.75	6195.40
474.93	6286.68
475.12	6312.42
475.30	6333.49
475.48	6286.68
475.66	6282.00
475.84	6324.13
476.02	6530.09
476.20	6342.85
476.38	6520.73
476.56	6792.23
476.74	6644.78
476.92	6609.67
477.10	6717.34
477.28	6754.79
477.46	6899.90
477.64	6775.85
477.82	7061.40
478.00	7084.80
478.18	7171.40
478.36	7098.84
478.54	7236.94
478.72	7190.13
478.90	7288.43
479.08	7473.33
479.26	7279.07
479.44	7463.97
479.62	7751.85
479.80	7454.61
479.98	7590.36
480.16	7815.05
480.34	7613.76
480.52	7882.92
480.70	7555.25
480.88	7845.48
481.06	7880.58
481.24	7824.41
481.41	7974.21
481.59	8262.09
481.77	8121.66
481.95	8168.47
482.13	8238.69
482.31	8226.98
482.49	8519.55
482.67	8430.61
482.85	8561.68
483.03	8786.37
483.21	8746.58
483.39	8755.94
483.57	8711.47
483.74	8917.44
483.92	8957.23
484.10	8762.97
484.28	9104.68
484.46	9167.88
484.64	9256.82
484.82	9331.72
485.00	9345.76
485.18	9778.76
485.35	9628.96
485.53	9411.29
485.71	9603.22
485.89	10162.61
486.07	9675.77
486.25	9710.88
486.43	9706.20
486.61	10005.79
486.78	10155.58
486.96	10239.84
487.14	10111.11
487.32	10335.81
487.50	10651.78
487.68	10473.90
487.85	10637.73
488.03	10817.96
488.21	11087.12
488.39	10953.71
488.57	10862.43
488.75	10902.22
488.92	11190.10
489.10	11068.39
489.28	11232.23
489.46	11265.00
489.64	11351.60
489.81	11515.44
489.99	11698.00
490.17	11597.35
490.35	11644.17
490.53	11665.23
490.70	11873.54
490.88	11941.41
491.06	12138.02
491.24	12138.02
491.41	12105.25
491.59	12353.35
491.77	12287.81
491.95	12587.40
492.13	12313.56
492.30	12470.37
492.48	12615.49
492.66	12793.37
492.84	12699.75
493.01	12915.08
493.19	12924.44
493.37	12975.93
493.54	12982.95
493.72	12940.82
493.90	13249.77
494.08	13418.29
494.25	13542.34
494.43	13394.89
494.61	13769.37
494.79	13657.03
494.96	13472.12
495.14	13633.62
495.32	14008.11
495.49	13877.04
495.67	13937.89
495.85	14050.24
496.02	14387.27
496.20	14417.70
496.38	14434.08
496.55	14436.42
496.73	14616.65
496.91	14483.24
497.09	14644.73
497.26	14815.59
497.44	14731.33
497.62	14895.17
497.79	15082.41
497.97	14888.15
498.14	15094.11
498.32	15286.04
498.50	14958.36
498.67	15414.77
498.85	15246.25
499.03	15342.21
499.20	15587.97
499.38	15655.84
499.56	15679.25
499.73	15623.08
499.91	15679.25
500.08	15847.77
500.26	15882.88
500.44	16049.05
500.61	16037.35
500.79	15939.05
500.97	16184.80
501.14	16458.65
501.32	16137.99
501.49	16240.98
501.67	16416.52
501.84	16737.17
502.02	16215.23
502.20	16269.06
502.37	16676.32
502.55	16725.47
502.72	16765.26
502.90	16807.39
503.07	16638.87
503.25	16819.09
503.43	16875.26
503.60	16645.89
503.78	17071.87
503.95	16926.75
504.13	16933.78
504.30	16915.05
504.48	17121.02
504.65	16968.88
504.83	17752.96
505.01	17556.36
505.18	17547.00
505.36	17465.08
505.53	17547.00
505.71	17586.79
505.88	17809.14
506.06	17465.08
506.23	17860.63
506.41	17813.82
506.58	18047.87
506.76	18164.90
506.93	17898.08
507.11	17881.69
507.28	18087.66
507.46	18040.85
507.63	18471.51
507.81	18310.01
507.98	18265.54
508.16	18298.31
508.33	18490.23
508.50	18312.35
508.68	18586.19
508.85	18553.43
509.03	18754.71
509.20	18663.43
509.38	18572.15
509.55	18981.74
509.73	19044.94
509.90	18560.45
510.08	18829.61
510.25	18820.25
510.42	19033.24
510.60	19150.26
510.77	19367.93
510.95	19314.10
511.12	19131.54
511.30	19087.07
511.47	19365.59
511.64	19136.22
511.82	19534.11
511.99	19552.84
512.17	19538.79
512.34	19522.41
512.51	19723.69
512.69	19882.85
512.86	19906.26
513.04	19637.09
513.21	19985.83
513.38	20255.00
513.56	19955.41
513.73	20271.38
513.90	20079.46
514.08	19868.81
514.25	19964.77
514.43	20156.69
514.60	20084.14
514.77	20409.47
514.95	20730.12
515.12	20367.34
515.29	20304.15
515.47	20362.66
515.64	20617.78
515.81	20489.05
515.99	20765.23
516.16	20889.28
516.33	20851.83
516.51	20947.79
516.68	20727.78
516.85	20702.04
517.03	20889.28
517.20	21238.02
517.37	21025.03
517.54	21097.59
517.72	21355.05
517.89	21305.90
518.06	21266.11
518.24	20938.43
518.41	21406.54
518.58	21528.25
518.75	21252.06
518.93	21734.21
519.10	21387.82
519.27	21275.47
519.45	21219.30
519.62	21867.63
519.79	21804.43
519.96	21610.17
520.14	21771.66
520.31	21689.74
520.48	22040.82
520.65	21600.80
520.83	22033.80
521.00	21839.54
521.17	22015.08
521.34	22108.70
521.52	21720.17
521.69	22363.82
521.86	22583.83
522.03	22602.55
522.20	22504.25
522.38	22391.91
522.55	22235.09
522.72	22618.94
522.89	22588.51
523.07	22806.18
523.24	22630.64
523.41	22672.77
523.58	22506.59
523.75	22684.47
523.92	22628.30
524.10	22471.48
524.27	22883.42
524.44	23068.32
524.61	23138.54
524.78	22948.95
524.96	22979.38
525.13	23002.78
525.30	23220.45
525.47	23281.31
525.64	23239.18
525.81	23660.48
525.98	23262.58
526.16	23594.94
526.33	23623.03
526.50	23573.88
526.67	23360.89
526.84	23403.02
527.01	23805.59
527.18	23332.80
527.36	23768.14
527.53	23789.20
527.70	23751.76
527.87	23941.34
528.04	23880.49
528.21	23864.10
528.38	24020.92
528.55	23789.20
528.72	24079.43
528.89	24325.19
529.07	24184.76
529.24	24147.31
529.41	24020.92
529.58	24386.04
529.75	24126.24
529.92	24482.00
530.09	24313.48
530.26	24203.48
530.43	24084.11
530.60	24374.34
530.77	24280.72
530.94	24411.79
531.11	24568.60
531.28	24554.56
531.46	24535.84
531.63	24549.88
531.80	24486.68
531.97	24779.25
532.14	24816.70
532.31	24615.41
532.48	24856.49
532.65	24812.02
532.82	24491.37
532.99	24809.68
533.16	25034.37
533.33	25067.14
533.50	25343.32
533.67	25193.53
533.84	24795.64
534.01	25025.01
534.18	24868.19
534.35	25369.07
534.52	25336.30
534.69	25228.63
534.86	25640.57
535.03	25254.38
535.20	25593.76
535.37	25486.09
535.54	25776.32
535.71	25434.60
535.88	25652.27
536.05	25848.88
536.22	25708.44
536.38	25685.04
536.55	25518.86
536.72	25862.92
536.89	25406.52
537.06	25521.20
537.23	26134.42
537.40	25656.95
537.57	26118.04
537.74	25982.29
537.91	25804.41
538.08	26111.02
538.25	26103.99
538.42	25888.67
538.59	25991.65
538.75	25865.26
538.92	26235.06
539.09	26300.60
539.26	25933.14
539.43	26340.39
539.60	26279.54
539.77	26162.51
539.94	26544.02
540.11	26340.39
540.28	26363.79
540.44	26398.90
540.61	26403.58
540.78	26106.34
540.95	26878.71
541.12	26705.51
541.29	26806.16
541.46	26506.57
541.62	26380.18
541.79	26679.77
541.96	26450.39
542.13	26745.30
542.30	26698.49
542.47	27026.17
542.63	26675.09
542.80	26911.48
542.97	27269.58
543.14	27227.45
543.31	27161.92
543.48	27098.72
543.64	27232.13
543.81	27360.86
543.98	27220.43
544.15	27508.32
544.32	27543.42
544.48	27058.93
544.65	27077.66
544.82	27454.48
544.99	26995.74
545.16	27505.98
545.32	27323.41
545.49	27859.40
545.66	27431.08
545.83	27744.71
546.00	27292.99
546.16	27770.46
546.33	27557.47
546.50	27363.20
546.67	27784.50
546.83	27470.87
547.00	27978.76
547.17	27765.78
547.34	27786.84
547.50	27690.88
547.67	27765.78
547.84	27934.29
548.00	27913.23
548.17	28023.23
548.34	27880.46
548.51	28278.35
548.67	28149.62
548.84	27758.75
549.01	28243.24
549.18	28320.48
549.34	28039.62
549.51	27838.33
549.68	28086.43
549.84	28093.45
550.01	28194.09
550.18	28058.34
550.34	28500.70
550.51	28224.52
550.68	28444.53
550.84	28261.97
551.01	28182.39
551.18	28393.04
551.34	27714.28
551.51	28308.78
551.68	28400.06
551.84	28481.98
552.01	28701.99
552.18	28776.89
552.34	28386.02
552.51	28922.00
552.68	28180.05
552.84	28725.39
553.01	28844.76
553.18	28603.69
553.34	28615.39
553.51	28720.71
553.67	28821.36
553.84	28905.62
554.01	28900.94
554.17	29125.63
554.34	28978.17
554.51	28744.12
554.67	29181.80
554.84	28753.48
555.00	28830.72
555.17	28877.53
555.33	29057.75
555.50	29195.84
555.67	29205.20
555.83	28650.50
556.00	29099.88
556.16	29153.71
556.33	29202.86
556.50	28910.30
556.66	29619.48
556.83	29273.08
556.99	29352.66
557.16	29516.50
557.32	29434.58
557.49	29504.79
557.65	29193.50
557.82	29504.79
557.98	28840.08
558.15	29523.52
558.32	29064.77
558.48	29584.37
558.65	29249.67
558.81	29277.76
558.98	29132.65
559.14	29179.46
559.31	29277.76
559.47	29266.06
559.64	29661.61
559.80	29926.09
559.97	29722.46
560.13	29837.15
560.30	29797.36
560.46	30162.48
560.63	29558.63
560.79	29565.65
560.96	29837.15
561.12	29434.58
561.29	29769.27
561.45	29715.44
561.61	29869.92
561.78	29858.21
561.94	29806.72
562.11	29762.25
562.27	30050.14
562.44	30181.21
562.60	29729.48
562.77	29764.59
562.93	29928.43
563.10	29916.73
563.26	30087.59
563.42	30368.45
563.59	29649.91
563.75	30068.86
563.92	30132.06
564.08	30054.82
564.24	29898.00
564.41	29827.79
564.57	29944.81
564.74	30394.20
564.90	29968.22
565.07	30225.68
565.23	30300.58
565.39	30398.88
565.56	30616.55
565.72	30066.52
565.88	30045.46
566.05	30061.84
566.21	29839.49
566.38	30197.59
566.54	30478.46
566.70	30209.29
566.87	30710.17
567.03	30272.49
567.19	30321.64
567.36	30593.14
567.52	30213.98
567.68	30338.02
567.85	30426.96
568.01	30300.58
568.17	30284.19
568.34	30764.00
568.50	30504.20
568.66	30677.40
568.83	30551.01
568.99	30398.88
569.15	30199.93
569.32	30586.12
569.48	30052.48
569.64	30504.20
569.81	30321.64
569.97	30190.57
570.13	30878.69
570.30	30562.72
570.46	30384.83
570.62	30195.25
570.78	30726.55
570.95	30396.54
571.11	30057.16
571.27	30422.28
571.43	30438.67
571.60	30448.03
571.76	30272.49
571.92	30960.61
572.09	30675.06
572.25	30944.22
572.41	30415.26
572.57	30618.89
572.74	30274.83
572.90	30527.61
573.06	30323.98
573.22	30829.54
573.38	30628.25
573.55	30527.61
573.71	30866.98
573.87	30972.31
574.03	30611.87
574.20	30466.75
574.36	30466.75
574.52	30738.26
574.68	30466.75
574.84	30738.26
575.01	30700.81
575.17	30820.17
575.33	30913.80
575.49	30909.11
575.65	30824.86
575.82	30864.64
575.98	30511.22
576.14	30747.62
576.30	30976.99
576.46	30532.29
576.62	30291.21
576.79	30752.30
576.95	30874.01
577.11	30747.62
577.27	30658.68
577.43	30984.01
577.59	30951.24
577.75	30661.02
577.92	30541.65
578.08	30866.98
578.24	30728.89
578.40	30457.39
578.56	30946.56
578.72	30794.43
578.88	31091.68
579.04	31094.02
579.21	30789.75
579.37	30649.32
579.53	31262.54
579.69	30639.95
579.85	30946.56
580.01	30670.38
580.17	30829.54
580.33	30934.86
580.49	30878.69
580.65	31028.48
580.82	31021.46
580.98	30452.71
581.14	30991.03
581.30	30855.28
581.46	30572.08
581.62	30962.95
581.78	31152.53
581.94	30923.16
582.10	30824.86
582.26	30693.79
582.42	30396.54
582.58	31079.97
582.74	30817.83
582.90	31424.03
583.06	31337.43
583.22	31171.25
583.38	30717.19
583.54	30637.61
583.70	31051.89
583.86	31042.53
584.02	30845.92
584.18	31124.44
584.34	31211.04
584.50	30934.86
584.66	31049.55
584.82	31037.84
584.98	31215.72
585.14	30904.43
585.30	30874.01
585.46	30808.47
585.62	30953.58
585.78	31119.76
585.94	30761.66
586.10	31000.40
586.26	31063.59
586.42	31278.92
586.58	31346.79
586.74	30960.61
586.90	31019.12
587.06	30724.21
587.22	30799.11
587.38	30656.34
587.54	31035.50
587.70	30986.35
587.86	31091.68
588.02	31541.06
588.18	31246.15
588.34	31330.41
588.49	31122.10
588.65	30829.54
588.81	30663.36
588.97	30874.01
589.13	31056.57
589.29	30864.64
589.45	30967.63
589.61	31681.49
589.77	31662.77
589.93	31550.42
590.08	31438.08
590.24	31775.11
590.40	31171.25
590.56	31475.52
590.72	31339.77
590.88	30932.52
591.04	31353.82
591.20	31414.67
591.35	31402.97
591.51	31569.15
591.67	31339.77
591.83	31510.63
