SpectraSuite Data File
++++++++++++++++++++++++++++++++++++
Date: Fri Oct 18 13:58:14 GMT-05:00 2013
User: bianchi
Dark Spectrum Present: No
Reference Spectrum Present: No
Number of Sampled Component Spectra: 1
Spectrometers: USB2+H05261
Integration Time (usec): 50000 (USB2+H05261)
Spectra Averaged: 1 (USB2+H05261)
Boxcar Smoothing: 0 (USB2+H05261)
Correct for Electrical Dark: No (USB2+H05261)
Strobe/Lamp Enabled: No (USB2+H05261)
Correct for Detector Non-linearity: No (USB2+H05261)
Correct for Stray Light: No (USB2+H05261)
Number of Pixels in Processed Spectrum: 2048
>>>>>Begin Processed Spectral Data<<<<<
365.73	0.00
365.92	0.00
366.12	0.00
366.32	0.00
366.52	0.00
366.72	0.00
366.91	0.00
367.11	0.00
367.31	0.00
367.51	0.00
367.70	0.00
367.90	0.00
368.10	0.00
368.30	0.00
368.49	0.00
368.69	0.00
368.89	0.00
369.09	0.00
369.28	0.00
369.48	0.00
369.68	0.00
369.87	0.00
370.07	0.00
370.27	0.00
370.47	0.00
370.66	119.37
370.86	147.45
371.06	102.98
371.25	138.09
371.45	128.73
371.65	236.39
371.84	138.09
372.04	210.65
372.24	133.41
372.44	149.79
372.63	182.56
372.83	212.99
373.03	161.50
373.22	222.35
373.42	131.07
373.62	210.65
373.81	262.14
374.01	243.42
374.21	238.73
374.40	189.58
374.60	215.33
374.79	273.84
374.99	241.08
375.19	252.78
375.38	198.95
375.58	294.91
375.78	252.78
375.97	285.55
376.17	259.80
376.37	245.76
376.56	231.71
376.76	252.78
376.95	285.55
377.15	276.18
377.35	294.91
377.54	294.91
377.74	217.67
377.93	229.37
378.13	276.18
378.33	304.27
378.52	262.14
378.72	285.55
378.91	351.08
379.11	280.86
379.31	283.20
379.50	308.95
379.70	383.85
379.89	355.76
380.09	220.01
380.28	344.06
380.48	285.55
380.68	266.82
380.87	315.97
381.07	299.59
381.26	337.04
381.46	243.42
381.65	304.27
381.85	269.16
382.04	243.42
382.24	369.80
382.43	337.04
382.63	292.57
382.83	292.57
383.02	362.78
383.22	351.08
383.41	308.95
383.61	402.57
383.80	423.64
384.00	360.44
384.19	418.96
384.39	308.95
384.58	402.57
384.78	322.99
384.97	372.15
385.17	393.21
385.36	393.21
385.56	372.15
385.75	400.23
385.95	402.57
386.14	320.65
386.34	369.80
386.53	311.29
386.72	418.96
386.92	395.55
387.11	390.87
387.31	425.98
387.50	430.66
387.70	402.57
387.89	472.79
388.09	365.12
388.28	465.77
388.48	486.83
388.67	414.27
388.86	451.72
389.06	465.77
389.25	498.53
389.45	500.87
389.64	477.47
389.84	514.92
390.03	500.87
390.22	491.51
390.42	479.81
390.61	519.60
390.81	517.26
391.00	451.72
391.19	451.72
391.39	475.13
391.58	496.19
391.78	638.97
391.97	557.05
392.16	571.09
392.36	475.13
392.55	552.37
392.75	500.87
392.94	507.90
393.13	528.96
393.33	545.34
393.52	512.58
393.71	606.20
393.91	615.56
394.10	578.11
394.29	571.09
394.49	554.71
394.68	575.77
394.88	573.43
395.07	674.07
395.26	631.94
395.46	575.77
395.65	552.37
395.84	587.47
396.04	697.48
396.23	578.11
396.42	589.82
396.62	648.33
396.81	554.71
397.00	627.26
397.19	648.33
397.39	676.41
397.58	737.27
397.77	613.22
397.97	645.99
398.16	704.50
398.35	622.58
398.55	629.60
398.74	727.91
398.93	685.78
399.12	627.26
399.32	692.80
399.51	699.82
399.70	706.84
399.90	739.61
400.09	655.35
400.28	833.23
400.47	734.93
400.67	667.05
400.86	739.61
401.05	765.36
401.24	784.08
401.44	779.40
401.63	727.91
401.82	821.53
402.01	821.53
402.21	809.83
402.40	802.80
402.59	842.59
402.78	828.55
402.97	812.17
403.17	835.57
403.36	898.77
403.55	858.98
403.74	807.48
403.93	849.61
404.13	854.30
404.32	856.64
404.51	926.85
404.70	840.25
404.89	882.38
405.09	875.36
405.28	943.24
405.47	889.40
405.66	947.92
405.85	858.98
406.05	968.98
406.24	1008.77
406.43	1006.43
406.62	959.62
406.81	1025.15
407.00	1074.31
407.20	997.07
407.39	983.02
407.58	1022.81
407.77	1083.67
407.96	1006.43
408.15	1088.35
408.34	999.41
408.54	912.81
408.73	1034.52
408.92	1160.91
409.11	1196.01
409.30	1149.20
409.49	1144.52
409.68	1137.50
409.87	1118.78
410.07	1207.72
410.26	1181.97
410.45	1165.59
410.64	1111.75
410.83	1240.48
411.02	1238.14
411.21	1308.36
411.40	1160.91
411.59	1156.22
411.78	1242.82
411.98	1247.51
412.17	1214.74
412.36	1301.34
412.55	1362.19
412.74	1320.06
412.93	1245.16
413.12	1376.24
413.31	1320.06
413.50	1350.49
413.69	1401.98
413.88	1357.51
414.07	1399.64
414.26	1364.53
414.45	1488.58
414.64	1371.55
414.83	1521.35
415.02	1526.03
415.22	1528.37
415.41	1495.60
415.60	1565.82
415.79	1610.29
415.98	1551.78
416.17	1558.80
416.36	1556.46
416.55	1610.29
416.74	1640.72
416.93	1675.82
417.12	1614.97
417.31	1682.85
417.50	1689.87
417.69	1802.21
417.88	1673.48
418.07	1633.69
418.26	1743.70
418.45	1682.85
418.64	1790.51
418.83	1783.49
419.02	1795.19
419.21	1760.08
419.39	1856.04
419.58	1748.38
419.77	1825.62
419.96	1860.73
420.15	1977.75
420.34	1867.75
420.53	1856.04
420.72	2017.54
420.91	1914.56
421.10	1881.79
421.29	1970.73
421.48	1802.21
421.67	1898.17
421.86	1930.94
422.05	2040.95
422.24	2005.84
422.43	1975.41
422.61	1970.73
422.80	1991.80
422.99	1968.39
423.18	2017.54
423.37	1956.69
423.56	1982.43
423.75	2047.97
423.94	2038.61
424.13	1837.32
424.32	1926.26
424.50	2054.99
424.69	2015.20
424.88	2183.72
425.07	1994.14
425.26	1966.05
425.45	2113.50
425.64	2003.50
425.83	2129.89
426.01	2083.08
426.20	1998.82
426.39	1980.09
426.58	2029.24
426.77	2078.40
426.96	2125.21
427.15	2054.99
427.33	2139.25
427.52	2146.27
427.71	2052.65
427.90	2026.90
428.09	2200.10
428.28	2232.87
428.46	2263.30
428.65	2097.12
428.84	2183.72
429.03	2326.49
429.22	2181.38
429.40	2307.77
429.59	2277.34
429.78	2115.84
429.97	2174.36
430.16	2242.23
430.34	2216.49
430.53	2331.17
430.72	2289.04
430.91	2314.79
431.10	2270.32
431.28	2307.77
431.47	2275.00
431.66	2363.94
431.85	2326.49
432.03	2495.01
432.22	2427.14
432.41	2410.75
432.60	2513.74
432.79	2345.22
432.97	2480.97
433.16	2485.65
433.35	2368.62
433.54	2485.65
433.72	2551.18
433.91	2429.48
434.10	2476.29
434.28	2443.52
434.47	2576.93
434.66	2597.99
434.85	2614.38
435.03	2675.23
435.22	2532.46
435.41	2670.55
435.59	2572.25
435.78	2616.72
435.97	2658.85
436.16	2619.06
436.34	2731.41
436.53	2689.28
436.72	2808.64
436.90	2700.98
437.09	2668.21
437.28	2642.46
437.46	2729.06
437.65	2780.56
437.84	2724.38
438.02	2663.53
438.21	2836.73
438.40	2813.32
438.58	2818.00
438.77	2850.77
438.96	2885.88
439.14	2972.48
439.33	2876.52
439.52	2937.37
439.70	2881.20
439.89	2930.35
440.08	3042.70
440.26	3063.76
440.45	2932.69
440.63	3073.12
440.82	3126.96
441.01	3073.12
441.19	3155.04
441.38	2956.10
441.57	3253.34
441.75	3241.64
441.94	3225.26
442.12	3180.79
442.31	3349.31
442.50	3246.32
442.68	3459.31
442.87	3222.92
443.05	3176.11
443.24	3185.47
443.43	3253.34
443.61	3353.99
443.80	3459.31
443.98	3183.13
444.17	3222.92
444.35	3398.46
444.54	3461.65
444.73	3576.34
444.91	3295.47
445.10	3419.52
445.28	3351.65
445.47	3379.73
445.65	3452.29
445.84	3531.87
446.02	3456.97
446.21	3403.14
446.39	3468.67
446.58	3485.06
446.77	3473.36
446.95	3487.40
447.14	3473.36
447.32	3536.55
447.51	3676.98
447.69	3487.40
447.88	3538.89
448.06	3571.66
448.25	3485.06
448.43	3557.61
448.62	3428.88
448.80	3480.38
448.99	3501.44
449.17	3510.80
449.36	3604.42
449.54	3536.55
449.73	3730.81
449.91	3611.45
450.10	3751.88
450.28	3775.28
450.46	3735.50
450.65	3627.83
450.83	3772.94
451.02	3592.72
451.20	3791.67
451.39	3763.58
451.57	3737.84
451.76	3674.64
451.94	3838.48
452.13	3798.69
452.31	3873.59
452.49	3728.47
452.68	3915.72
452.86	3852.52
453.05	3939.12
453.23	3925.08
453.42	3885.29
453.60	3873.59
453.78	3850.18
453.97	3871.25
454.15	3997.64
454.34	3983.59
454.52	3953.16
454.70	4004.66
454.89	3908.69
455.07	3976.57
455.26	4184.88
455.44	3927.42
455.62	3985.93
455.81	4056.15
455.99	4109.98
456.17	4138.07
456.36	4259.78
456.54	4131.05
456.73	4236.37
456.91	4290.20
457.09	4372.12
457.28	4245.73
457.46	4205.94
457.64	4198.92
457.83	4374.46
458.01	4313.61
458.19	4407.23
458.38	4304.25
458.56	4423.61
458.74	4465.74
458.93	4409.57
459.11	4510.21
459.29	4381.48
459.48	4327.65
459.66	4451.70
459.84	4634.26
460.03	4655.33
460.21	4540.64
460.39	4550.00
460.57	4575.75
460.76	4622.56
460.94	4695.11
461.12	4505.53
461.31	4571.07
461.49	4566.39
461.67	4655.33
461.85	4662.35
462.04	4615.54
462.22	4835.55
462.40	4674.05
462.59	4702.14
462.77	4924.49
462.95	4793.42
463.13	4645.96
463.32	4805.12
463.50	4788.74
463.68	4786.40
463.86	4847.25
464.05	4840.23
464.23	4784.06
464.41	4896.40
464.59	4884.70
464.78	4873.00
464.96	4840.23
465.14	4903.42
465.32	5015.77
465.50	4931.51
465.69	5032.15
465.87	4933.85
466.05	5034.49
466.23	4865.97
466.41	5029.81
466.60	5167.90
466.78	4999.38
466.96	5060.24
467.14	5088.32
467.32	5146.84
467.51	5149.18
467.69	4985.34
467.87	5093.01
468.05	5114.07
468.23	5102.37
468.41	5050.88
468.60	5144.50
468.78	5266.21
468.96	5195.99
469.14	5069.60
469.32	5177.26
469.50	5076.62
469.69	5317.70
469.87	5313.02
470.05	5387.91
470.23	5366.85
470.41	5315.36
470.59	5469.83
470.77	5481.53
470.95	5514.30
471.14	5474.51
471.32	5364.51
471.50	5563.45
471.68	5542.39
471.86	5518.98
472.04	5540.05
472.22	5760.06
472.40	5692.18
472.58	5825.59
472.77	5720.27
472.95	5731.97
473.13	5970.71
473.31	5813.89
473.49	5870.06
473.67	5806.87
473.85	5877.09
474.03	5991.77
474.21	5774.10
474.39	6099.44
474.57	6064.33
474.75	5879.43
474.93	6150.93
475.12	6008.16
475.30	6064.33
475.48	6134.54
475.66	6256.25
475.84	6384.98
476.02	6298.38
476.20	6492.65
476.38	6506.69
476.56	6623.72
476.74	6497.33
476.92	6469.24
477.10	6319.45
477.28	6516.05
477.46	6586.27
477.64	6806.28
477.82	6616.69
478.00	7028.63
478.18	6988.84
478.36	7042.67
478.54	6932.67
478.72	7122.25
478.90	7204.17
479.08	7283.75
479.26	7155.02
479.44	7096.50
479.62	7241.62
479.80	7295.45
479.98	7449.93
480.16	7400.77
480.34	7431.20
480.52	7438.22
480.70	7557.59
480.88	7606.74
481.06	7700.36
481.24	7693.34
481.41	7730.79
481.59	8025.70
481.77	7960.16
481.95	7939.10
482.13	7983.57
482.31	8100.59
482.49	8287.84
482.67	8114.64
482.85	8402.52
483.03	8559.34
483.21	8329.97
483.39	8528.91
483.57	8446.99
483.74	8671.68
483.92	8856.59
484.10	8531.25
484.28	8791.05
484.46	8910.42
484.64	9289.59
484.82	8870.63
485.00	8922.12
485.18	9345.76
485.35	9404.27
485.53	9212.35
485.71	9558.75
485.89	9603.22
486.07	9486.19
486.25	9745.99
486.43	9720.24
486.61	9745.99
486.78	9738.97
486.96	9891.10
487.14	9867.70
487.32	9949.62
487.50	10099.41
487.68	10471.56
487.85	10455.17
488.03	10307.72
488.21	10679.86
488.39	10534.75
488.57	10537.09
488.75	10651.78
488.92	10757.10
489.10	10710.29
489.28	10806.25
489.46	11197.12
489.64	10932.64
489.81	11164.36
489.99	11178.40
490.17	11234.57
490.35	11365.64
490.53	11351.60
490.70	11559.91
490.88	11538.84
491.06	11583.31
491.24	11719.06
491.41	11569.27
491.59	11999.93
491.77	11726.08
491.95	12116.95
492.13	12100.57
492.30	12241.00
492.48	12369.73
492.66	12404.84
492.84	12409.52
493.01	12549.95
493.19	12430.59
493.37	12606.13
493.54	12713.79
493.72	13025.08
493.90	12795.71
494.08	12830.82
494.25	13020.40
494.43	12919.76
494.61	13280.20
494.79	13205.30
494.96	13245.09
495.14	13163.17
495.32	13490.85
495.49	13600.85
495.67	13369.14
495.85	13642.98
496.02	13497.87
496.20	14073.64
496.38	14101.73
496.55	13799.80
496.73	14274.93
496.91	14087.68
497.09	14125.13
497.26	14057.26
497.44	14328.76
497.62	14237.48
497.79	14497.28
497.97	14387.27
498.14	14546.43
498.32	14883.47
498.50	14771.12
498.67	14972.41
498.85	14815.59
499.03	14792.19
499.20	14801.55
499.38	15012.20
499.56	15040.28
499.73	15157.31
499.91	15379.66
500.08	15496.69
500.26	14939.64
500.44	15110.50
500.61	15648.82
500.79	15225.18
500.97	15630.10
501.14	15634.78
501.32	15669.89
501.49	15482.64
501.67	15763.51
501.84	15704.99
502.02	16039.69
502.20	15824.36
502.37	16198.85
502.55	16135.65
502.72	16329.92
502.90	16037.35
503.07	16112.25
503.25	16301.83
503.43	16025.65
503.60	16460.99
503.78	16589.72
503.95	16475.03
504.13	16465.67
504.30	16664.61
504.48	16589.72
504.65	16737.17
504.83	16713.77
505.01	17001.65
505.18	16910.37
505.36	17116.34
505.53	16945.48
505.71	16966.54
505.88	16912.71
506.06	16964.20
506.23	17336.35
506.41	17298.90
506.58	17125.70
506.76	17160.81
506.93	17319.96
507.11	17226.34
507.28	17331.67
507.46	17495.50
507.63	18003.40
507.81	17699.13
507.98	17277.83
508.16	17769.35
508.33	17879.35
508.50	17738.92
508.68	17956.59
508.85	18033.83
509.03	17947.23
509.20	17837.22
509.38	18192.98
509.55	18237.45
509.73	18485.55
509.90	18328.74
510.08	18267.88
510.25	18314.69
510.42	18497.25
510.60	18504.28
510.77	18487.89
510.95	18604.92
511.12	18623.64
511.30	18628.32
511.47	18513.64
511.64	18731.31
511.82	18888.12
511.99	18836.63
512.17	19054.30
512.34	18909.19
512.51	19363.25
512.69	19161.97
512.86	19026.21
513.04	19288.35
513.21	19445.17
513.38	19527.09
513.56	19494.32
513.73	19571.56
513.90	19461.55
514.08	19206.44
514.25	19566.88
514.43	19871.15
514.60	19995.20
514.77	19639.44
514.95	19604.33
515.12	19744.76
515.29	19648.80
515.47	19892.21
515.64	19964.77
515.81	19803.27
515.99	19683.91
516.16	20046.69
516.33	20297.13
516.51	20285.42
516.68	20056.05
516.85	20018.60
517.03	20486.71
517.20	20395.43
517.37	20570.97
517.54	20428.20
517.72	20489.05
517.89	20615.44
518.06	20465.64
518.24	20458.62
518.41	20786.30
518.58	20475.01
518.75	20716.08
518.93	20807.36
519.10	20538.20
519.27	21128.02
519.45	20779.28
519.62	21128.02
519.79	20891.62
519.96	21345.69
520.14	21144.40
520.31	20884.60
520.48	21483.78
520.65	21303.56
520.83	21273.13
521.00	21343.35
521.17	21191.21
521.34	21055.46
521.52	21408.88
521.69	21394.84
521.86	21507.18
522.03	21647.61
522.20	21572.72
522.38	21706.13
522.55	21736.56
522.72	21649.96
522.89	21778.68
523.07	22155.51
523.24	21858.26
523.41	22038.48
523.58	21930.82
523.75	22162.53
523.92	21900.39
524.10	22537.02
524.27	22305.31
524.44	22427.01
524.61	22167.21
524.78	22457.44
524.96	22160.19
525.13	22394.25
525.30	22438.72
525.47	22469.14
525.64	22331.05
525.81	22569.79
525.98	23129.17
526.16	22953.63
526.33	22590.85
526.50	22668.09
526.67	22576.81
526.84	22888.10
527.01	22677.45
527.18	22857.67
527.36	22883.42
527.53	23019.17
527.70	23033.21
527.87	23264.92
528.04	23108.11
528.21	23033.21
528.38	23318.76
528.55	23250.88
528.72	23323.44
528.89	23314.08
529.07	23644.09
529.24	23601.96
529.41	23597.28
529.58	23227.48
529.75	22993.42
529.92	23772.82
530.09	23360.89
530.26	23536.43
530.43	23583.24
530.60	23363.23
530.77	23381.95
530.94	24049.00
531.11	23688.56
531.28	23473.23
531.46	23524.72
531.63	24002.19
531.80	23789.20
531.97	23943.68
532.14	24269.01
532.31	23726.01
532.48	24018.58
532.65	24332.21
532.82	23676.86
532.99	23957.72
533.16	23772.82
533.33	24236.25
533.50	24563.92
533.67	23946.02
533.84	24168.37
534.01	24013.90
534.18	24198.80
534.35	24292.42
534.52	24563.92
534.69	24819.04
534.86	24393.06
535.03	24119.22
535.20	24744.14
535.37	24800.32
535.54	24657.54
535.71	24407.11
535.88	24713.72
536.05	24795.64
536.22	24376.68
536.38	24847.13
536.55	24938.41
536.72	25013.31
536.89	24414.13
537.06	24936.07
537.23	24884.58
537.40	24826.06
537.57	24971.18
537.74	24999.26
537.91	25027.35
538.08	25116.29
538.25	25074.16
538.42	25357.36
538.59	25163.10
538.75	25060.12
538.92	25282.47
539.09	24996.92
539.26	25212.25
539.43	25259.06
539.60	25635.89
539.77	25432.26
539.94	25420.56
540.11	25422.90
540.28	25642.91
540.44	25537.59
540.61	25411.20
540.78	25553.97
540.95	25860.58
541.12	25376.09
541.29	25429.92
541.46	25584.40
541.62	25551.63
541.79	25654.61
541.96	25717.81
542.13	25345.66
542.30	25832.49
542.47	26352.09
542.63	25832.49
542.80	26204.64
542.97	26143.78
543.14	26408.26
543.31	25979.95
543.48	26125.06
543.64	26115.70
543.81	26466.78
543.98	26316.98
544.15	26644.66
544.32	26462.10
544.48	26258.47
544.65	26157.83
544.82	26541.68
544.99	26448.05
545.16	26529.97
545.32	26307.62
545.49	26691.47
545.66	26595.51
545.83	26773.39
546.00	26705.51
546.16	26609.55
546.33	26544.02
546.50	26380.18
546.67	26611.89
546.83	26382.52
547.00	26632.96
547.17	26764.03
547.34	26515.93
547.50	26874.03
547.67	27124.47
547.84	26850.63
548.00	26700.83
548.17	27358.52
548.34	26696.15
548.51	27201.71
548.67	27166.60
548.84	27405.33
549.01	27278.94
549.18	26930.20
549.34	26995.74
549.51	26944.25
549.68	27056.59
549.84	27105.74
550.01	27370.22
550.18	27454.48
550.34	27344.48
550.51	27498.95
550.68	27449.80
550.84	27009.78
551.01	27377.25
551.18	27388.95
551.34	27297.67
551.51	27426.40
551.68	27307.03
551.84	27583.21
552.01	27594.92
552.18	27543.42
552.34	27702.58
552.51	27763.43
552.68	27379.59
552.84	27845.35
553.01	27550.45
553.18	27688.54
553.34	27737.69
553.51	27819.61
553.67	27953.02
553.84	27997.49
554.01	27688.54
554.17	28226.86
554.34	27899.19
554.51	27723.65
554.67	28025.57
554.84	27864.08
555.00	28180.05
555.17	28027.92
555.33	27917.91
555.50	27943.66
555.67	28182.39
555.83	28243.24
556.00	28173.03
556.16	28121.54
556.33	28034.94
556.50	28114.52
556.66	28187.07
556.83	28208.14
556.99	28416.44
557.16	28636.45
557.32	28713.69
557.49	28563.90
557.65	28123.88
557.82	28414.10
557.98	28336.87
558.15	28137.92
558.32	28425.81
558.48	28568.58
558.65	28439.85
558.81	28421.13
558.98	28599.01
559.14	28421.13
559.31	28348.57
559.47	28259.63
559.64	28327.50
559.80	28678.58
559.97	28538.15
560.13	28699.65
560.30	28641.14
560.46	28709.01
560.63	28432.83
560.79	28720.71
560.96	29083.50
561.12	28496.02
561.29	28570.92
561.45	28535.81
561.61	28535.81
561.78	28437.51
561.94	28575.60
562.11	29120.95
562.27	29090.52
562.44	28849.44
562.60	28797.95
562.77	28833.06
562.93	28701.99
563.10	28840.08
563.26	28790.93
563.42	29076.48
563.59	28678.58
563.75	29111.58
563.92	29064.77
564.08	28559.22
564.24	29067.11
564.41	28610.71
564.57	28767.52
564.74	28538.15
564.90	28568.58
565.07	28907.96
565.23	29095.20
565.39	28999.24
565.56	28950.09
565.72	28554.54
565.88	29338.62
566.05	29273.08
566.21	28922.00
566.38	28917.32
566.54	29095.20
566.70	29317.55
566.87	29312.87
567.03	29083.50
567.19	29439.26
567.36	29041.37
567.52	29097.54
567.68	29050.73
567.85	29261.38
568.01	28809.65
568.17	29083.50
568.34	29259.04
568.50	29315.21
568.66	29289.46
568.83	29544.58
568.99	29326.91
569.15	29268.40
569.32	28919.66
569.48	28999.24
569.64	29303.51
569.81	29205.20
569.97	29287.12
570.13	29429.90
570.30	29032.00
570.46	29612.46
570.62	29268.40
570.78	29359.68
570.95	29230.95
571.11	29350.32
571.27	29244.99
571.43	29057.75
571.60	29404.15
571.76	29476.71
571.92	29528.20
572.09	29659.27
572.25	29605.44
572.41	29659.27
572.57	29715.44
572.74	29530.54
572.90	29399.47
573.06	29745.87
573.22	29429.90
573.38	29415.85
573.55	29624.16
573.71	29834.81
573.87	29689.70
574.03	29504.79
574.20	29773.95
574.36	29069.45
574.52	29137.33
574.68	29748.21
574.84	29614.80
575.01	29649.91
575.17	29273.08
575.33	29186.48
575.49	29748.21
575.65	29706.08
575.82	29380.74
575.98	29483.73
576.14	29610.12
576.30	29497.77
576.46	29567.99
576.62	29467.34
576.79	29509.47
576.95	29640.54
577.11	29607.78
577.27	29567.99
577.43	29886.30
577.59	29628.84
577.75	29317.55
577.92	29481.39
578.08	29350.32
578.24	29476.71
578.40	29495.43
578.56	29872.26
578.72	29465.00
578.88	29530.54
579.04	29888.64
579.21	29493.09
579.37	30118.01
579.53	29743.53
579.69	29333.93
579.85	29851.19
580.01	29738.85
580.17	29214.57
580.33	29453.30
580.49	29656.93
580.65	29879.28
580.82	29937.79
580.98	29465.00
581.14	29528.20
581.30	29893.32
581.46	29383.09
581.62	29895.66
581.78	29244.99
581.94	29968.22
582.10	29635.86
582.26	29727.14
582.42	29977.58
582.58	29958.86
582.74	29745.87
582.90	29930.77
583.06	29649.91
583.22	29724.80
583.38	29626.50
583.54	29626.50
583.70	29757.57
583.86	29916.73
584.02	29762.25
584.18	30246.74
584.34	29876.94
584.50	29914.39
584.66	29661.61
584.82	29521.18
584.98	30139.08
585.14	30073.54
585.30	29687.36
585.46	30010.35
585.62	29813.74
585.78	29713.10
585.94	29996.31
586.10	30082.91
586.26	30068.86
586.42	29958.86
586.58	29830.13
586.74	29497.77
586.90	29406.49
587.06	29413.51
587.22	29869.92
587.38	29596.07
587.54	30279.51
587.70	30075.88
587.86	29930.77
588.02	29961.20
588.18	30059.50
588.34	29975.24
588.49	29605.44
588.65	30047.80
588.81	29722.46
588.97	30075.88
589.13	29268.40
589.29	29652.25
589.45	29919.07
589.61	29823.11
589.77	29764.59
589.93	30356.75
590.08	30721.87
590.24	30071.20
590.40	30146.10
590.56	30462.07
590.72	30164.82
590.88	29905.02
591.04	30094.61
591.20	29890.98
591.35	30370.79
591.51	30560.37
591.67	30394.20
591.83	30419.94
591.99	30464.41
