SpectraSuite Data File
++++++++++++++++++++++++++++++++++++
Date: Fri Oct 18 13:58:11 GMT-05:00 2013
User: bianchi
Dark Spectrum Present: No
Reference Spectrum Present: No
Number of Sampled Component Spectra: 1
Spectrometers: USB2+H05261
Integration Time (usec): 50000 (USB2+H05261)
Spectra Averaged: 1 (USB2+H05261)
Boxcar Smoothing: 0 (USB2+H05261)
Correct for Electrical Dark: No (USB2+H05261)
Strobe/Lamp Enabled: No (USB2+H05261)
Correct for Detector Non-linearity: No (USB2+H05261)
Correct for Stray Light: No (USB2+H05261)
Number of Pixels in Processed Spectrum: 2048
>>>>>Begin Processed Spectral Data<<<<<
365.73	0.00
365.92	0.00
366.12	0.00
366.32	0.00
366.52	0.00
366.72	0.00
366.91	0.00
367.11	0.00
367.31	0.00
367.51	0.00
367.70	0.00
367.90	0.00
368.10	0.00
368.30	0.00
368.49	0.00
368.69	0.00
368.89	0.00
369.09	0.00
369.28	0.00
369.48	0.00
369.68	0.00
369.87	0.00
370.07	0.00
370.27	0.00
370.47	0.00
370.66	65.54
370.86	74.90
371.06	102.98
371.25	79.58
371.45	138.09
371.65	135.75
371.84	74.90
372.04	231.71
372.24	205.97
372.44	252.78
372.63	194.26
372.83	184.90
373.03	203.63
373.22	191.92
373.42	182.56
373.62	236.39
373.81	184.90
374.01	229.37
374.21	269.16
374.40	212.99
374.60	276.18
374.79	269.16
374.99	299.59
375.19	215.33
375.38	217.67
375.58	180.22
375.78	259.80
375.97	299.59
376.17	269.16
376.37	280.86
376.56	306.61
376.76	177.88
376.95	269.16
377.15	271.50
377.35	339.38
377.54	297.25
377.74	201.29
377.93	243.42
378.13	292.57
378.33	266.82
378.52	292.57
378.72	365.12
378.91	271.50
379.11	290.23
379.31	248.10
379.50	280.86
379.70	390.87
379.89	308.95
380.09	205.97
380.28	325.33
380.48	304.27
380.68	205.97
380.87	346.40
381.07	297.25
381.26	292.57
381.46	320.65
381.65	222.35
381.85	400.23
382.04	334.70
382.24	334.70
382.43	416.62
382.63	313.63
382.83	386.19
383.02	351.08
383.22	383.85
383.41	381.51
383.61	344.06
383.80	374.49
384.00	402.57
384.19	367.46
384.39	330.02
384.58	327.68
384.78	437.68
384.97	430.66
385.17	360.44
385.36	315.97
385.56	411.93
385.75	367.46
385.95	425.98
386.14	397.89
386.34	390.87
386.53	365.12
386.72	409.59
386.92	411.93
387.11	411.93
387.31	491.51
387.50	421.30
387.70	470.45
387.89	461.09
388.09	449.38
388.28	411.93
388.48	421.30
388.67	440.02
388.86	433.00
389.06	479.81
389.25	472.79
389.45	470.45
389.64	435.34
389.84	547.69
390.03	526.62
390.22	524.28
390.42	449.38
390.61	528.96
390.81	514.92
391.00	503.22
391.19	550.03
391.39	496.19
391.58	496.19
391.78	519.60
391.97	526.62
392.16	477.47
392.36	568.75
392.55	547.69
392.75	482.15
392.94	557.05
393.13	559.39
393.33	500.87
393.52	564.07
393.71	622.58
393.91	641.31
394.10	524.28
394.29	709.18
394.49	585.13
394.68	704.50
394.88	620.24
395.07	667.05
395.26	557.05
395.46	629.60
395.65	653.01
395.84	547.69
396.04	688.12
396.23	662.37
396.42	674.07
396.62	650.67
396.81	662.37
397.00	730.25
397.19	645.99
397.39	683.44
397.58	671.73
397.77	692.80
397.97	758.33
398.16	706.84
398.35	751.31
398.55	699.82
398.74	676.41
398.93	685.78
399.12	821.53
399.32	620.24
399.51	685.78
399.70	706.84
399.90	788.76
400.09	767.70
400.28	826.21
400.47	718.54
400.67	753.65
400.86	823.87
401.05	840.25
401.24	807.48
401.44	858.98
401.63	887.06
401.82	868.34
402.01	896.43
402.21	835.57
402.40	882.38
402.59	826.21
402.78	842.59
402.97	802.80
403.17	961.96
403.36	896.43
403.55	905.79
403.74	947.92
403.93	898.77
404.13	976.00
404.32	905.79
404.51	856.64
404.70	903.45
404.89	931.53
405.09	1029.84
405.28	931.53
405.47	1041.54
405.66	1006.43
405.85	957.28
406.05	1034.52
406.24	1004.09
406.43	1039.20
406.62	1036.86
406.81	1036.86
407.00	968.98
407.20	1032.18
407.39	1062.60
407.58	1039.20
407.77	1170.27
407.96	1090.69
408.15	1123.46
408.34	1088.35
408.54	1149.20
408.73	1156.22
408.92	1160.91
409.11	1142.18
409.30	1221.76
409.49	1123.46
409.68	1151.54
409.87	1158.57
410.07	1214.74
410.26	1186.65
410.45	1240.48
410.64	1327.08
410.83	1238.14
411.02	1221.76
411.21	1240.48
411.40	1310.70
411.59	1334.11
411.78	1177.29
411.98	1324.74
412.17	1296.66
412.36	1313.04
412.55	1341.13
412.74	1336.45
412.93	1371.55
413.12	1359.85
413.31	1465.18
413.50	1462.83
413.69	1409.00
413.88	1418.36
414.07	1399.64
414.26	1542.41
414.45	1521.35
414.64	1495.60
414.83	1500.28
415.02	1547.09
415.22	1631.35
415.41	1575.18
415.60	1614.97
415.79	1652.42
415.98	1652.42
416.17	1652.42
416.36	1624.33
416.55	1626.67
416.74	1666.46
416.93	1682.85
417.12	1708.59
417.31	1607.95
417.50	1710.93
417.69	1827.96
417.88	1732.00
418.07	1741.36
418.26	1863.07
418.45	1755.40
418.64	1834.98
418.83	1860.73
419.02	1811.57
419.21	1912.22
419.39	1856.04
419.58	1952.01
419.77	1856.04
419.96	1888.81
420.15	1902.86
420.34	1909.88
420.53	1907.54
420.72	1900.52
420.91	1886.47
421.10	2083.08
421.29	2008.18
421.48	1963.71
421.67	1973.07
421.86	1947.33
422.05	2045.63
422.24	2094.78
422.43	1947.33
422.61	2106.48
422.80	1966.05
422.99	2111.16
423.18	1996.48
423.37	2022.22
423.56	2012.86
423.75	1933.28
423.94	2087.76
424.13	1961.37
424.32	1952.01
424.50	1921.58
424.69	2069.03
424.88	2143.93
425.07	2047.97
425.26	2033.93
425.45	2104.14
425.64	2132.23
425.83	2097.12
426.01	2165.00
426.20	2176.70
426.39	2104.14
426.58	2188.40
426.77	2169.68
426.96	2106.48
427.15	2047.97
427.33	2230.53
427.52	2111.16
427.71	2186.06
427.90	2167.34
428.09	2263.30
428.28	2319.47
428.46	2298.41
428.65	2132.23
428.84	2284.36
429.03	2190.74
429.22	2296.07
429.40	2249.25
429.59	2235.21
429.78	2218.83
429.97	2216.49
430.16	2279.68
430.34	2457.56
430.53	2310.11
430.72	2279.68
430.91	2380.32
431.10	2375.64
431.28	2415.43
431.47	2338.20
431.66	2380.32
431.85	2459.90
432.03	2534.80
432.22	2661.19
432.41	2368.62
432.60	2675.23
432.79	2516.08
432.97	2513.74
433.16	2579.27
433.35	2569.91
433.54	2635.44
433.72	2647.15
433.91	2462.24
434.10	2736.09
434.28	2586.29
434.47	2562.89
434.66	2621.40
434.85	2731.41
435.03	2635.44
435.22	2532.46
435.41	2736.09
435.59	2614.38
435.78	2736.09
435.97	2782.90
436.16	2640.12
436.34	2747.79
436.53	2745.45
436.72	2832.05
436.90	2750.13
437.09	2832.05
437.28	2782.90
437.46	2953.76
437.65	2862.48
437.84	2834.39
438.02	2773.53
438.21	2796.94
438.40	2684.59
438.58	2775.88
438.77	2974.82
438.96	2883.54
439.14	2972.48
439.33	3098.87
439.52	2972.48
439.70	3068.44
439.89	2967.80
440.08	3012.27
440.26	3075.46
440.45	3023.97
440.63	3115.25
440.82	3229.94
441.01	3225.26
441.19	3351.65
441.38	3239.30
441.57	3403.14
441.75	3288.45
441.94	3330.58
442.12	3339.94
442.31	3478.04
442.50	3466.33
442.68	3463.99
442.87	3403.14
443.05	3349.31
443.24	3487.40
443.43	3559.95
443.61	3440.59
443.80	3522.51
443.98	3344.63
444.17	3309.52
444.35	3433.57
444.54	3620.81
444.73	3414.84
444.91	3482.72
445.10	3501.44
445.28	3328.24
445.47	3325.90
445.65	3391.44
445.84	3480.38
446.02	3524.85
446.21	3658.26
446.39	3508.46
446.58	3616.13
446.77	3501.44
446.95	3463.99
447.14	3604.42
447.32	3604.42
447.51	3548.25
447.69	3459.31
447.88	3585.70
448.06	3548.25
448.25	3529.53
448.43	3667.62
448.62	3634.85
448.80	3578.68
448.99	3515.48
449.17	3672.30
449.36	3574.00
449.54	3763.58
449.73	3712.09
449.91	3798.69
450.10	3758.90
450.28	3812.73
450.46	3871.25
450.65	3768.26
450.83	3730.81
451.02	3857.20
451.20	3913.38
451.39	3908.69
451.57	3796.35
451.76	3777.62
451.94	3896.99
452.13	3901.67
452.31	3934.44
452.49	3723.79
452.68	3913.38
452.86	4023.38
453.05	3950.82
453.23	3988.27
453.42	3957.85
453.60	3866.56
453.78	4081.89
453.97	3992.95
454.15	3976.57
454.34	3978.91
454.52	4070.19
454.70	4201.26
454.89	4163.81
455.07	4156.79
455.26	4201.26
455.44	4252.75
455.62	4210.62
455.81	4191.90
455.99	4269.14
456.17	4287.86
456.36	4287.86
456.54	4208.28
456.73	4189.56
456.91	4315.95
457.09	4390.84
457.28	4447.02
457.46	4346.37
457.64	4327.65
457.83	4348.72
458.01	4334.67
458.19	4440.00
458.38	4451.70
458.56	4554.68
458.74	4486.81
458.93	4510.21
459.11	4582.77
459.29	4461.06
459.48	4484.47
459.66	4664.69
459.84	4615.54
460.03	4690.43
460.21	4671.71
460.39	4512.55
460.57	4744.27
460.76	4807.46
460.94	4779.37
461.12	4568.73
461.31	4779.37
461.49	4681.07
461.67	4676.39
461.85	4727.88
462.04	4711.50
462.22	4898.74
462.40	4718.52
462.59	4842.57
462.77	4856.61
462.95	4980.66
463.13	4819.16
463.32	5008.75
463.50	5032.15
463.68	4884.70
463.86	4929.17
464.05	4788.74
464.23	4978.32
464.41	4961.94
464.59	4849.59
464.78	5156.20
464.96	5074.28
465.14	4973.64
465.32	5088.32
465.50	5205.35
465.69	5200.67
465.87	5188.97
466.05	4973.64
466.23	5036.83
466.41	5268.55
466.60	5315.36
466.78	4985.34
466.96	5210.03
467.14	5198.33
467.32	5184.29
467.51	5338.76
467.69	5214.71
467.87	5320.04
468.05	5247.48
468.23	5231.10
468.41	5233.44
468.60	5177.26
468.78	5437.06
468.96	5284.93
469.14	5357.49
469.32	5451.11
469.50	5298.97
469.69	5528.35
469.87	5500.26
470.05	5652.39
470.23	5584.52
470.41	5462.81
470.59	5696.86
470.77	5610.26
470.95	5678.14
471.14	5678.14
471.32	5575.16
471.50	5734.31
471.68	5816.23
471.86	5860.70
472.04	5888.79
472.22	5867.72
472.40	5785.80
472.58	5727.29
472.77	5849.00
472.95	5891.13
473.13	5998.79
473.31	5813.89
473.49	6010.50
473.67	6052.63
473.85	6066.67
474.03	6274.98
474.21	6235.19
474.39	6120.50
474.57	6164.97
474.75	6223.48
474.93	6345.19
475.12	6237.53
475.30	6368.60
475.48	6520.73
475.66	6361.58
475.84	6511.37
476.02	6392.00
476.20	6366.26
476.38	6572.22
476.56	6729.04
476.74	6614.35
476.92	6562.86
477.10	6689.25
477.28	6696.27
477.46	6750.10
477.64	6810.96
477.82	6904.58
478.00	7026.29
478.18	7148.00
478.36	7112.89
478.54	7094.16
478.72	7288.43
478.90	7403.11
479.08	7229.91
479.26	7438.22
479.44	7414.82
479.62	7372.69
479.80	7698.02
479.98	7534.18
480.16	7644.19
480.34	7674.62
480.52	7805.69
480.70	7824.41
480.88	7843.14
481.06	7770.58
481.24	7775.26
481.41	7915.69
481.59	8313.58
481.77	8142.72
481.95	8212.94
482.13	8217.62
482.31	8208.26
482.49	8351.03
482.67	8229.32
482.85	8486.78
483.03	8704.45
483.21	8688.07
483.39	8575.72
483.57	8681.05
483.74	8912.76
483.92	8917.44
484.10	8861.27
484.28	9090.64
484.46	9078.94
484.64	9355.12
484.82	9156.18
485.00	9324.69
485.18	9472.15
485.35	9701.52
485.53	9738.97
485.71	9748.33
485.89	9961.32
486.07	9654.71
486.25	9778.76
486.43	9792.80
486.61	10047.92
486.78	10033.88
486.96	10197.71
487.14	10303.04
487.32	10478.58
487.50	10265.59
487.68	10527.73
487.85	10658.80
488.03	10600.29
488.21	10974.77
488.39	10677.52
488.57	10874.13
488.75	10794.55
488.92	10934.98
489.10	11332.87
489.28	11035.63
489.46	11314.15
489.64	11246.27
489.81	11489.69
489.99	11517.78
490.17	11679.27
490.35	11665.23
490.53	11772.89
490.70	11669.91
490.88	11508.41
491.06	12074.82
491.24	12009.29
491.41	12098.23
491.59	12271.43
491.77	12142.70
491.95	12601.44
492.13	12231.64
492.30	12681.02
492.48	12723.15
492.66	12556.97
492.84	12671.66
493.01	12901.03
493.19	12994.65
493.37	13067.21
493.54	13050.83
493.72	13018.06
493.90	13041.46
494.08	13341.05
494.25	13448.72
494.43	13364.46
494.61	13497.87
494.79	13591.49
494.96	13837.25
495.14	13549.36
495.32	13954.27
495.49	13827.88
495.67	14216.41
495.85	14134.50
496.02	14251.52
496.20	14260.88
496.38	14417.70
496.55	14256.20
496.73	14576.86
496.91	14483.24
497.09	14403.66
497.26	14911.55
497.44	14745.38
497.62	14792.19
497.79	14693.88
497.97	14939.64
498.14	15199.44
498.32	15283.70
498.50	15190.08
498.67	15255.61
498.85	15288.38
499.03	15515.41
499.20	15456.90
499.38	15351.57
499.56	15536.48
499.73	15824.36
499.91	15815.00
500.08	15665.21
500.26	15707.34
500.44	15723.72
500.61	15906.28
500.79	15962.45
500.97	15882.88
501.14	16198.85
501.32	16290.13
501.49	16304.17
501.67	16065.44
501.84	16393.11
502.02	16552.27
502.20	16430.56
502.37	16587.38
502.55	16589.72
502.72	16517.16
502.90	16669.30
503.07	16552.27
503.25	16755.90
503.43	16673.98
503.60	17020.38
503.78	16821.43
503.95	17092.93
504.13	17027.40
504.30	17076.55
504.48	16966.54
504.65	17401.88
504.83	17345.71
505.01	17422.95
505.18	17392.52
505.36	17530.61
505.53	17387.84
505.71	17624.23
505.88	17715.51
506.06	17724.88
506.23	17816.16
506.41	17830.20
506.58	17926.16
506.76	17907.44
506.93	17689.77
507.11	18019.78
507.28	17776.37
507.46	18111.07
507.63	18082.98
507.81	18265.54
507.98	18216.39
508.16	18623.64
508.33	18424.70
508.50	18253.84
508.68	18508.96
508.85	18588.53
509.03	18644.71
509.20	18728.97
509.38	18602.58
509.55	18757.05
509.73	18682.16
509.90	18721.95
510.08	19000.47
510.25	18822.59
510.42	19049.62
510.60	19426.45
510.77	19073.03
510.95	19433.47
511.12	18902.17
511.30	19140.90
511.47	19253.25
511.64	19271.97
511.82	19515.39
511.99	19197.07
512.17	19417.08
512.34	19424.11
512.51	19667.52
512.69	19754.12
512.86	19637.09
513.04	20046.69
513.21	19812.63
513.38	20276.06
513.56	19974.13
513.73	19988.18
513.90	19955.41
514.08	19812.63
514.25	20116.90
514.43	20194.14
514.60	20652.89
514.77	20505.43
514.95	20365.00
515.12	20278.40
515.29	20343.94
515.47	20479.69
515.64	20779.28
515.81	20336.91
515.99	20547.56
516.16	20643.52
516.33	20669.27
516.51	20613.10
516.68	20587.35
516.85	20463.30
517.03	20781.62
517.20	20980.56
517.37	21092.91
517.54	20996.95
517.72	21111.63
517.89	21102.27
518.06	21240.36
518.24	21135.04
518.41	21350.37
518.58	21549.31
518.75	21282.49
518.93	21516.54
519.10	21406.54
519.27	21338.66
519.45	21549.31
519.62	21579.74
519.79	21446.33
519.96	21699.11
520.14	21420.58
520.31	21490.80
520.48	21715.49
520.65	21872.31
520.83	21933.16
521.00	21834.86
521.17	21813.79
521.34	21757.62
521.52	21895.71
521.69	22214.02
521.86	22377.86
522.03	22431.69
522.20	22609.58
522.38	22101.68
522.55	22167.21
522.72	22223.39
522.89	22497.23
523.07	22424.67
523.24	22539.36
523.41	22658.73
523.58	22434.03
523.75	22640.00
523.92	22710.22
524.10	23012.15
524.27	22984.06
524.44	22527.66
524.61	23213.43
524.78	23058.96
524.96	23091.73
525.13	22806.18
525.30	22991.08
525.47	23274.29
525.64	23208.75
525.81	23208.75
525.98	23391.31
526.16	23566.85
526.33	23445.15
526.50	23541.11
526.67	23250.88
526.84	23513.02
527.01	23431.10
527.18	23187.69
527.36	23836.02
527.53	23346.84
527.70	23960.06
527.87	23976.45
528.04	23985.81
528.21	23714.31
528.38	24041.98
528.55	23861.76
528.72	23449.83
528.89	24189.44
529.07	24114.54
529.24	23946.02
529.41	24077.09
529.58	24226.89
529.75	23990.49
529.92	24053.69
530.09	24023.26
530.26	24086.45
530.43	24154.33
530.60	24189.44
530.77	24428.17
530.94	24341.57
531.11	24257.31
531.28	24449.24
531.46	24561.58
531.63	24659.88
531.80	24664.57
531.97	24549.88
532.14	24912.66
532.31	24584.99
532.48	24800.32
532.65	24910.32
532.82	24709.04
532.99	24774.57
533.16	25076.50
533.33	24961.81
533.50	25158.42
533.67	25076.50
533.84	24886.92
534.01	24613.07
534.18	24950.11
534.35	25226.29
534.52	24938.41
534.69	25497.80
534.86	25785.68
535.03	25090.54
535.20	25378.43
535.37	25465.03
535.54	25242.68
535.71	25174.80
535.88	25411.20
536.05	25238.00
536.22	25575.03
536.38	25516.52
536.55	25841.85
536.72	26003.35
536.89	25706.10
537.06	25764.62
537.23	25851.22
537.40	25783.34
537.57	25671.00
537.74	26150.81
537.91	26003.35
538.08	26096.97
538.25	25811.43
538.42	26111.02
538.59	25860.58
538.75	25549.29
538.92	25900.37
539.09	25851.22
539.26	26206.98
539.43	26127.40
539.60	26354.43
539.77	26221.02
539.94	26256.13
540.11	26342.73
540.28	26544.02
540.44	26134.42
540.61	26328.69
540.78	26281.88
540.95	26583.80
541.12	26398.90
541.29	26422.31
541.46	26593.17
541.62	26387.20
541.79	26717.22
541.96	26108.68
542.13	26216.34
542.30	26579.12
542.47	26700.83
542.63	26679.77
542.80	26836.58
542.97	27105.74
543.14	26871.69
543.31	26426.99
543.48	26988.72
543.64	27292.99
543.81	27033.19
543.98	27248.52
544.15	27374.91
544.32	27260.22
544.48	27318.73
544.65	27246.18
544.82	27531.72
544.99	26888.07
545.16	27374.91
545.32	27147.87
545.49	27882.80
545.66	27718.96
545.83	27674.49
546.00	27693.22
546.16	27433.42
546.33	27480.23
546.50	27405.33
546.67	27510.66
546.83	27363.20
547.00	27749.39
547.17	27758.75
547.34	27683.86
547.50	27646.41
547.67	28025.57
547.84	27337.46
548.00	27740.03
548.17	27913.23
548.34	27971.74
548.51	27718.96
548.67	27779.82
548.84	27718.96
549.01	28133.24
549.18	27873.44
549.34	28156.64
549.51	28144.94
549.68	28231.54
549.84	27852.38
550.01	28219.84
550.18	28222.18
550.34	28142.60
550.51	28238.56
550.68	28175.37
550.84	28098.13
551.01	28116.86
551.18	27796.20
551.34	27817.27
551.51	28254.95
551.68	28519.43
551.84	28414.10
552.01	28350.91
552.18	28472.62
552.34	28292.40
552.51	28608.37
552.68	28795.61
552.84	28545.17
553.01	28896.25
553.18	28889.23
553.34	28730.08
553.51	28634.11
553.67	28751.14
553.84	28830.72
554.01	28795.61
554.17	28716.03
554.34	28809.65
554.51	28718.37
554.67	28767.52
554.84	28842.42
555.00	29069.45
555.17	28739.44
555.33	29219.25
555.50	28517.09
555.67	29057.75
555.83	28730.08
556.00	29165.42
556.16	29076.48
556.33	29034.35
556.50	29235.63
556.66	29249.67
556.83	29465.00
556.99	29198.18
557.16	29476.71
557.32	29413.51
557.49	29373.72
557.65	29331.59
557.82	28847.10
557.98	29305.85
558.15	29097.54
558.32	29340.96
558.48	29165.42
558.65	29685.01
558.81	29549.26
558.98	29188.82
559.14	29270.74
559.31	29099.88
559.47	29244.99
559.64	29244.99
559.80	29504.79
559.97	29596.07
560.13	29296.49
560.30	29577.35
560.46	29560.97
560.63	29406.49
560.79	29544.58
560.96	29682.67
561.12	29802.04
561.29	29392.45
561.45	29549.26
561.61	29338.62
561.78	29537.56
561.94	29401.81
562.11	29677.99
562.27	30005.67
562.44	29586.71
562.60	29706.08
562.77	29605.44
562.93	30000.99
563.10	29837.15
563.26	29535.22
563.42	29867.58
563.59	29958.86
563.75	29666.29
563.92	29820.77
564.08	29764.59
564.24	30017.37
564.41	29832.47
564.57	29710.76
564.74	29788.00
564.90	30232.70
565.07	29788.00
565.23	30211.64
565.39	29816.08
565.56	30015.03
565.72	29837.15
565.88	30110.99
566.05	29872.26
566.21	30026.73
566.38	29979.92
566.54	29769.27
566.70	30043.12
566.87	30132.06
567.03	30213.98
567.19	30291.21
567.36	30466.75
567.52	30089.93
567.68	30221.00
567.85	29872.26
568.01	30328.66
568.17	29963.54
568.34	30485.48
568.50	30185.89
568.66	30223.34
568.83	30199.93
568.99	30256.11
569.15	30328.66
569.32	30424.62
569.48	30052.48
569.64	30094.61
569.81	30232.70
569.97	29993.97
570.13	29921.41
570.30	30314.62
570.46	30235.04
570.62	30387.18
570.78	30239.72
570.95	30401.22
571.11	30506.54
571.27	29993.97
571.43	30558.03
571.60	30293.55
571.76	30354.41
571.92	30462.07
572.09	30710.17
572.25	30342.70
572.41	30635.27
572.57	30614.21
572.74	30742.94
572.90	30417.60
573.06	30246.74
573.22	30490.16
573.38	30204.61
573.55	30373.13
573.71	30768.68
573.87	30724.21
574.03	30644.63
574.20	30738.26
574.36	30321.64
574.52	30632.93
574.68	30302.92
574.84	30661.02
575.01	30373.13
575.17	30450.37
575.33	30361.43
575.49	30799.11
575.65	30597.82
575.82	30749.96
575.98	30462.07
576.14	30913.80
576.30	30298.23
576.46	30543.99
576.62	30609.53
576.79	30101.63
576.95	30714.85
577.11	30485.48
577.27	30394.20
577.43	31122.10
577.59	30663.36
577.75	30754.64
577.92	30654.00
578.08	30508.88
578.24	30600.16
578.40	30604.84
578.56	30455.05
578.72	30401.22
578.88	30724.21
579.04	31049.55
579.21	30698.47
579.37	30515.90
579.53	30834.22
579.69	30623.57
579.85	30331.00
580.01	30714.85
580.17	30464.41
580.33	30689.10
580.49	30979.33
580.65	31084.65
580.82	30504.20
580.98	30679.74
581.14	31016.78
581.30	31136.15
581.46	30445.69
581.62	30618.89
581.78	30923.16
581.94	30787.41
582.10	30785.07
582.26	30782.73
582.42	30712.51
582.58	30874.01
582.74	30913.80
582.90	30689.10
583.06	31131.47
583.22	30518.25
583.38	30759.32
583.54	30871.67
583.70	30565.06
583.86	30817.83
584.02	30651.66
584.18	31377.22
584.34	30740.60
584.50	31084.65
584.66	30899.75
584.82	30569.74
584.98	30623.57
585.14	30754.64
585.30	30352.07
585.46	30529.95
585.62	30796.77
585.78	30995.71
585.94	30616.55
586.10	30885.71
586.26	30778.04
586.42	31316.37
586.58	31096.36
586.74	31136.15
586.90	30597.82
587.06	30642.29
587.22	30991.03
587.38	30480.80
587.54	30747.62
587.70	31077.63
587.86	31152.53
588.02	31566.81
588.18	31440.42
588.34	31154.87
588.49	31012.10
588.65	30972.31
588.81	31154.87
588.97	30728.89
589.13	30684.42
589.29	30899.75
589.45	30932.52
589.61	31187.64
589.77	31571.49
589.93	31358.50
590.08	31299.98
590.24	31159.55
590.40	31187.64
590.56	31101.04
590.72	31140.83
590.88	30553.35
591.04	31344.45
591.20	31377.22
591.35	31466.16
591.51	31613.62
591.67	31594.89
591.83	31363.18
