SpectraSuite Data File
++++++++++++++++++++++++++++++++++++
Date: Fri Oct 18 13:58:05 GMT-05:00 2013
User: bianchi
Dark Spectrum Present: No
Reference Spectrum Present: No
Number of Sampled Component Spectra: 1
Spectrometers: USB2+H05261
Integration Time (usec): 50000 (USB2+H05261)
Spectra Averaged: 1 (USB2+H05261)
Boxcar Smoothing: 0 (USB2+H05261)
Correct for Electrical Dark: No (USB2+H05261)
Strobe/Lamp Enabled: No (USB2+H05261)
Correct for Detector Non-linearity: No (USB2+H05261)
Correct for Stray Light: No (USB2+H05261)
Number of Pixels in Processed Spectrum: 2048
>>>>>Begin Processed Spectral Data<<<<<
365.73	0.00
365.92	0.00
366.12	0.00
366.32	0.00
366.52	0.00
366.72	0.00
366.91	0.00
367.11	0.00
367.31	0.00
367.51	0.00
367.70	0.00
367.90	0.00
368.10	0.00
368.30	0.00
368.49	0.00
368.69	0.00
368.89	0.00
369.09	0.00
369.28	0.00
369.48	0.00
369.68	0.00
369.87	0.00
370.07	0.00
370.27	0.00
370.47	0.00
370.66	100.64
370.86	107.66
371.06	105.32
371.25	166.18
371.45	100.64
371.65	126.39
371.84	121.71
372.04	161.50
372.24	114.69
372.44	142.77
372.63	248.10
372.83	121.71
373.03	163.84
373.22	191.92
373.42	191.92
373.62	243.42
373.81	182.56
374.01	238.73
374.21	299.59
374.40	222.35
374.60	304.27
374.79	212.99
374.99	222.35
375.19	229.37
375.38	266.82
375.58	241.08
375.78	280.86
375.97	262.14
376.17	264.48
376.37	278.52
376.56	278.52
376.76	196.60
376.95	266.82
377.15	238.73
377.35	330.02
377.54	290.23
377.74	308.95
377.93	276.18
378.13	308.95
378.33	278.52
378.52	264.48
378.72	227.03
378.91	301.93
379.11	266.82
379.31	259.80
379.50	313.63
379.70	327.68
379.89	245.76
380.09	327.68
380.28	320.65
380.48	313.63
380.68	362.78
380.87	290.23
381.07	266.82
381.26	358.10
381.46	341.72
381.65	369.80
381.85	290.23
382.04	306.61
382.24	322.99
382.43	367.46
382.63	315.97
382.83	379.17
383.02	400.23
383.22	355.76
383.41	322.99
383.61	416.62
383.80	383.85
384.00	369.80
384.19	351.08
384.39	348.74
384.58	365.12
384.78	421.30
384.97	355.76
385.17	407.25
385.36	397.89
385.56	346.40
385.75	351.08
385.95	353.42
386.14	430.66
386.34	449.38
386.53	423.64
386.72	388.53
386.92	451.72
387.11	407.25
387.31	442.36
387.50	418.96
387.70	414.27
387.89	390.87
388.09	512.58
388.28	496.19
388.48	500.87
388.67	468.11
388.86	449.38
389.06	519.60
389.25	486.83
389.45	470.45
389.64	444.70
389.84	493.85
390.03	526.62
390.22	390.87
390.42	486.83
390.61	505.56
390.81	496.19
391.00	477.47
391.19	575.77
391.39	472.79
391.58	545.34
391.78	535.98
391.97	557.05
392.16	514.92
392.36	599.18
392.55	629.60
392.75	561.73
392.94	468.11
393.13	620.24
393.33	535.98
393.52	493.85
393.71	592.16
393.91	596.84
394.10	533.64
394.29	531.30
394.49	634.29
394.68	538.32
394.88	608.54
395.07	601.52
395.26	601.52
395.46	575.77
395.65	589.82
395.84	685.78
396.04	664.71
396.23	713.86
396.42	650.67
396.62	650.67
396.81	655.35
397.00	727.91
397.19	709.18
397.39	699.82
397.58	723.23
397.77	610.88
397.97	664.71
398.16	723.23
398.35	748.97
398.55	746.63
398.74	697.48
398.93	805.14
399.12	727.91
399.32	725.57
399.51	854.30
399.70	699.82
399.90	805.14
400.09	784.08
400.28	713.86
400.47	741.95
400.67	835.57
400.86	763.01
401.05	912.81
401.24	854.30
401.44	847.27
401.63	786.42
401.82	781.74
402.01	847.27
402.21	849.61
402.40	840.25
402.59	873.02
402.78	868.34
402.97	851.96
403.17	819.19
403.36	851.96
403.55	929.19
403.74	908.13
403.93	863.66
404.13	971.32
404.32	884.72
404.51	884.72
404.70	917.49
404.89	936.21
405.09	990.05
405.28	1018.13
405.47	1001.75
405.66	1062.60
405.85	1001.75
406.05	1006.43
406.24	1041.54
406.43	990.05
406.62	1055.58
406.81	1069.62
407.00	1055.58
407.20	997.07
407.39	1011.11
407.58	1064.94
407.77	1001.75
407.96	1043.88
408.15	1053.24
408.34	1067.28
408.54	1097.71
408.73	1109.41
408.92	1130.48
409.11	1196.01
409.30	1156.22
409.49	1116.44
409.68	1130.48
409.87	1153.88
410.07	1207.72
410.26	1170.27
410.45	1193.67
410.64	1174.95
410.83	1179.63
411.02	1163.25
411.21	1167.93
411.40	1275.59
411.59	1310.70
411.78	1313.04
411.98	1280.27
412.17	1331.76
412.36	1397.30
412.55	1310.70
412.74	1294.32
412.93	1434.75
413.12	1327.08
413.31	1345.81
413.50	1390.28
413.69	1406.66
413.88	1516.67
414.07	1502.62
414.26	1413.68
414.45	1418.36
414.64	1444.11
414.83	1521.35
415.02	1500.28
415.22	1584.54
415.41	1689.87
415.60	1535.39
415.79	1593.90
415.98	1575.18
416.17	1640.72
416.36	1673.48
416.55	1565.82
416.74	1610.29
416.93	1685.19
417.12	1675.82
417.31	1640.72
417.50	1696.89
417.69	1762.42
417.88	1771.79
418.07	1825.62
418.26	1795.19
418.45	1743.70
418.64	1736.68
418.83	1933.28
419.02	1811.57
419.21	1776.47
419.39	1900.52
419.58	1952.01
419.77	1832.64
419.96	1874.77
420.15	1923.92
420.34	1802.21
420.53	1984.77
420.72	1930.94
420.91	1851.36
421.10	1886.47
421.29	2078.40
421.48	1991.80
421.67	1991.80
421.86	1900.52
422.05	1898.17
422.24	1956.69
422.43	2076.06
422.61	1977.75
422.80	2186.06
422.99	2038.61
423.18	2080.74
423.37	2003.50
423.56	2015.20
423.75	2143.93
423.94	1940.30
424.13	1940.30
424.32	1944.99
424.50	1980.09
424.69	1975.41
424.88	2134.57
425.07	2136.91
425.26	2043.29
425.45	2165.00
425.64	2062.01
425.83	2139.25
426.01	2043.29
426.20	2066.69
426.39	2076.06
426.58	2071.37
426.77	2120.53
426.96	2087.76
427.15	2031.58
427.33	2122.87
427.52	2193.08
427.71	2183.72
427.90	2186.06
428.09	2361.60
428.28	2139.25
428.46	2232.87
428.65	2221.17
428.84	2202.44
429.03	2279.68
429.22	2193.08
429.40	2363.94
429.59	2298.41
429.78	2167.34
429.97	2190.74
430.16	2202.44
430.34	2380.32
430.53	2335.85
430.72	2361.60
430.91	2326.49
431.10	2347.56
431.28	2464.58
431.47	2333.51
431.66	2572.25
431.85	2438.84
432.03	2497.35
432.22	2490.33
432.41	2459.90
432.60	2455.22
432.79	2480.97
432.97	2506.71
433.16	2548.84
433.35	2487.99
433.54	2541.82
433.72	2530.12
433.91	2523.10
434.10	2602.68
434.28	2506.71
434.47	2525.44
434.66	2614.38
434.85	2647.15
435.03	2623.74
435.22	2649.49
435.41	2670.55
435.59	2684.59
435.78	2684.59
435.97	2590.97
436.16	2764.17
436.34	2724.38
436.53	2644.81
436.72	2710.34
436.90	2661.19
437.09	2705.66
437.28	2686.94
437.46	2836.73
437.65	2778.22
437.84	2780.56
438.02	2686.94
438.21	2764.17
438.40	2750.13
438.58	2787.58
438.77	2942.05
438.96	2965.46
439.14	2942.05
439.33	2951.42
439.52	3033.33
439.70	3038.02
439.89	3002.91
440.08	3026.31
440.26	3035.67
440.45	3133.98
440.63	3098.87
440.82	3258.03
441.01	3173.77
441.19	3295.47
441.38	3178.45
441.57	3262.71
441.75	3363.35
441.94	3330.58
442.12	3248.66
442.31	3389.10
442.50	3377.39
442.68	3391.44
442.87	3424.20
443.05	3489.74
443.24	3520.17
443.43	3375.05
443.61	3351.65
443.80	3473.36
443.98	3236.96
444.17	3337.60
444.35	3534.21
444.54	3433.57
444.73	3506.12
444.91	3581.02
445.10	3461.65
445.28	3541.23
445.47	3506.12
445.65	3597.40
445.84	3421.86
446.02	3482.72
446.21	3574.00
446.39	3534.21
446.58	3471.01
446.77	3606.77
446.95	3552.93
447.14	3545.91
447.32	3578.68
447.51	3522.51
447.69	3515.48
447.88	3662.94
448.06	3571.66
448.25	3604.42
448.43	3707.41
448.62	3709.75
448.80	3613.79
448.99	3716.77
449.17	3705.07
449.36	3709.75
449.54	3749.54
449.73	3681.66
449.91	3878.27
450.10	3756.56
450.28	3817.41
450.46	3740.18
450.65	3770.60
450.83	3812.73
451.02	3843.16
451.20	3941.46
451.39	3838.48
451.57	3782.31
451.76	3815.07
451.94	3761.24
452.13	3929.76
452.31	3779.97
452.49	3763.58
452.68	4037.42
452.86	3899.33
453.05	4023.38
453.23	4084.23
453.42	3801.03
453.60	3819.75
453.78	3967.21
453.97	3880.61
454.15	3946.14
454.34	4030.40
454.52	4135.73
454.70	4060.83
454.89	4049.13
455.07	4021.04
455.26	4081.89
455.44	4210.62
455.62	4149.77
455.81	4147.43
455.99	4105.30
456.17	4341.69
456.36	4311.27
456.54	4367.44
456.73	4245.73
456.91	4493.83
457.09	4315.95
457.28	4409.57
457.46	4383.82
457.64	4325.31
457.83	4463.40
458.01	4416.59
458.19	4596.81
458.38	4418.93
458.56	4601.49
458.74	4482.13
458.93	4421.27
459.11	4533.62
459.29	4475.10
459.48	4608.51
459.66	4615.54
459.84	4713.84
460.03	4608.51
460.21	4592.13
460.39	4601.49
460.57	4610.86
460.76	4512.55
460.94	4781.71
461.12	4770.01
461.31	4887.04
461.49	4711.50
461.67	4624.90
461.85	4835.55
462.04	4777.03
462.22	5111.73
462.40	4966.62
462.59	4819.16
462.77	4819.16
462.95	4898.74
463.13	4842.57
463.32	4826.18
463.50	4884.70
463.68	4968.96
463.86	4990.02
464.05	4868.31
464.23	4849.59
464.41	4915.12
464.59	4938.53
464.78	5011.09
464.96	4952.57
465.14	4950.23
465.32	5043.85
465.50	5062.58
465.69	5093.01
465.87	4959.60
466.05	5067.26
466.23	5125.77
466.41	5071.94
466.60	5240.46
466.78	5025.13
466.96	4973.64
467.14	5057.90
467.32	5165.56
467.51	5249.82
467.69	5135.14
467.87	5224.08
468.05	5214.71
468.23	5291.95
468.41	5118.75
468.60	5380.89
468.78	5277.91
468.96	5214.71
469.14	5423.02
469.32	5502.60
469.50	5329.40
469.69	5497.92
469.87	5530.69
470.05	5561.11
470.23	5467.49
470.41	5460.47
470.59	5533.03
470.77	5462.81
470.95	5607.92
471.14	5530.69
471.32	5612.60
471.50	5598.56
471.68	5769.42
471.86	5659.42
472.04	5888.79
472.22	5944.96
472.40	5666.44
472.58	5710.91
472.77	5895.81
472.95	5886.45
473.13	5916.87
473.31	5909.85
473.49	5966.03
473.67	6001.13
473.85	5820.91
474.03	6209.44
474.21	6031.56
474.39	6228.17
474.57	6263.27
474.75	6181.35
474.93	6375.62
475.12	6314.77
475.30	6375.62
475.48	6216.46
475.66	6387.32
475.84	6572.22
476.02	6455.20
476.20	6396.68
476.38	6707.98
476.56	6619.04
476.74	6626.06
476.92	6588.61
477.10	6656.48
477.28	6827.34
477.46	6593.29
477.64	6944.37
477.82	6902.24
478.00	6822.66
478.18	7133.95
478.36	6977.14
478.54	7258.00
478.72	7335.24
478.90	7250.98
479.08	7295.45
479.26	7494.40
479.44	7445.24
479.62	7524.82
479.80	7726.11
479.98	7382.05
480.16	7667.60
480.34	7545.89
480.52	7719.09
480.70	7906.33
480.88	7857.18
481.06	7871.22
481.24	7775.26
481.41	7946.12
481.59	8112.30
481.77	8009.31
481.95	8262.09
482.13	8219.96
482.31	8070.17
482.49	8454.02
482.67	8540.61
482.85	8407.20
483.03	8671.68
483.21	8753.60
483.39	8659.98
483.57	8648.28
483.74	8905.74
483.92	9029.79
484.10	8809.78
484.28	9050.85
484.46	9191.28
484.64	9331.72
484.82	9123.41
485.00	9298.95
485.18	9511.94
485.35	9420.66
485.53	9446.40
485.71	9535.34
485.89	9673.43
486.07	9661.73
486.25	9863.02
486.43	9916.85
486.61	9966.00
486.78	10097.07
486.96	10188.35
487.14	10300.70
487.32	10040.90
487.50	10352.19
487.68	10370.91
487.85	10611.99
488.03	10406.02
488.21	10668.16
488.39	10721.99
488.57	10794.55
488.75	10984.13
488.92	10981.79
489.10	11077.76
489.28	11241.59
489.46	11272.02
489.64	11002.86
489.81	11700.34
489.99	11489.69
490.17	11765.87
490.35	11901.62
490.53	11847.79
490.70	11892.26
490.88	11854.81
491.06	12072.48
491.24	12004.61
491.41	11859.49
491.59	12095.89
491.77	12170.79
491.95	12353.35
492.13	12545.27
492.30	12421.22
492.48	12540.59
492.66	12561.66
492.84	12512.50
493.01	13099.98
493.19	12781.67
493.37	13020.40
493.54	12886.99
493.72	13348.08
493.90	13144.45
494.08	13275.52
494.25	13315.31
494.43	13338.71
494.61	13678.09
494.79	13535.32
494.96	13418.29
495.14	13797.46
495.32	13872.36
495.49	13797.46
495.67	13877.04
495.85	14101.73
496.02	14129.81
496.20	13872.36
496.38	14097.05
496.55	14188.33
496.73	14342.80
496.91	14787.50
497.09	14618.99
497.26	14595.58
497.44	14614.30
497.62	14806.23
497.79	14806.23
497.97	14780.48
498.14	14895.17
498.32	14953.68
498.50	15126.88
498.67	15658.18
498.85	15335.19
499.03	15508.39
499.20	15321.15
499.38	15293.06
499.56	15213.48
499.73	15695.63
499.91	15506.05
500.08	15838.41
500.26	15775.21
500.44	15541.16
500.61	15932.03
500.79	15861.81
500.97	16137.99
501.14	16350.98
501.32	15899.26
501.49	16374.39
501.67	16266.72
501.84	16388.43
502.02	16332.26
502.20	16720.79
502.37	16755.90
502.55	16425.88
502.72	16711.42
502.90	16407.16
503.07	16313.53
503.25	16507.80
503.43	16774.62
503.60	16854.20
503.78	16933.78
503.95	16875.26
504.13	17053.14
504.30	17170.17
504.48	16973.56
504.65	17048.46
504.83	17097.61
505.01	17476.78
505.18	17343.37
505.36	17804.46
505.53	17294.22
505.71	17401.88
505.88	17582.10
506.06	17561.04
506.23	17614.87
506.41	17572.74
506.58	18052.55
506.76	17867.65
506.93	18052.55
507.11	17825.52
507.28	17759.98
507.46	18001.06
507.63	17921.48
507.81	17989.36
507.98	17825.52
508.16	18022.12
508.33	18108.72
508.50	18286.61
508.68	18541.72
508.85	18724.29
509.03	18548.75
509.20	18834.29
509.38	18675.13
509.55	18941.96
509.73	18607.26
509.90	18789.82
510.08	18494.91
510.25	18923.23
510.42	18937.27
510.60	19035.58
510.77	19405.38
510.95	19328.14
511.12	19066.00
511.30	19073.03
511.47	19190.05
511.64	19129.20
511.82	19845.40
511.99	19491.98
512.17	19491.98
512.34	19473.26
512.51	19613.69
512.69	19517.73
512.86	19674.54
513.04	19697.95
513.21	19814.98
513.38	19882.85
513.56	20060.73
513.73	19936.68
513.90	19850.08
514.08	20002.22
514.25	19969.45
514.43	19976.47
514.60	20156.69
514.77	20236.27
514.95	20191.80
515.12	19971.79
515.29	20638.84
515.47	20390.75
515.64	20720.76
515.81	20491.39
515.99	20699.70
516.16	20737.15
516.33	20547.56
516.51	20774.60
516.68	20769.91
516.85	20496.07
517.03	21116.31
517.20	20915.03
517.37	21025.03
517.54	21050.78
517.72	20910.35
517.89	21015.67
518.06	21123.33
518.24	21064.82
518.41	20964.18
518.58	21390.16
518.75	21036.74
518.93	21699.11
519.10	21509.52
519.27	21235.68
519.45	21303.56
519.62	21483.78
519.79	21439.31
519.96	21469.73
520.14	21813.79
520.31	21654.64
520.48	21722.51
520.65	21652.30
520.83	21802.09
521.00	21844.22
521.17	22047.85
521.34	21923.80
521.52	21996.35
521.69	21673.36
521.86	22263.18
522.03	22104.02
522.20	22171.89
522.38	22214.02
522.55	22328.71
522.72	21944.86
522.89	22202.32
523.07	22686.81
523.24	22499.57
523.41	22719.58
523.58	22480.85
523.75	22771.07
523.92	22410.63
524.10	22717.24
524.27	22906.82
524.44	22789.80
524.61	23023.85
524.78	22862.35
524.96	22672.77
525.13	22764.05
525.30	23117.47
525.47	23243.86
525.64	23274.29
525.81	23407.70
525.98	23171.30
526.16	23428.76
526.33	23428.76
526.50	23480.25
526.67	23131.51
526.84	23080.02
527.01	23211.09
527.18	23335.14
527.36	23749.42
527.53	23548.13
527.70	23882.83
527.87	23857.08
528.04	23742.39
528.21	23681.54
528.38	23578.56
528.55	23775.16
528.72	23793.89
528.89	24098.16
529.07	24278.38
529.24	23873.46
529.41	24261.99
529.58	24009.22
529.75	23805.59
529.92	24065.39
530.09	24034.96
530.26	24292.42
530.43	24271.36
530.60	24327.53
530.77	23983.47
530.94	24236.25
531.11	24177.73
531.28	24306.46
531.46	24254.97
531.63	24341.57
531.80	24797.98
531.97	24694.99
532.14	24575.62
532.31	24746.48
532.48	24367.32
532.65	24971.18
532.82	24505.41
532.99	24893.94
533.16	24723.08
533.33	24652.86
533.50	25170.12
533.67	25048.41
533.84	24877.55
534.01	24613.07
534.18	24559.24
534.35	24989.90
534.52	25490.77
534.69	25263.74
534.86	25369.07
535.03	25238.00
535.20	25046.07
535.37	25429.92
535.54	25359.70
535.71	24996.92
535.88	25308.21
536.05	25179.48
536.22	25757.60
536.38	25844.20
536.55	25607.80
536.72	25490.77
536.89	25497.80
537.06	25357.36
537.23	25762.28
537.40	25490.77
537.57	25502.48
537.74	25879.30
537.91	25898.03
538.08	26054.84
538.25	25591.42
538.42	25876.96
538.59	25523.54
538.75	25802.07
538.92	25886.32
539.09	26160.17
539.26	25984.63
539.43	25816.11
539.60	26036.12
539.77	26164.85
539.94	26288.90
540.11	26270.17
540.28	26160.17
540.44	25961.22
540.61	26431.67
540.78	26206.98
540.95	25984.63
541.12	26380.18
541.29	26171.87
541.46	26534.65
541.62	26515.93
541.79	26274.85
541.96	26061.87
542.13	25961.22
542.30	26745.30
542.47	26555.72
542.63	26965.31
542.80	26766.37
542.97	27426.40
543.14	26766.37
543.31	27072.98
543.48	26998.08
543.64	27190.00
543.81	27108.08
543.98	27096.38
544.15	27185.32
544.32	27185.32
544.48	27166.60
544.65	27292.99
544.82	27166.60
544.99	26946.59
545.16	27115.11
545.32	27498.95
545.49	27597.26
545.66	27714.28
545.83	27428.74
546.00	27442.78
546.16	27475.55
546.33	27351.50
546.50	27213.41
546.67	27342.14
546.83	27761.09
547.00	27410.01
547.17	27978.76
547.34	27838.33
547.50	27721.30
547.67	27733.01
547.84	27580.87
548.00	28088.77
548.17	27943.66
548.34	27632.36
548.51	28037.28
548.67	28095.79
548.84	28048.98
549.01	27861.74
549.18	27964.72
549.34	27807.90
549.51	28011.53
549.68	28034.94
549.84	27913.23
550.01	28048.98
550.18	28245.58
550.34	28112.17
550.51	28252.61
550.68	28252.61
550.84	28177.71
551.01	28231.54
551.18	28011.53
551.34	28240.90
551.51	28140.26
551.68	28641.14
551.84	28290.06
552.01	28477.30
552.18	28603.69
552.34	28439.85
552.51	28645.82
552.68	28400.06
552.84	28514.75
553.01	28687.95
553.18	28517.09
553.34	28755.82
553.51	28444.53
553.67	28339.21
553.84	28943.06
554.01	28559.22
554.17	28737.10
554.34	28582.62
554.51	28781.57
554.67	28732.42
554.84	28638.80
555.00	28837.74
555.17	29142.01
555.33	28893.91
555.50	28816.68
555.67	28851.78
555.83	29001.58
556.00	28903.28
556.16	29230.95
556.33	29097.54
556.50	28914.98
556.66	29146.69
556.83	29003.92
556.99	29635.86
557.16	29144.35
557.32	29315.21
557.49	29357.34
557.65	29144.35
557.82	29130.31
557.98	28933.70
558.15	29298.83
558.32	29242.65
558.48	29006.26
558.65	29764.59
558.81	29394.79
558.98	29209.89
559.14	29390.11
559.31	29373.72
559.47	29158.39
559.64	29357.34
559.80	29703.74
559.97	29406.49
560.13	29521.18
560.30	29191.16
560.46	29504.79
560.63	29734.17
560.79	29308.19
560.96	29516.50
561.12	29408.83
561.29	29387.77
561.45	29446.28
561.61	29816.08
561.78	29926.09
561.94	29514.16
562.11	29696.72
562.27	29743.53
562.44	29844.17
562.60	29490.75
562.77	29589.05
562.93	29329.25
563.10	29633.52
563.26	29673.31
563.42	30043.12
563.59	29766.93
563.75	29701.40
563.92	30036.09
564.08	29837.15
564.24	29907.37
564.41	29589.05
564.57	29689.70
564.74	29614.80
564.90	29788.00
565.07	30047.80
565.23	29834.81
565.39	30029.07
565.56	30059.50
565.72	29715.44
565.88	30096.95
566.05	29947.15
566.21	29743.53
566.38	29947.15
566.54	30045.46
566.70	30228.02
566.87	30347.39
567.03	29968.22
567.19	30562.72
567.36	30361.43
567.52	30232.70
567.68	30232.70
567.85	29933.11
568.01	30099.29
568.17	29837.15
568.34	30363.77
568.50	30221.00
568.66	30202.27
568.83	30792.09
568.99	30263.13
569.15	29881.62
569.32	30232.70
569.48	30314.62
569.64	30188.23
569.81	30228.02
569.97	30148.44
570.13	30017.37
570.30	30153.12
570.46	30366.11
570.62	29916.73
570.78	30178.87
570.95	30012.69
571.11	30244.40
571.27	29558.63
571.43	30412.92
571.60	30043.12
571.76	29788.00
571.92	30469.09
572.09	30010.35
572.25	30417.60
572.41	30426.96
572.57	30391.86
572.74	30658.68
572.90	30143.76
573.06	30342.70
573.22	30015.03
573.38	30246.74
573.55	30366.11
573.71	30740.60
573.87	30670.38
574.03	30286.53
574.20	30316.96
574.36	29986.94
574.52	30506.54
574.68	30382.49
574.84	30925.50
575.01	30661.02
575.17	30401.22
575.33	30513.56
575.49	30267.81
575.65	30691.44
575.82	30476.12
575.98	30270.15
576.14	30543.99
576.30	30815.49
576.46	30129.72
576.62	30389.52
576.79	30433.99
576.95	30307.60
577.11	30927.84
577.27	30459.73
577.43	30560.37
577.59	30471.43
577.75	30525.27
577.92	30302.92
578.08	29947.15
578.24	30349.73
578.40	30396.54
578.56	30361.43
578.72	30742.94
578.88	30766.34
579.04	31091.68
579.21	30745.28
579.37	30513.56
579.53	30677.40
579.69	30347.39
579.85	30551.01
580.01	30443.35
580.17	30656.34
580.33	30843.58
580.49	30806.13
580.65	30735.92
580.82	30651.66
580.98	30810.81
581.14	30625.91
581.30	30925.50
581.46	30455.05
581.62	30216.32
581.78	30316.96
581.94	30625.91
582.10	30464.41
582.26	30703.15
582.42	30976.99
582.58	30766.34
582.74	30972.31
582.90	30663.36
583.06	31035.50
583.22	30939.54
583.38	30845.92
583.54	30778.04
583.70	30939.54
583.86	30445.69
584.02	30663.36
584.18	30991.03
584.34	30855.28
584.50	30967.63
584.66	30579.10
584.82	30581.44
584.98	30679.74
585.14	31054.23
585.30	30508.88
585.46	30522.93
585.62	30604.84
585.78	30820.17
585.94	30529.95
586.10	31016.78
586.26	30848.26
586.42	30815.49
586.58	30693.79
586.74	30909.11
586.90	30803.79
587.06	30480.80
587.22	30866.98
587.38	30742.94
587.54	31288.28
587.70	30876.35
587.86	30958.27
588.02	31517.65
588.18	31005.08
588.34	30934.86
588.49	30897.41
588.65	30555.69
588.81	30864.64
588.97	30822.51
589.13	30590.80
589.29	30869.33
589.45	31117.42
589.61	31510.63
589.77	31096.36
589.93	31304.67
590.08	31428.71
590.24	31307.01
590.40	30993.37
590.56	31295.30
590.72	30920.82
590.88	31276.58
591.04	30960.61
591.20	31206.36
591.35	31124.44
591.51	31150.19
591.67	31573.83
591.83	31716.60
