SpectraSuite Data File
++++++++++++++++++++++++++++++++++++
Date: Fri Oct 18 13:58:33 GMT-05:00 2013
User: bianchi
Dark Spectrum Present: No
Reference Spectrum Present: No
Number of Sampled Component Spectra: 1
Spectrometers: USB2+H05261
Integration Time (usec): 50000 (USB2+H05261)
Spectra Averaged: 1 (USB2+H05261)
Boxcar Smoothing: 0 (USB2+H05261)
Correct for Electrical Dark: No (USB2+H05261)
Strobe/Lamp Enabled: No (USB2+H05261)
Correct for Detector Non-linearity: No (USB2+H05261)
Correct for Stray Light: No (USB2+H05261)
Number of Pixels in Processed Spectrum: 2048
>>>>>Begin Processed Spectral Data<<<<<
365.73	0.00
365.92	0.00
366.12	0.00
366.32	0.00
366.52	0.00
366.72	0.00
366.91	0.00
367.11	0.00
367.31	0.00
367.51	0.00
367.70	0.00
367.90	0.00
368.10	0.00
368.30	0.00
368.49	0.00
368.69	0.00
368.89	0.00
369.09	0.00
369.28	0.00
369.48	0.00
369.68	0.00
369.87	0.00
370.07	0.00
370.27	0.00
370.47	0.00
370.66	138.09
370.86	28.09
371.06	182.56
371.25	180.22
371.45	100.64
371.65	91.28
371.84	81.92
372.04	86.60
372.24	182.56
372.44	173.20
372.63	212.99
372.83	236.39
373.03	138.09
373.22	170.86
373.42	245.76
373.62	187.24
373.81	222.35
374.01	180.22
374.21	196.60
374.40	250.44
374.60	170.86
374.79	196.60
374.99	264.48
375.19	259.80
375.38	210.65
375.58	234.05
375.78	196.60
375.97	184.90
376.17	339.38
376.37	159.16
376.56	245.76
376.76	262.14
376.95	266.82
377.15	250.44
377.35	306.61
377.54	273.84
377.74	292.57
377.93	215.33
378.13	222.35
378.33	297.25
378.52	273.84
378.72	308.95
378.91	297.25
379.11	266.82
379.31	264.48
379.50	201.29
379.70	348.74
379.89	280.86
380.09	376.83
380.28	311.29
380.48	229.37
380.68	311.29
380.87	273.84
381.07	332.36
381.26	344.06
381.46	273.84
381.65	318.31
381.85	297.25
382.04	276.18
382.24	276.18
382.43	337.04
382.63	418.96
382.83	299.59
383.02	400.23
383.22	418.96
383.41	369.80
383.61	374.49
383.80	395.55
384.00	353.42
384.19	339.38
384.39	421.30
384.58	374.49
384.78	402.57
384.97	433.00
385.17	365.12
385.36	376.83
385.56	341.72
385.75	379.17
385.95	400.23
386.14	390.87
386.34	449.38
386.53	393.21
386.72	416.62
386.92	421.30
387.11	414.27
387.31	435.34
387.50	475.13
387.70	409.59
387.89	440.02
388.09	379.17
388.28	397.89
388.48	519.60
388.67	421.30
388.86	430.66
389.06	430.66
389.25	397.89
389.45	477.47
389.64	407.25
389.84	482.15
390.03	486.83
390.22	470.45
390.42	479.81
390.61	521.94
390.81	468.11
391.00	482.15
391.19	416.62
391.39	519.60
391.58	540.66
391.78	482.15
391.97	484.49
392.16	451.72
392.36	557.05
392.55	528.96
392.75	554.71
392.94	535.98
393.13	517.26
393.33	580.45
393.52	531.30
393.71	575.77
393.91	575.77
394.10	613.22
394.29	489.17
394.49	585.13
394.68	564.07
394.88	603.86
395.07	578.11
395.26	557.05
395.46	531.30
395.65	528.96
395.84	538.32
396.04	599.18
396.23	692.80
396.42	538.32
396.62	564.07
396.81	711.52
397.00	688.12
397.19	697.48
397.39	617.90
397.58	660.03
397.77	737.27
397.97	667.05
398.16	678.76
398.35	683.44
398.55	681.10
398.74	664.71
398.93	690.46
399.12	730.25
399.32	730.25
399.51	688.12
399.70	697.48
399.90	645.99
400.09	821.53
400.28	720.88
400.47	734.93
400.67	774.72
400.86	699.82
401.05	765.36
401.24	833.23
401.44	720.88
401.63	802.80
401.82	788.76
402.01	788.76
402.21	788.76
402.40	725.57
402.59	805.14
402.78	777.06
402.97	887.06
403.17	819.19
403.36	861.32
403.55	795.78
403.74	849.61
403.93	950.26
404.13	912.81
404.32	887.06
404.51	882.38
404.70	901.11
404.89	877.70
405.09	952.60
405.28	933.87
405.47	929.19
405.66	976.00
405.85	922.17
406.05	887.06
406.24	1043.88
406.43	971.32
406.62	1022.81
406.81	1128.14
407.00	994.73
407.20	966.64
407.39	1046.22
407.58	1102.39
407.77	1135.16
407.96	1067.28
408.15	1069.62
408.34	1043.88
408.54	1109.41
408.73	1057.92
408.92	1062.60
409.11	1135.16
409.30	1118.78
409.49	1116.44
409.68	1053.24
409.87	1139.84
410.07	973.66
410.26	1128.14
410.45	1193.67
410.64	1107.07
410.83	1247.51
411.02	1179.63
411.21	1296.66
411.40	1338.79
411.59	1327.08
411.78	1275.59
411.98	1247.51
412.17	1163.25
412.36	1156.22
412.55	1336.45
412.74	1256.87
412.93	1371.55
413.12	1224.10
413.31	1399.64
413.50	1301.34
413.69	1423.05
413.88	1420.71
414.07	1458.15
414.26	1451.13
414.45	1404.32
414.64	1425.39
414.83	1432.41
415.02	1460.49
415.22	1483.90
415.41	1519.01
415.60	1490.92
415.79	1537.73
415.98	1636.03
416.17	1612.63
416.36	1586.88
416.55	1528.37
416.74	1605.61
416.93	1561.14
417.12	1540.07
417.31	1652.42
417.50	1694.55
417.69	1799.87
417.88	1579.86
418.07	1563.48
418.26	1668.80
418.45	1717.95
418.64	1921.58
418.83	1863.07
419.02	1846.68
419.21	1853.70
419.39	1804.55
419.58	1753.06
419.77	1849.02
419.96	1713.27
420.15	1834.98
420.34	1832.64
420.53	1741.36
420.72	1949.67
420.91	2022.22
421.10	1923.92
421.29	1970.73
421.48	1921.58
421.67	1949.67
421.86	1963.71
422.05	1853.70
422.24	1923.92
422.43	1839.66
422.61	1923.92
422.80	2052.65
422.99	1959.03
423.18	2012.86
423.37	1956.69
423.56	1944.99
423.75	1980.09
423.94	2015.20
424.13	1839.66
424.32	1907.54
424.50	2038.61
424.69	2069.03
424.88	2005.84
425.07	2008.18
425.26	2045.63
425.45	1905.20
425.64	1954.35
425.83	2017.54
426.01	2050.31
426.20	2031.58
426.39	2033.93
426.58	2057.33
426.77	2085.42
426.96	2148.61
427.15	2120.53
427.33	2134.57
427.52	2038.61
427.71	2043.29
427.90	2153.29
428.09	2094.78
428.28	2169.68
428.46	2190.74
428.65	2275.00
428.84	2277.34
429.03	2286.70
429.22	2078.40
429.40	2239.89
429.59	2223.51
429.78	2097.12
429.97	2169.68
430.16	2246.91
430.34	2186.06
430.53	2244.57
430.72	2286.70
430.91	2321.81
431.10	2352.24
431.28	2307.77
431.47	2377.98
431.66	2291.38
431.85	2349.90
432.03	2406.07
432.22	2506.71
432.41	2462.24
432.60	2366.28
432.79	2424.80
432.97	2282.02
433.16	2548.84
433.35	2335.85
433.54	2422.45
433.72	2473.95
433.91	2487.99
434.10	2448.20
434.28	2450.54
434.47	2434.16
434.66	2579.27
434.85	2597.99
435.03	2485.65
435.22	2654.17
435.41	2628.42
435.59	2612.04
435.78	2663.53
435.97	2736.09
436.16	2597.99
436.34	2642.46
436.53	2649.49
436.72	2789.92
436.90	2619.06
437.09	2712.68
437.28	2633.10
437.46	2661.19
437.65	2743.11
437.84	2710.34
438.02	2682.25
438.21	2799.28
438.40	2647.15
438.58	2895.24
438.77	2846.09
438.96	2841.41
439.14	2888.22
439.33	2829.71
439.52	2958.44
439.70	3033.33
439.89	3042.70
440.08	2942.05
440.26	2988.86
440.45	2960.78
440.63	3019.29
440.82	3061.42
441.01	3073.12
441.19	3180.79
441.38	3150.36
441.57	3162.06
441.75	3152.70
441.94	3246.32
442.12	3258.03
442.31	3227.60
442.50	3215.90
442.68	3232.28
442.87	3258.03
443.05	3426.54
443.24	3246.32
443.43	3449.95
443.61	3246.32
443.80	3377.39
443.98	3279.09
444.17	3094.19
444.35	3433.57
444.54	3356.33
444.73	3393.78
444.91	3417.18
445.10	3384.41
445.28	3342.28
445.47	3405.48
445.65	3365.69
445.84	3318.88
446.02	3424.20
446.21	3485.06
446.39	3487.40
446.58	3419.52
446.77	3588.04
446.95	3286.11
447.14	3606.77
447.32	3552.93
447.51	3426.54
447.69	3396.12
447.88	3569.32
448.06	3524.85
448.25	3454.63
448.43	3421.86
448.62	3588.04
448.80	3475.70
448.99	3501.44
449.17	3522.51
449.36	3372.71
449.54	3688.68
449.73	3646.55
449.91	3709.75
450.10	3566.98
450.28	3765.92
450.46	3735.50
450.65	3737.84
450.83	3765.92
451.02	3634.85
451.20	3536.55
451.39	3770.60
451.57	3688.68
451.76	3653.58
451.94	3779.97
452.13	3808.05
452.31	3831.46
452.49	3854.86
452.68	3789.33
452.86	3726.13
453.05	3815.07
453.23	3864.22
453.42	3843.16
453.60	3712.09
453.78	3836.14
453.97	3761.24
454.15	3920.40
454.34	3854.86
454.52	4025.72
454.70	3899.33
454.89	3922.74
455.07	3967.21
455.26	3878.27
455.44	4147.43
455.62	3985.93
455.81	4131.05
455.99	4084.23
456.17	3967.21
456.36	4070.19
456.54	4063.17
456.73	4212.96
456.91	4217.65
457.09	4273.82
457.28	4344.03
457.46	4325.31
457.64	4262.12
457.83	4344.03
458.01	4217.65
458.19	4294.88
458.38	4519.57
458.56	4362.76
458.74	4374.46
458.93	4486.81
459.11	4552.34
459.29	4365.10
459.48	4397.87
459.66	4411.91
459.84	4334.67
460.03	4418.93
460.21	4592.13
460.39	4379.14
460.57	4397.87
460.76	4531.28
460.94	4493.83
461.12	4372.12
461.31	4652.98
461.49	4477.44
461.67	4601.49
461.85	4688.09
462.04	4669.37
462.22	4657.67
462.40	4779.37
462.59	4660.01
462.77	4765.33
462.95	4716.18
463.13	4760.65
463.32	4711.50
463.50	4652.98
463.68	4805.12
463.86	4858.95
464.05	4657.67
464.23	4683.41
464.41	4865.97
464.59	4699.80
464.78	4887.04
464.96	5015.77
465.14	4847.25
465.32	4943.21
465.50	5013.43
465.69	5001.72
465.87	4959.60
466.05	4798.10
466.23	4898.74
466.41	4908.10
466.60	4985.34
466.78	4964.28
466.96	5050.88
467.14	4924.49
467.32	5004.07
467.51	5109.39
467.69	4901.08
467.87	5046.20
468.05	4987.68
468.23	5050.88
468.41	5153.86
468.60	5078.96
468.78	5252.16
468.96	5217.05
469.14	5163.22
469.32	5233.44
469.50	5097.69
469.69	5254.50
469.87	5282.59
470.05	5294.29
470.23	5371.53
470.41	5373.87
470.59	5453.45
470.77	5362.17
470.95	5366.85
471.14	5509.62
471.32	5540.05
471.50	5582.18
471.68	5509.62
471.86	5504.94
472.04	5481.53
472.22	5657.07
472.40	5425.36
472.58	5687.50
472.77	5652.39
472.95	5830.27
473.13	5987.09
473.31	5589.20
473.49	5720.27
473.67	5841.98
473.85	5738.99
474.03	5792.83
474.21	5912.19
474.39	6003.47
474.57	5966.03
474.75	6092.41
474.93	6211.78
475.12	6003.47
475.30	6024.54
475.48	5877.09
475.66	6211.78
475.84	6080.71
476.02	6300.72
476.20	6200.08
476.38	6207.10
476.56	6326.47
476.74	6654.14
476.92	6478.60
477.10	6354.55
477.28	6534.78
477.46	6682.23
477.64	6466.90
477.82	6729.04
478.00	6700.95
478.18	6899.90
478.36	6836.70
478.54	6958.41
478.72	6888.20
478.90	7023.95
479.08	6930.33
479.26	7169.06
479.44	7321.20
479.62	7042.67
479.80	7194.81
479.98	7435.88
480.16	7440.56
480.34	7461.63
480.52	7548.23
480.70	7911.01
480.88	7609.08
481.06	7461.63
481.24	7550.57
481.41	7911.01
481.59	7854.84
481.77	7791.64
481.95	7882.92
482.13	7969.52
482.31	7901.65
482.49	8248.05
482.67	8205.92
482.85	8248.05
483.03	8386.14
483.21	8463.38
483.39	8512.53
483.57	8507.85
483.74	8442.31
483.92	8638.92
484.10	8503.17
484.28	8648.28
484.46	8814.46
484.64	9135.11
484.82	8877.65
485.00	8950.21
485.18	9121.07
485.35	9212.35
485.53	9184.26
485.71	9153.84
485.89	9547.05
486.07	9266.18
486.25	9320.01
486.43	9600.88
486.61	9675.77
486.78	9921.53
486.96	9694.50
487.14	9951.96
487.32	9928.55
487.50	9841.95
487.68	10209.42
487.85	10317.08
488.03	10218.78
488.21	10331.12
488.39	10399.00
488.57	10420.06
488.75	10541.77
488.92	10780.51
489.10	10658.80
489.28	10647.10
489.46	10930.30
489.64	11016.90
489.81	11300.11
489.99	11009.88
490.17	11222.87
490.35	11176.06
490.53	11454.58
490.70	11353.94
490.88	11445.22
491.06	11587.99
491.24	11630.12
491.41	11538.84
491.59	11803.32
491.77	11791.62
491.95	12028.01
492.13	11939.07
492.30	11976.52
492.48	12140.36
492.66	12086.53
492.84	12308.88
493.01	12423.56
493.19	12388.46
493.37	12580.38
493.54	12622.51
493.72	12566.34
493.90	12706.77
494.08	12769.96
494.25	12992.31
494.43	12966.57
494.61	13240.41
494.79	13130.41
494.96	13322.33
495.14	13462.76
495.32	13296.58
495.49	13439.36
495.67	13348.08
495.85	13469.78
496.02	13647.66
496.20	13792.78
496.38	13521.27
496.55	13799.80
496.73	14164.92
496.91	13872.36
497.09	13984.70
497.26	14167.26
497.44	14260.88
497.62	14253.86
497.79	14083.00
497.97	14120.45
498.14	14490.26
498.32	14555.79
498.50	14525.36
498.67	14541.75
498.85	14590.90
499.03	14766.44
499.20	14700.90
499.38	14712.61
499.56	14923.26
499.73	15101.14
499.91	15063.69
500.08	15033.26
500.26	14920.92
500.44	15220.50
500.61	15393.70
500.79	15428.81
500.97	15461.58
501.14	15557.54
501.32	15634.78
501.49	15461.58
501.67	15344.55
501.84	15985.86
502.02	15927.35
502.20	15716.70
502.37	16013.95
502.55	16016.29
502.72	15772.87
502.90	15969.48
503.07	15903.94
503.25	16276.09
503.43	16411.84
503.60	16250.34
503.78	15917.98
503.95	16472.69
504.13	16510.14
504.30	16180.12
504.48	16297.15
504.65	16563.97
504.83	16844.84
505.01	16893.99
505.18	16767.60
505.36	16910.37
505.53	16833.13
505.71	16716.11
505.88	16931.44
506.06	16875.26
506.23	17163.15
506.41	17088.25
506.58	17490.82
506.76	17191.23
506.93	17186.55
507.11	17158.47
507.28	17249.75
507.46	17144.42
507.63	17514.23
507.81	17528.27
507.98	17600.83
508.16	17605.51
508.33	17703.81
508.50	17596.15
508.68	17465.08
508.85	17865.31
509.03	17891.06
509.20	17795.09
509.38	17972.97
509.55	18094.68
509.73	18132.13
509.90	18115.75
510.08	17905.10
510.25	17996.38
510.42	18047.87
510.60	18548.75
510.77	18462.15
510.95	18728.97
511.12	18501.93
511.30	18169.58
511.47	18410.65
511.64	18773.44
511.82	18895.14
511.99	18813.23
512.17	18829.61
512.34	18878.76
512.51	18876.42
512.69	18897.49
512.86	19091.75
513.04	19197.07
513.21	18897.49
513.38	19208.78
513.56	19424.11
513.73	19105.79
513.90	19154.94
514.08	19234.52
514.25	19515.39
514.43	19562.20
514.60	19456.87
514.77	19185.37
514.95	19644.12
515.12	19290.70
515.29	19414.74
515.47	19625.39
515.64	19700.29
515.81	19899.23
515.99	19910.94
516.16	20084.14
516.33	20077.12
516.51	19782.21
516.68	19840.72
516.85	19880.51
517.03	20163.72
517.20	20121.59
517.37	20477.35
517.54	20215.21
517.72	20343.94
517.89	20177.76
518.06	20538.20
518.24	20257.34
518.41	20208.19
518.58	20430.54
518.75	20456.28
518.93	20615.44
519.10	20549.90
519.27	20643.52
519.45	20695.02
519.62	20744.17
519.79	20779.28
519.96	20634.16
520.14	21247.38
520.31	20657.57
520.48	21062.48
520.65	20769.91
520.83	21095.25
521.00	20872.90
521.17	21029.71
521.34	21160.78
521.52	21336.32
521.69	21406.54
521.86	21111.63
522.03	21500.16
522.20	21380.79
522.38	21422.92
522.55	21619.53
522.72	21687.40
522.89	21886.35
523.07	21769.32
523.24	22118.06
523.41	21841.88
523.58	21687.40
523.75	21575.06
523.92	21757.62
524.10	21898.05
524.27	21881.67
524.44	21825.50
524.61	22059.55
524.78	22150.83
524.96	22279.56
525.13	22443.40
525.30	22286.58
525.47	22614.26
525.64	22518.29
525.81	22520.63
525.98	22312.33
526.16	22398.93
526.33	22209.34
526.50	22277.22
526.67	22211.68
526.84	22632.98
527.01	22700.86
527.18	22457.44
527.36	22483.19
527.53	22684.47
527.70	22939.59
527.87	22581.49
528.04	22675.11
528.21	23206.41
528.38	22670.43
528.55	23056.62
528.72	22911.50
528.89	23056.62
529.07	22757.03
529.24	23049.60
529.41	23178.33
529.58	22890.44
529.75	23026.19
529.92	23103.43
530.09	23269.61
530.26	23496.64
530.43	23508.34
530.60	23332.80
530.77	23131.51
530.94	23234.50
531.11	23473.23
531.28	23379.61
531.46	23365.57
531.63	23653.45
531.80	23562.17
531.97	23330.46
532.14	23496.64
532.31	23564.51
532.48	23950.70
532.65	23728.35
532.82	23616.01
532.99	23735.37
533.16	23910.91
533.33	23784.52
533.50	24032.62
533.67	23990.49
533.84	24161.35
534.01	24126.24
534.18	24023.26
534.35	24121.56
534.52	23967.09
534.69	24418.81
534.86	24173.05
535.03	23618.35
535.20	24460.94
535.37	24421.15
535.54	24196.46
535.71	24161.35
535.88	24613.07
536.05	24294.76
536.22	24528.81
536.38	24634.14
536.55	24737.12
536.72	24577.97
536.89	24615.41
537.06	24498.39
537.23	24594.35
537.40	24477.32
537.57	25062.46
537.74	24547.54
537.91	25340.98
538.08	24938.41
538.25	24716.06
538.42	25233.32
538.59	25057.78
538.75	24807.34
538.92	24636.48
539.09	24863.51
539.26	25029.69
539.43	25006.28
539.60	25245.02
539.77	25144.38
539.94	25598.44
540.11	25235.66
540.28	25167.78
540.44	25188.85
540.61	24877.55
540.78	25310.55
540.95	25221.61
541.12	25425.24
541.29	25228.63
541.46	25434.60
541.62	25137.35
541.79	25553.97
541.96	25254.38
542.13	25245.02
542.30	25603.12
542.47	25734.19
542.63	25694.40
542.80	25876.96
542.97	25879.30
543.14	26139.10
543.31	25898.03
543.48	25701.42
543.64	26127.40
543.81	26408.26
543.98	26405.92
544.15	26164.85
544.32	26272.51
544.48	26270.17
544.65	25788.02
544.82	26103.99
544.99	25722.49
545.16	26221.02
545.32	26038.46
545.49	26602.53
545.66	26525.29
545.83	26342.73
546.00	26436.35
546.16	26431.67
546.33	26607.21
546.50	26129.74
546.67	26410.60
546.83	26272.51
547.00	26487.84
547.17	26111.02
547.34	26373.16
547.50	26698.49
547.67	26773.39
547.84	26628.27
548.00	26672.74
548.17	26740.62
548.34	26829.56
548.51	26757.00
548.67	26766.37
548.84	26787.43
549.01	26895.10
549.18	26731.26
549.34	26698.49
549.51	26878.71
549.68	26918.50
549.84	26927.86
550.01	26941.91
550.18	26801.47
550.34	27255.54
550.51	26892.76
550.68	27108.08
550.84	26878.71
551.01	26881.05
551.18	26960.63
551.34	26689.13
551.51	27009.78
551.68	27374.91
551.84	27323.41
552.01	27002.76
552.18	27365.54
552.34	27115.11
552.51	27477.89
552.68	27304.69
552.84	27276.60
553.01	27131.49
553.18	27199.37
553.34	27353.84
553.51	27482.57
553.67	27810.25
553.84	27730.67
554.01	28004.51
554.17	27557.47
554.34	27718.96
554.51	27697.90
554.67	27728.33
554.84	27386.61
555.00	27885.14
555.17	27606.62
555.33	27321.07
555.50	27402.99
555.67	27854.72
555.83	27491.93
556.00	27833.65
556.16	27793.86
556.33	27620.66
556.50	27728.33
556.66	27990.47
556.83	27931.95
556.99	28086.43
557.16	28102.81
557.32	28046.64
557.49	28027.92
557.65	27843.01
557.82	27623.00
557.98	27585.55
558.15	28063.02
558.32	28257.29
558.48	28257.29
558.65	28135.58
558.81	28112.17
558.98	28397.72
559.14	28123.88
559.31	28084.09
559.47	28379.00
559.64	28528.79
559.80	28467.94
559.97	28439.85
560.13	28617.73
560.30	28311.12
560.46	28528.79
560.63	28231.54
560.79	28409.42
560.96	28325.16
561.12	28137.92
561.29	28095.79
561.45	28540.49
561.61	28631.77
561.78	28559.22
561.94	28840.08
562.11	28353.25
562.27	28458.57
562.44	28290.06
562.60	28489.00
562.77	28044.30
562.93	28215.16
563.10	28758.16
563.26	28339.21
563.42	28577.94
563.59	28479.64
563.75	28521.77
563.92	28716.03
564.08	28685.61
564.24	28540.49
564.41	28343.89
564.57	28327.50
564.74	28627.09
564.90	28622.41
565.07	28631.77
565.23	28737.10
565.39	28783.91
565.56	28636.45
565.72	28577.94
565.88	28575.60
566.05	28699.65
566.21	28521.77
566.38	28842.42
566.54	28629.43
566.70	28746.46
566.87	29010.94
567.03	28900.94
567.19	28945.41
567.36	29013.28
567.52	28903.28
567.68	28828.38
567.85	28786.25
568.01	28940.72
568.17	29001.58
568.34	29158.39
568.50	28952.43
568.66	29268.40
568.83	28886.89
568.99	29170.10
569.15	28762.84
569.32	28959.45
569.48	28397.72
569.64	29319.89
569.81	28978.17
569.97	29151.37
570.13	29228.61
570.30	29001.58
570.46	28870.51
570.62	28914.98
570.78	28994.56
570.95	28748.80
571.11	29153.71
571.27	28828.38
571.43	28783.91
571.60	28849.44
571.76	29113.92
571.92	28957.11
572.09	29163.08
572.25	29408.83
572.41	29118.60
572.57	29099.88
572.74	29205.20
572.90	29242.65
573.06	28737.10
573.22	29235.63
573.38	29556.28
573.55	29284.78
573.71	29289.46
573.87	29495.43
574.03	29392.45
574.20	29326.91
574.36	29010.94
574.52	29109.24
574.68	29006.26
574.84	29144.35
575.01	28943.06
575.17	29008.60
575.33	29015.62
575.49	29078.82
575.65	29479.05
575.82	29022.64
575.98	28975.83
576.14	29125.63
576.30	29383.09
576.46	29296.49
576.62	29172.44
576.79	29254.36
576.95	29104.56
577.11	29343.30
577.27	29448.62
577.43	29757.57
577.59	29359.68
577.75	29301.17
577.92	29116.26
578.08	29109.24
578.24	29326.91
578.40	29097.54
578.56	28936.04
578.72	29406.49
578.88	29230.95
579.04	29603.10
579.21	29493.09
579.37	29530.54
579.53	29823.11
579.69	28886.89
579.85	29514.16
580.01	29455.64
580.17	29003.92
580.33	29319.89
580.49	29209.89
580.65	29685.01
580.82	29139.67
580.98	29502.45
581.14	29699.06
581.30	29605.44
581.46	29549.26
581.62	29219.25
581.78	29308.19
581.94	29511.81
582.10	29383.09
582.26	29256.70
582.42	29294.14
582.58	29429.90
582.74	29825.45
582.90	29343.30
583.06	29518.84
583.22	29118.60
583.38	29202.86
583.54	29177.12
583.70	29432.24
583.86	29352.66
584.02	29380.74
584.18	29495.43
584.34	29490.75
584.50	29930.77
584.66	29724.80
584.82	29411.17
584.98	29607.78
585.14	29560.97
585.30	29502.45
585.46	29507.13
585.62	29401.81
585.78	29600.76
585.94	29284.78
586.10	29741.19
586.26	29467.34
586.42	29514.16
586.58	29539.90
586.74	29214.57
586.90	29001.58
587.06	29275.42
587.22	29127.97
587.38	29460.32
587.54	29565.65
587.70	29603.10
587.86	29701.40
588.02	29771.61
588.18	29315.21
588.34	29385.43
588.49	29947.15
588.65	29724.80
588.81	29455.64
588.97	29572.67
589.13	29624.16
589.29	29614.80
589.45	29610.12
589.61	29446.28
589.77	30108.65
589.93	30225.68
590.08	29680.33
590.24	30019.71
590.40	29811.40
590.56	29689.70
590.72	29493.09
590.88	29355.00
591.04	29530.54
591.20	29900.34
591.35	29874.60
591.51	30258.45
591.67	29750.55
591.83	29818.42
591.99	29949.50
