SpectraSuite Data File
++++++++++++++++++++++++++++++++++++
Date: Fri Oct 18 13:58:15 GMT-05:00 2013
User: bianchi
Dark Spectrum Present: No
Reference Spectrum Present: No
Number of Sampled Component Spectra: 1
Spectrometers: USB2+H05261
Integration Time (usec): 50000 (USB2+H05261)
Spectra Averaged: 1 (USB2+H05261)
Boxcar Smoothing: 0 (USB2+H05261)
Correct for Electrical Dark: No (USB2+H05261)
Strobe/Lamp Enabled: No (USB2+H05261)
Correct for Detector Non-linearity: No (USB2+H05261)
Correct for Stray Light: No (USB2+H05261)
Number of Pixels in Processed Spectrum: 2048
>>>>>Begin Processed Spectral Data<<<<<
365.73	0.00
365.92	0.00
366.12	0.00
366.32	0.00
366.52	0.00
366.72	0.00
366.91	0.00
367.11	0.00
367.31	0.00
367.51	0.00
367.70	0.00
367.90	0.00
368.10	0.00
368.30	0.00
368.49	0.00
368.69	0.00
368.89	0.00
369.09	0.00
369.28	0.00
369.48	0.00
369.68	0.00
369.87	0.00
370.07	0.00
370.27	0.00
370.47	0.00
370.66	37.45
370.86	107.66
371.06	102.98
371.25	88.94
371.45	86.60
371.65	177.88
371.84	177.88
372.04	128.73
372.24	135.75
372.44	161.50
372.63	222.35
372.83	220.01
373.03	231.71
373.22	194.26
373.42	133.41
373.62	222.35
373.81	248.10
374.01	217.67
374.21	229.37
374.40	234.05
374.60	266.82
374.79	264.48
374.99	238.73
375.19	238.73
375.38	280.86
375.58	248.10
375.78	245.76
375.97	248.10
376.17	252.78
376.37	212.99
376.56	245.76
376.76	243.42
376.95	280.86
377.15	262.14
377.35	252.78
377.54	257.46
377.74	271.50
377.93	297.25
378.13	222.35
378.33	255.12
378.52	264.48
378.72	259.80
378.91	301.93
379.11	367.46
379.31	243.42
379.50	259.80
379.70	241.08
379.89	325.33
380.09	257.46
380.28	229.37
380.48	379.17
380.68	346.40
380.87	243.42
381.07	372.15
381.26	341.72
381.46	348.74
381.65	280.86
381.85	397.89
382.04	383.85
382.24	353.42
382.43	372.15
382.63	376.83
382.83	372.15
383.02	353.42
383.22	334.70
383.41	332.36
383.61	334.70
383.80	369.80
384.00	393.21
384.19	358.10
384.39	372.15
384.58	379.17
384.78	325.33
384.97	451.72
385.17	367.46
385.36	381.51
385.56	395.55
385.75	351.08
385.95	292.57
386.14	360.44
386.34	372.15
386.53	411.93
386.72	320.65
386.92	454.06
387.11	475.13
387.31	421.30
387.50	463.43
387.70	468.11
387.89	430.66
388.09	407.25
388.28	395.55
388.48	416.62
388.67	428.32
388.86	451.72
389.06	430.66
389.25	463.43
389.45	442.36
389.64	435.34
389.84	442.36
390.03	449.38
390.22	475.13
390.42	582.79
390.61	423.64
390.81	510.24
391.00	498.53
391.19	517.26
391.39	456.40
391.58	489.17
391.78	575.77
391.97	601.52
392.16	524.28
392.36	613.22
392.55	540.66
392.75	489.17
392.94	568.75
393.13	456.40
393.33	521.94
393.52	603.86
393.71	533.64
393.91	610.88
394.10	596.84
394.29	599.18
394.49	512.58
394.68	606.20
394.88	578.11
395.07	519.60
395.26	514.92
395.46	585.13
395.65	655.35
395.84	655.35
396.04	645.99
396.23	653.01
396.42	655.35
396.62	650.67
396.81	636.63
397.00	603.86
397.19	697.48
397.39	723.23
397.58	641.31
397.77	622.58
397.97	690.46
398.16	685.78
398.35	704.50
398.55	685.78
398.74	653.01
398.93	662.37
399.12	732.59
399.32	685.78
399.51	692.80
399.70	739.61
399.90	662.37
400.09	706.84
400.28	802.80
400.47	812.17
400.67	671.73
400.86	741.95
401.05	772.38
401.24	730.25
401.44	809.83
401.63	706.84
401.82	837.91
402.01	812.17
402.21	847.27
402.40	812.17
402.59	854.30
402.78	812.17
402.97	840.25
403.17	814.51
403.36	873.02
403.55	835.57
403.74	999.41
403.93	835.57
404.13	912.81
404.32	877.70
404.51	858.98
404.70	966.64
404.89	912.81
405.09	990.05
405.28	945.58
405.47	1022.81
405.66	924.51
405.85	978.34
406.05	973.66
406.24	922.17
406.43	1074.31
406.62	1018.13
406.81	983.02
407.00	1078.99
407.20	931.53
407.39	1025.15
407.58	1057.92
407.77	1088.35
407.96	1107.07
408.15	1034.52
408.34	1022.81
408.54	940.90
408.73	1078.99
408.92	1116.44
409.11	1123.46
409.30	1086.01
409.49	1193.67
409.68	1165.59
409.87	1167.93
410.07	1114.10
410.26	1156.22
410.45	1167.93
410.64	1160.91
410.83	1214.74
411.02	1174.95
411.21	1235.80
411.40	1160.91
411.59	1139.84
411.78	1261.55
411.98	1207.72
412.17	1221.76
412.36	1289.64
412.55	1280.27
412.74	1357.51
412.93	1352.83
413.12	1383.26
413.31	1390.28
413.50	1313.04
413.69	1418.36
413.88	1413.68
414.07	1416.02
414.26	1387.94
414.45	1469.86
414.64	1420.71
414.83	1535.39
415.02	1556.46
415.22	1533.05
415.41	1607.95
415.60	1486.24
415.79	1502.62
415.98	1544.75
416.17	1671.14
416.36	1614.97
416.55	1596.25
416.74	1633.69
416.93	1577.52
417.12	1636.03
417.31	1736.68
417.50	1621.99
417.69	1790.51
417.88	1729.66
418.07	1753.06
418.26	1682.85
418.45	1722.63
418.64	1898.17
418.83	1867.75
419.02	1853.70
419.21	1865.41
419.39	1788.17
419.58	1844.34
419.77	1792.85
419.96	1797.53
420.15	1996.48
420.34	1846.68
420.53	1881.79
420.72	1834.98
420.91	1998.82
421.10	1839.66
421.29	1933.28
421.48	1914.56
421.67	1926.26
421.86	1954.35
422.05	1909.88
422.24	1907.54
422.43	1987.11
422.61	1980.09
422.80	2064.35
422.99	2026.90
423.18	1966.05
423.37	2094.78
423.56	1994.14
423.75	1982.43
423.94	2003.50
424.13	1881.79
424.32	1860.73
424.50	2026.90
424.69	2008.18
424.88	2038.61
425.07	1952.01
425.26	2019.88
425.45	1982.43
425.64	2073.71
425.83	2029.24
426.01	2132.23
426.20	1933.28
426.39	2026.90
426.58	2003.50
426.77	2024.56
426.96	2141.59
427.15	2022.22
427.33	2160.31
427.52	2136.91
427.71	2132.23
427.90	2181.38
428.09	2193.08
428.28	2165.00
428.46	2190.74
428.65	2202.44
428.84	2162.66
429.03	2307.77
429.22	2214.15
429.40	2232.87
429.59	2335.85
429.78	2134.57
429.97	2193.08
430.16	2265.64
430.34	2319.47
430.53	2335.85
430.72	2289.04
430.91	2324.15
431.10	2392.03
431.28	2338.20
431.47	2448.20
431.66	2284.36
431.85	2401.39
432.03	2373.30
432.22	2513.74
432.41	2473.95
432.60	2380.32
432.79	2417.77
432.97	2473.95
433.16	2448.20
433.35	2523.10
433.54	2544.16
433.72	2572.25
433.91	2562.89
434.10	2462.24
434.28	2612.04
434.47	2443.52
434.66	2635.44
434.85	2513.74
435.03	2651.83
435.22	2705.66
435.41	2764.17
435.59	2558.21
435.78	2665.87
435.97	2492.67
436.16	2689.28
436.34	2691.62
436.53	2553.52
436.72	2759.49
436.90	2677.57
437.09	2785.24
437.28	2590.97
437.46	2569.91
437.65	2579.27
437.84	2672.89
438.02	2745.45
438.21	2827.37
438.40	2768.85
438.58	2801.62
438.77	2864.82
438.96	2860.13
439.14	2970.14
439.33	2834.39
439.52	2822.69
439.70	3080.14
439.89	2925.67
440.08	3023.97
440.26	3112.91
440.45	3068.44
440.63	3068.44
440.82	3166.74
441.01	3023.97
441.19	3033.33
441.38	3208.87
441.57	3155.04
441.75	3269.73
441.94	3302.50
442.12	3178.45
442.31	3377.39
442.50	3180.79
442.68	3234.62
442.87	3314.20
443.05	3459.31
443.24	3365.69
443.43	3361.01
443.61	3337.60
443.80	3487.40
443.98	3412.50
444.17	3274.41
444.35	3295.47
444.54	3435.91
444.73	3375.05
444.91	3321.22
445.10	3463.99
445.28	3449.95
445.47	3328.24
445.65	3365.69
445.84	3581.02
446.02	3398.46
446.21	3449.95
446.39	3433.57
446.58	3363.35
446.77	3421.86
446.95	3421.86
447.14	3496.76
447.32	3609.11
447.51	3384.41
447.69	3386.76
447.88	3569.32
448.06	3431.23
448.25	3618.47
448.43	3566.98
448.62	3578.68
448.80	3510.80
448.99	3709.75
449.17	3527.19
449.36	3524.85
449.54	3716.77
449.73	3611.45
449.91	3676.98
450.10	3637.19
450.28	3695.71
450.46	3712.09
450.65	3674.64
450.83	3878.27
451.02	3548.25
451.20	3632.51
451.39	3698.05
451.57	3763.58
451.76	3768.26
451.94	3796.35
452.13	3782.31
452.31	3854.86
452.49	3798.69
452.68	3817.41
452.86	3859.54
453.05	3904.01
453.23	3969.55
453.42	3801.03
453.60	3852.52
453.78	4023.38
453.97	3775.28
454.15	3999.98
454.34	3915.72
454.52	3939.12
454.70	3922.74
454.89	4004.66
455.07	3969.55
455.26	4147.43
455.44	4014.02
455.62	3981.25
455.81	3911.04
455.99	4117.00
456.17	4203.60
456.36	4109.98
456.54	4154.45
456.73	4245.73
456.91	4280.84
457.09	4255.09
457.28	4294.88
457.46	4273.82
457.64	4372.12
457.83	4393.19
458.01	4236.37
458.19	4360.42
458.38	4229.35
458.56	4402.55
458.74	4379.14
458.93	4301.90
459.11	4458.72
459.29	4355.74
459.48	4503.19
459.66	4393.19
459.84	4374.46
460.03	4500.85
460.21	4741.93
460.39	4418.93
460.57	4510.21
460.76	4484.47
460.94	4652.98
461.12	4664.69
461.31	4510.21
461.49	4484.47
461.67	4484.47
461.85	4662.35
462.04	4652.98
462.22	5001.72
462.40	4791.08
462.59	4676.39
462.77	4709.16
462.95	4809.80
463.13	4758.31
463.32	4765.33
463.50	4819.16
463.68	4805.12
463.86	4816.82
464.05	4678.73
464.23	4929.17
464.41	4943.21
464.59	4819.16
464.78	4922.15
464.96	4732.56
465.14	4868.31
465.32	5064.92
465.50	5008.75
465.69	4884.70
465.87	4844.91
466.05	4945.55
466.23	4877.68
466.41	5006.41
466.60	5280.25
466.78	5029.81
466.96	5146.84
467.14	4917.47
467.32	5165.56
467.51	5018.11
467.69	4894.06
467.87	5167.90
468.05	5097.69
468.23	4968.96
468.41	4926.83
468.60	5100.03
468.78	5266.21
468.96	5097.69
469.14	5144.50
469.32	5266.21
469.50	5057.90
469.69	5291.95
469.87	5345.78
470.05	5352.81
470.23	5256.84
470.41	5530.69
470.59	5322.38
470.77	5474.51
470.95	5345.78
471.14	5558.77
471.32	5401.96
471.50	5657.07
471.68	5582.18
471.86	5467.49
472.04	5584.52
472.22	5717.93
472.40	5507.28
472.58	5636.01
472.77	5661.76
472.95	5846.66
473.13	5951.98
473.31	5750.70
473.49	5746.02
473.67	5820.91
473.85	5778.78
474.03	6003.47
474.21	6122.84
474.39	6071.35
474.57	6108.80
474.75	5987.09
474.93	6078.37
475.12	6104.12
475.30	6094.76
475.48	6164.97
475.66	6221.14
475.84	6141.57
476.02	6436.47
476.20	6429.45
476.38	6539.46
476.56	6569.88
476.74	6516.05
476.92	6633.08
477.10	6604.99
477.28	6602.65
477.46	6827.34
477.64	6532.44
477.82	6892.88
478.00	6991.18
478.18	6782.87
478.36	7094.16
478.54	6986.50
478.72	7056.72
478.90	7229.91
479.08	7206.51
479.26	7131.61
479.44	7222.89
479.62	7316.51
479.80	7403.11
479.98	7485.03
480.16	7543.55
480.34	7618.44
480.52	7719.09
480.70	7625.47
480.88	7627.81
481.06	7669.94
481.24	7714.41
481.41	7796.32
481.59	7939.10
481.77	8138.04
481.95	8161.45
482.13	8023.36
482.31	8196.56
482.49	8168.47
482.67	8383.80
482.85	8329.97
483.03	8393.16
483.21	8533.59
483.39	8671.68
483.57	8557.00
483.74	8629.56
483.92	8758.28
484.10	8535.93
484.28	8954.89
484.46	8863.61
484.64	9135.11
484.82	8940.85
485.00	9097.66
485.18	9095.32
485.35	9366.82
485.53	9350.44
485.71	9341.08
485.89	9380.87
486.07	9437.04
486.25	9458.10
486.43	9659.39
486.61	9872.38
486.78	9851.31
486.96	9930.89
487.14	9963.66
487.32	9820.89
487.50	9963.66
487.68	10162.61
487.85	10090.05
488.03	10314.74
488.21	10609.65
488.39	10569.86
488.57	10705.61
488.75	10595.61
488.92	10712.63
489.10	10923.28
489.28	11040.31
489.46	11190.10
489.64	11049.67
489.81	11140.95
489.99	11077.76
490.17	11222.87
490.35	11468.62
490.53	11531.82
490.70	11700.34
490.88	11489.69
491.06	11763.53
491.24	11674.59
491.41	11676.93
491.59	11852.47
491.77	12006.95
491.95	12219.94
492.13	11995.25
492.30	12198.87
492.48	12152.06
492.66	12180.15
492.84	12149.72
493.01	12643.57
493.19	12683.36
493.37	12685.70
493.54	12774.64
493.72	12952.52
493.90	12922.10
494.08	12769.96
494.25	12961.89
494.43	13039.12
494.61	13172.54
494.79	13303.60
494.96	13027.42
495.14	13179.56
495.32	13488.51
495.49	13631.28
495.67	13640.64
495.85	13631.28
496.02	13837.25
496.20	14083.00
496.38	13743.63
496.55	13893.42
496.73	14061.94
496.91	14160.24
497.09	14342.80
497.26	14281.95
497.44	14256.20
497.62	14445.79
497.79	14611.96
497.97	14649.41
498.14	14644.73
498.32	14700.90
498.50	14736.01
498.67	15000.49
498.85	14815.59
499.03	14960.70
499.20	14782.82
499.38	14970.07
499.56	15159.65
499.73	15136.24
499.91	15215.82
500.08	15272.00
500.26	15213.48
500.44	15513.07
500.61	15475.62
500.79	15548.18
500.97	15660.52
501.14	15962.45
501.32	15971.82
501.49	15852.45
501.67	15852.45
501.84	15889.90
502.02	16018.63
502.20	16074.80
502.37	16372.05
502.55	16147.36
502.72	16297.15
502.90	16116.93
503.07	16304.17
503.25	16280.77
503.43	16070.12
503.60	16203.53
503.78	16884.62
503.95	16439.92
504.13	16549.93
504.30	16566.31
504.48	16582.70
504.65	16781.64
504.83	16795.68
505.01	16814.41
505.18	16767.60
505.36	17249.75
505.53	16919.73
505.71	16893.99
505.88	16779.30
506.06	16917.39
506.23	16816.75
506.41	17376.14
506.58	17399.54
506.76	17156.13
506.93	17118.68
507.11	17287.20
507.28	17547.00
507.46	17355.07
507.63	17511.89
507.81	17570.40
507.98	17373.80
508.16	17575.08
508.33	17642.96
508.50	17792.75
508.68	17916.80
508.85	18160.22
509.03	17909.78
509.20	18338.10
509.38	18473.85
509.55	18272.56
509.73	18335.76
509.90	18368.52
510.08	18078.30
510.25	18342.78
510.42	18455.12
510.60	18464.49
510.77	18574.49
510.95	18450.44
511.12	18471.51
511.30	18391.93
511.47	18829.61
511.64	18803.86
511.82	18820.25
511.99	18918.55
512.17	18906.85
512.34	19126.86
512.51	19023.87
512.69	19157.28
512.86	19082.39
513.04	19515.39
513.21	19178.35
513.38	19332.82
513.56	19302.40
513.73	19150.26
513.90	19396.02
514.08	19604.33
514.25	19487.30
514.43	19400.70
514.60	19641.78
514.77	19967.11
514.95	20091.16
515.12	19765.82
515.29	19651.14
515.47	20006.90
515.64	19971.79
515.81	20156.69
515.99	20116.90
516.16	20030.30
516.33	20231.59
516.51	20552.24
516.68	20264.36
516.85	20147.33
517.03	20512.46
517.20	20388.41
517.37	20357.98
517.54	20482.03
517.72	20383.73
517.89	20592.03
518.06	20727.78
518.24	20582.67
518.41	20393.09
518.58	20444.58
518.75	20594.37
518.93	20992.26
519.10	20683.31
519.27	20713.74
519.45	20971.20
519.62	21076.52
519.79	20865.88
519.96	21149.08
520.14	20952.48
520.31	21104.61
520.48	21479.10
520.65	21333.98
520.83	21460.37
521.00	21198.23
521.17	21345.69
521.34	21195.89
521.52	21500.16
521.69	21586.76
521.86	21757.62
522.03	21706.13
522.20	21975.29
522.38	21514.20
522.55	21666.34
522.72	21954.22
522.89	21624.21
523.07	22125.08
523.24	21979.97
523.41	21785.71
523.58	21830.18
523.75	22040.82
523.92	22026.78
524.10	22335.73
524.27	22120.40
524.44	22068.91
524.61	22010.40
524.78	22597.87
524.96	22359.14
525.13	22363.82
525.30	22352.12
525.47	22530.00
525.64	22309.99
525.81	22436.38
525.98	22693.83
526.16	22466.80
526.33	22719.58
526.50	22668.09
526.67	22696.17
526.84	22913.84
527.01	22595.53
527.18	22677.45
527.36	22551.06
527.53	22991.08
527.70	23058.96
527.87	23503.66
528.04	23012.15
528.21	23140.88
528.38	23084.70
528.55	23304.71
528.72	22848.31
528.89	23300.03
529.07	23513.02
529.24	23346.84
529.41	23379.61
529.58	23094.07
529.75	23428.76
529.92	23311.74
530.09	23543.45
530.26	23564.51
530.43	23400.68
530.60	23428.76
530.77	23616.01
530.94	23669.84
531.11	23470.89
531.28	23634.73
531.46	23681.54
531.63	24041.98
531.80	23838.36
531.97	23742.39
532.14	23995.17
532.31	24137.94
532.48	23936.66
532.65	24315.83
532.82	23931.98
532.99	24205.82
533.16	24175.39
533.33	24203.48
533.50	24463.28
533.67	24285.40
533.84	24177.73
534.01	24189.44
534.18	24034.96
534.35	24372.00
534.52	24512.43
534.69	24507.75
534.86	24657.54
535.03	24294.76
535.20	24322.85
535.37	24690.31
535.54	24702.01
535.71	24189.44
535.88	24606.05
536.05	24683.29
536.22	24678.61
536.38	24957.13
536.55	24788.61
536.72	24833.08
536.89	25170.12
537.06	25083.52
537.23	25350.34
537.40	25036.71
537.57	24744.14
537.74	24797.98
537.91	25219.27
538.08	25221.61
538.25	25085.86
538.42	25102.25
538.59	25303.53
538.75	24793.29
538.92	25055.43
539.09	25549.29
539.26	25151.40
539.43	25568.01
539.60	25397.15
539.77	25308.21
539.94	25490.77
540.11	25661.63
540.28	25544.61
540.44	25659.29
540.61	25558.65
540.78	25497.80
540.95	25671.00
541.12	25345.66
541.29	25446.30
541.46	25656.95
541.62	25642.91
541.79	25472.05
541.96	25221.61
542.13	25483.75
542.30	25645.25
542.47	26155.49
542.63	26101.65
542.80	26237.41
542.97	26111.02
543.14	26316.98
543.31	25883.98
543.48	26022.08
543.64	26508.91
543.81	26040.80
543.98	26363.79
544.15	26518.27
544.32	26356.77
544.48	26443.37
544.65	26471.46
544.82	26616.57
544.99	26256.13
545.16	26473.80
545.32	26471.46
545.49	26838.92
545.66	26609.55
545.83	26965.31
546.00	26859.99
546.16	26857.65
546.33	26724.24
546.50	26118.04
546.67	26677.43
546.83	26316.98
547.00	26518.27
547.17	26890.41
547.34	26448.05
547.50	26993.40
547.67	27115.11
547.84	26998.08
548.00	27103.40
548.17	26925.52
548.34	26785.09
548.51	27318.73
548.67	27232.13
548.84	27136.17
549.01	26555.72
549.18	27061.27
549.34	26925.52
549.51	26838.92
549.68	27164.26
549.84	26932.54
550.01	27248.52
550.18	27145.53
550.34	27442.78
550.51	27611.30
550.68	27508.32
550.84	27218.09
551.01	27346.82
551.18	27623.00
551.34	27318.73
551.51	27381.93
551.68	27267.24
551.84	27819.61
552.01	27501.29
552.18	27627.68
552.34	27529.38
552.51	27604.28
552.68	27250.86
552.84	27805.56
553.01	27651.09
553.18	27693.22
553.34	27761.09
553.51	27653.43
553.67	27901.53
553.84	27892.16
554.01	28203.46
554.17	27934.29
554.34	27697.90
554.51	27714.28
554.67	28079.41
554.84	28327.50
555.00	27608.96
555.17	27924.93
555.33	27838.33
555.50	27967.06
555.67	28219.84
555.83	27880.46
556.00	28301.76
556.16	27880.46
556.33	27969.40
556.50	27924.93
556.66	28348.57
556.83	28294.74
556.99	28510.07
557.16	28718.37
557.32	28301.76
557.49	28435.17
557.65	28130.90
557.82	28093.45
557.98	28210.48
558.15	28208.14
558.32	28638.80
558.48	28376.66
558.65	28547.51
558.81	28577.94
558.98	28320.48
559.14	28374.31
559.31	28484.32
559.47	28442.19
559.64	28882.21
559.80	28407.08
559.97	28709.01
560.13	28336.87
560.30	28678.58
560.46	28582.62
560.63	28629.43
560.79	28854.12
560.96	28783.91
561.12	28645.82
561.29	28421.13
561.45	28821.36
561.61	28856.46
561.78	28865.83
561.94	28713.69
562.11	28556.88
562.27	28807.31
562.44	28826.04
562.60	28669.22
562.77	28753.48
562.93	28566.24
563.10	28795.61
563.26	28945.41
563.42	29020.30
563.59	28610.71
563.75	28723.05
563.92	28837.74
564.08	28643.48
564.24	28425.81
564.41	28814.34
564.57	29315.21
564.74	29003.92
564.90	28940.72
565.07	29156.05
565.23	29240.31
565.39	28992.22
565.56	29144.35
565.72	28996.90
565.88	29329.25
566.05	28914.98
566.21	29083.50
566.38	28893.91
566.54	29109.24
566.70	28959.45
566.87	29247.33
567.03	29209.89
567.19	28975.83
567.36	29237.97
567.52	28957.11
567.68	29273.08
567.85	29490.75
568.01	29235.63
568.17	29013.28
568.34	29443.94
568.50	29083.50
568.66	29280.10
568.83	29357.34
568.99	29364.36
569.15	29352.66
569.32	29193.50
569.48	29200.52
569.64	29350.32
569.81	29319.89
569.97	29036.69
570.13	29486.07
570.30	29177.12
570.46	29659.27
570.62	29612.46
570.78	29163.08
570.95	28994.56
571.11	29270.74
571.27	29067.11
571.43	29191.16
571.60	29488.41
571.76	29333.93
571.92	29362.02
572.09	29282.44
572.25	29715.44
572.41	29516.50
572.57	29734.17
572.74	29151.37
572.90	29134.99
573.06	28879.87
573.22	29450.96
573.38	29507.13
573.55	29350.32
573.71	29790.34
573.87	29949.50
574.03	29425.22
574.20	29418.19
574.36	29340.96
574.52	29659.27
574.68	29345.64
574.84	29256.70
575.01	29364.36
575.17	29514.16
575.33	29944.81
575.49	29469.69
575.65	29659.27
575.82	29631.18
575.98	29221.59
576.14	29614.80
576.30	29680.33
576.46	29474.37
576.62	29734.17
576.79	29415.85
576.95	29694.38
577.11	29689.70
577.27	29890.98
577.43	29869.92
577.59	29226.27
577.75	29802.04
577.92	29378.40
578.08	29406.49
578.24	29607.78
578.40	29598.41
578.56	29762.25
578.72	29305.85
578.88	29832.47
579.04	29916.73
579.21	29780.98
579.37	29816.08
579.53	29848.85
579.69	29085.84
579.85	29600.76
580.01	29261.38
580.17	29340.96
580.33	29500.11
580.49	29788.00
580.65	30129.72
580.82	29804.38
580.98	29984.60
581.14	29357.34
581.30	29813.74
581.46	29240.31
581.62	29703.74
581.78	29584.37
581.94	29717.78
582.10	29865.24
582.26	29532.88
582.42	29577.35
582.58	30115.67
582.74	29757.57
582.90	29479.05
583.06	29490.75
583.22	30167.16
583.38	29397.13
583.54	29706.08
583.70	29542.24
583.86	29436.92
584.02	29635.86
584.18	29743.53
584.34	30155.46
584.50	29855.87
584.66	29659.27
584.82	29418.19
584.98	29593.73
585.14	29898.00
585.30	30148.44
585.46	29546.92
585.62	29607.78
585.78	29818.42
585.94	29617.14
586.10	30096.95
586.26	29855.87
586.42	30029.07
586.58	29972.90
586.74	29619.48
586.90	29923.75
587.06	29759.91
587.22	29596.07
587.38	29617.14
587.54	30132.06
587.70	30120.35
587.86	30162.48
588.02	29984.60
588.18	30000.99
588.34	30078.22
588.49	30066.52
588.65	29984.60
588.81	29647.57
588.97	30120.35
589.13	29916.73
589.29	30113.33
589.45	29844.17
589.61	29942.47
589.77	30167.16
589.93	29993.97
590.08	30043.12
590.24	30323.98
590.40	30218.66
590.56	30249.08
590.72	29832.47
590.88	30050.14
591.04	30019.71
591.20	30221.00
591.35	30125.04
591.51	30845.92
591.67	30155.46
591.83	30305.26
591.99	30113.33
