SpectraSuite Data File
++++++++++++++++++++++++++++++++++++
Date: Fri Oct 18 13:58:42 GMT-05:00 2013
User: bianchi
Dark Spectrum Present: No
Reference Spectrum Present: No
Number of Sampled Component Spectra: 1
Spectrometers: USB2+H05261
Integration Time (usec): 50000 (USB2+H05261)
Spectra Averaged: 1 (USB2+H05261)
Boxcar Smoothing: 0 (USB2+H05261)
Correct for Electrical Dark: No (USB2+H05261)
Strobe/Lamp Enabled: No (USB2+H05261)
Correct for Detector Non-linearity: No (USB2+H05261)
Correct for Stray Light: No (USB2+H05261)
Number of Pixels in Processed Spectrum: 2048
>>>>>Begin Processed Spectral Data<<<<<
365.73	0.00
365.92	0.00
366.12	0.00
366.32	0.00
366.52	0.00
366.72	0.00
366.91	0.00
367.11	0.00
367.31	0.00
367.51	0.00
367.70	0.00
367.90	0.00
368.10	0.00
368.30	0.00
368.49	0.00
368.69	0.00
368.89	0.00
369.09	0.00
369.28	0.00
369.48	0.00
369.68	0.00
369.87	0.00
370.07	0.00
370.27	0.00
370.47	0.00
370.66	72.56
370.86	95.96
371.06	135.75
371.25	191.92
371.45	121.71
371.65	133.41
371.84	159.16
372.04	163.84
372.24	187.24
372.44	191.92
372.63	95.96
372.83	234.05
373.03	161.50
373.22	166.18
373.42	187.24
373.62	236.39
373.81	152.13
374.01	210.65
374.21	245.76
374.40	250.44
374.60	271.50
374.79	217.67
374.99	280.86
375.19	264.48
375.38	262.14
375.58	238.73
375.78	266.82
375.97	311.29
376.17	238.73
376.37	362.78
376.56	271.50
376.76	255.12
376.95	262.14
377.15	266.82
377.35	290.23
377.54	269.16
377.74	255.12
377.93	346.40
378.13	367.46
378.33	301.93
378.52	297.25
378.72	276.18
378.91	332.36
379.11	306.61
379.31	210.65
379.50	215.33
379.70	264.48
379.89	304.27
380.09	304.27
380.28	332.36
380.48	308.95
380.68	264.48
380.87	294.91
381.07	351.08
381.26	318.31
381.46	250.44
381.65	372.15
381.85	395.55
382.04	341.72
382.24	367.46
382.43	344.06
382.63	367.46
382.83	280.86
383.02	341.72
383.22	330.02
383.41	327.68
383.61	339.38
383.80	327.68
384.00	383.85
384.19	341.72
384.39	360.44
384.58	383.85
384.78	425.98
384.97	304.27
385.17	257.46
385.36	283.20
385.56	355.76
385.75	360.44
385.95	355.76
386.14	376.83
386.34	393.21
386.53	430.66
386.72	390.87
386.92	421.30
387.11	470.45
387.31	472.79
387.50	376.83
387.70	463.43
387.89	418.96
388.09	390.87
388.28	433.00
388.48	430.66
388.67	447.04
388.86	407.25
389.06	442.36
389.25	383.85
389.45	440.02
389.64	479.81
389.84	472.79
390.03	442.36
390.22	463.43
390.42	470.45
390.61	470.45
390.81	533.64
391.00	606.20
391.19	573.43
391.39	540.66
391.58	498.53
391.78	543.00
391.97	603.86
392.16	531.30
392.36	535.98
392.55	507.90
392.75	524.28
392.94	540.66
393.13	435.34
393.33	545.34
393.52	596.84
393.71	573.43
393.91	645.99
394.10	582.79
394.29	589.82
394.49	554.71
394.68	566.41
394.88	547.69
395.07	613.22
395.26	587.47
395.46	636.63
395.65	568.75
395.84	641.31
396.04	669.39
396.23	664.71
396.42	571.09
396.62	629.60
396.81	746.63
397.00	645.99
397.19	620.24
397.39	638.97
397.58	720.88
397.77	601.52
397.97	671.73
398.16	690.46
398.35	636.63
398.55	615.56
398.74	648.33
398.93	737.27
399.12	636.63
399.32	744.29
399.51	758.33
399.70	720.88
399.90	767.70
400.09	685.78
400.28	739.61
400.47	814.51
400.67	772.38
400.86	692.80
401.05	746.63
401.24	812.17
401.44	816.85
401.63	816.85
401.82	758.33
402.01	727.91
402.21	727.91
402.40	788.76
402.59	840.25
402.78	840.25
402.97	823.87
403.17	926.85
403.36	894.08
403.55	856.64
403.74	814.51
403.93	819.19
404.13	933.87
404.32	912.81
404.51	987.71
404.70	994.73
404.89	929.19
405.09	915.15
405.28	910.47
405.47	922.17
405.66	990.05
405.85	1074.31
406.05	992.39
406.24	1004.09
406.43	1081.33
406.62	992.39
406.81	1006.43
407.00	1001.75
407.20	931.53
407.39	976.00
407.58	999.41
407.77	1036.86
407.96	1048.56
408.15	1008.77
408.34	1027.50
408.54	1018.13
408.73	1027.50
408.92	1081.33
409.11	1104.73
409.30	1132.82
409.49	1144.52
409.68	1165.59
409.87	1090.69
410.07	1186.65
410.26	1111.75
410.45	1146.86
410.64	1142.18
410.83	1088.35
411.02	1067.28
411.21	1184.31
411.40	1214.74
411.59	1254.53
411.78	1284.95
411.98	1165.59
412.17	1273.25
412.36	1362.19
412.55	1291.98
412.74	1359.85
412.93	1329.42
413.12	1282.61
413.31	1481.56
413.50	1460.49
413.69	1397.30
413.88	1458.15
414.07	1406.66
414.26	1437.09
414.45	1465.18
414.64	1437.09
414.83	1488.58
415.02	1509.65
415.22	1528.37
415.41	1462.83
415.60	1565.82
415.79	1657.10
415.98	1626.67
416.17	1671.14
416.36	1643.06
416.55	1579.86
416.74	1572.84
416.93	1668.80
417.12	1743.70
417.31	1575.18
417.50	1671.14
417.69	1799.87
417.88	1750.72
418.07	1678.16
418.26	1778.81
418.45	1701.57
418.64	1708.59
418.83	1778.81
419.02	1727.32
419.21	1914.56
419.39	1788.17
419.58	1856.04
419.77	1671.14
419.96	1809.23
420.15	1760.08
420.34	1844.34
420.53	1802.21
420.72	1863.07
420.91	1872.43
421.10	1921.58
421.29	1919.24
421.48	1877.11
421.67	1867.75
421.86	1916.90
422.05	1902.86
422.24	1933.28
422.43	1987.11
422.61	1926.26
422.80	1888.81
422.99	2073.71
423.18	1984.77
423.37	1959.03
423.56	2043.29
423.75	1900.52
423.94	1919.24
424.13	1912.22
424.32	1942.64
424.50	2026.90
424.69	1991.80
424.88	2031.58
425.07	1935.62
425.26	2050.31
425.45	1954.35
425.64	1987.11
425.83	1973.07
426.01	1989.46
426.20	2033.93
426.39	2040.95
426.58	1989.46
426.77	2031.58
426.96	2069.03
427.15	1994.14
427.33	2165.00
427.52	2062.01
427.71	2169.68
427.90	2080.74
428.09	2122.87
428.28	2181.38
428.46	2167.34
428.65	2165.00
428.84	2169.68
429.03	2317.13
429.22	2277.34
429.40	2291.38
429.59	2193.08
429.78	2197.76
429.97	2101.80
430.16	2125.21
430.34	2260.96
430.53	2326.49
430.72	2317.13
430.91	2122.87
431.10	2150.95
431.28	2459.90
431.47	2277.34
431.66	2443.52
431.85	2328.83
432.03	2312.45
432.22	2429.48
432.41	2399.05
432.60	2471.61
432.79	2401.39
432.97	2424.80
433.16	2579.27
433.35	2525.44
433.54	2518.42
433.72	2499.69
433.91	2546.50
434.10	2525.44
434.28	2485.65
434.47	2567.57
434.66	2637.78
434.85	2569.91
435.03	2466.92
435.22	2595.65
435.41	2729.06
435.59	2576.93
435.78	2583.95
435.97	2441.18
436.16	2590.97
436.34	2586.29
436.53	2626.08
436.72	2670.55
436.90	2607.36
437.09	2803.96
437.28	2635.44
437.46	2813.32
437.65	2796.94
437.84	2829.71
438.02	2712.68
438.21	2757.15
438.40	2801.62
438.58	2843.75
438.77	2909.29
438.96	2965.46
439.14	2902.26
439.33	2951.42
439.52	3021.63
439.70	2918.65
439.89	2979.50
440.08	3045.04
440.26	2953.76
440.45	2995.89
440.63	3119.93
440.82	3225.26
441.01	3021.63
441.19	3155.04
441.38	3171.43
441.57	3194.83
441.75	3211.22
441.94	3173.77
442.12	3159.72
442.31	3323.56
442.50	3236.96
442.68	3056.74
442.87	3332.92
443.05	3274.41
443.24	3421.86
443.43	3335.26
443.61	3220.58
443.80	3604.42
443.98	3274.41
444.17	3197.17
444.35	3419.52
444.54	3501.44
444.73	3248.66
444.91	3463.99
445.10	3375.05
445.28	3513.14
445.47	3412.50
445.65	3403.14
445.84	3403.14
446.02	3480.38
446.21	3346.97
446.39	3384.41
446.58	3517.83
446.77	3435.91
446.95	3351.65
447.14	3466.33
447.32	3559.95
447.51	3424.20
447.69	3548.25
447.88	3499.10
448.06	3538.89
448.25	3382.07
448.43	3581.02
448.62	3386.76
448.80	3503.78
448.99	3517.83
449.17	3564.64
449.36	3583.36
449.54	3641.87
449.73	3522.51
449.91	3662.94
450.10	3667.62
450.28	3684.00
450.46	3695.71
450.65	3754.22
450.83	3679.32
451.02	3534.21
451.20	3700.39
451.39	3838.48
451.57	3852.52
451.76	3831.46
451.94	3768.26
452.13	3911.04
452.31	3953.16
452.49	3744.86
452.68	3817.41
452.86	3850.18
453.05	3899.33
453.23	4002.32
453.42	3911.04
453.60	3861.88
453.78	3904.01
453.97	3882.95
454.15	3988.27
454.34	3978.91
454.52	3983.59
454.70	3978.91
454.89	4086.58
455.07	3985.93
455.26	4086.58
455.44	4156.79
455.62	4014.02
455.81	4102.96
455.99	4093.60
456.17	4091.26
456.36	4210.62
456.54	4243.39
456.73	4117.00
456.91	4191.90
457.09	4341.69
457.28	4376.80
457.46	4117.00
457.64	4440.00
457.83	4306.59
458.01	4156.79
458.19	4367.44
458.38	4341.69
458.56	4395.53
458.74	4332.33
458.93	4318.29
459.11	4236.37
459.29	4418.93
459.48	4435.32
459.66	4496.17
459.84	4601.49
460.03	4414.25
460.21	4526.60
460.39	4524.26
460.57	4486.81
460.76	4554.68
460.94	4685.75
461.12	4650.64
461.31	4706.82
461.49	4517.23
461.67	4505.53
461.85	4613.20
462.04	4629.58
462.22	4685.75
462.40	4744.27
462.59	4685.75
462.77	4685.75
462.95	4699.80
463.13	4683.41
463.32	4793.42
463.50	4952.57
463.68	4550.00
463.86	4720.86
464.05	4802.78
464.23	4788.74
464.41	4875.34
464.59	4887.04
464.78	4819.16
464.96	4882.36
465.14	4819.16
465.32	4945.55
465.50	5088.32
465.69	4933.85
465.87	4851.93
466.05	4919.81
466.23	4975.98
466.41	5008.75
466.60	5158.54
466.78	5097.69
466.96	5039.17
467.14	5022.79
467.32	5114.07
467.51	5008.75
467.69	5041.51
467.87	5195.99
468.05	5104.71
468.23	5100.03
468.41	5170.24
468.60	5041.51
468.78	5242.80
468.96	5179.61
469.14	5245.14
469.32	5287.27
469.50	5114.07
469.69	5444.09
469.87	5310.68
470.05	5310.68
470.23	5432.38
470.41	5322.38
470.59	5462.81
470.77	5460.47
470.95	5530.69
471.14	5619.63
471.32	5308.34
471.50	5549.41
471.68	5549.41
471.86	5664.10
472.04	5556.43
472.22	5701.54
472.40	5528.35
472.58	5692.18
472.77	5631.33
472.95	5799.85
473.13	5797.51
473.31	5778.78
473.49	5668.78
473.67	5792.83
473.85	5942.62
474.03	5877.09
474.21	5818.57
474.39	5823.25
474.57	6115.82
474.75	6038.58
474.93	6193.06
475.12	6300.72
475.30	6069.01
475.48	5966.03
475.66	6319.45
475.84	6319.45
476.02	6225.82
476.20	6387.32
476.38	6572.22
476.56	6539.46
476.74	6401.37
476.92	6602.65
477.10	6403.71
477.28	6677.55
477.46	6583.93
477.64	6586.27
477.82	6637.76
478.00	6857.77
478.18	6846.07
478.36	6920.96
478.54	6946.71
478.72	6885.86
478.90	6932.67
479.08	7131.61
479.26	7295.45
479.44	7407.80
479.62	7262.68
479.80	7342.26
479.98	7314.17
480.16	7475.67
480.34	7449.93
480.52	7449.93
480.70	7648.87
480.88	7482.69
481.06	7691.00
481.24	7726.11
481.41	7674.62
481.59	7892.29
481.77	7957.82
481.95	7826.75
482.13	7939.10
482.31	8051.44
482.49	8191.88
482.67	8126.34
482.85	8112.30
483.03	8468.06
483.21	8634.24
483.39	8746.58
483.57	8641.26
483.74	8678.71
483.92	8868.29
484.10	8678.71
484.28	9004.04
484.46	9071.92
484.64	9247.46
484.82	8788.71
485.00	8982.98
485.18	9083.62
485.35	9312.99
485.53	9273.20
485.71	9301.29
485.89	9750.67
486.07	9441.72
486.25	9453.42
486.43	9399.59
486.61	9729.61
486.78	9778.76
486.96	9994.09
487.14	10099.41
487.32	9877.06
487.50	9984.73
487.68	10078.35
487.85	10160.27
488.03	10303.04
488.21	10644.76
488.39	10719.65
488.57	10597.95
488.75	10752.42
488.92	10719.65
489.10	10740.72
489.28	10829.66
489.46	11145.63
489.64	11112.86
489.81	11419.47
489.99	11059.03
490.17	11323.51
490.35	11475.65
490.53	11412.45
490.70	11808.00
490.88	11543.52
491.06	11569.27
491.24	11522.46
491.41	11707.36
491.59	11906.31
491.77	11819.71
491.95	11918.01
492.13	11936.73
492.30	11974.18
492.48	12161.42
492.66	12524.21
492.84	12372.07
493.01	12334.62
493.19	12498.46
493.37	12638.89
493.54	12500.80
493.72	12699.75
493.90	12802.73
494.08	12769.96
494.25	12938.48
494.43	12886.99
494.61	13104.66
494.79	13191.26
494.96	13083.59
495.14	13324.67
495.32	13825.54
495.49	13462.76
495.67	13516.59
495.85	13682.77
496.02	13717.88
496.20	13748.31
496.38	13790.44
496.55	13729.58
496.73	14139.18
496.91	14178.97
497.09	14244.50
497.26	14068.96
497.44	14380.25
497.62	14286.63
497.79	14438.76
497.97	14558.13
498.14	14593.24
498.32	14778.14
498.50	14747.72
498.67	14771.12
498.85	14665.80
499.03	14890.49
499.20	15061.35
499.38	15021.56
499.56	14897.51
499.73	15002.83
499.91	15421.79
500.08	15393.70
500.26	15377.32
500.44	15410.09
500.61	15431.15
500.79	15468.60
500.97	15747.12
501.14	15496.69
501.32	15772.87
501.49	15510.73
501.67	15805.64
501.84	15733.08
502.02	15981.18
502.20	16027.99
502.37	16013.95
502.55	15976.50
502.72	16299.49
502.90	16070.12
503.07	16051.39
503.25	16100.55
503.43	16212.89
503.60	16308.85
503.78	16285.45
503.95	16549.93
504.13	16681.00
504.30	16343.96
504.48	16573.33
504.65	16805.05
504.83	16924.41
505.01	17130.38
505.18	16898.67
505.36	17247.41
505.53	16744.19
505.71	17053.14
505.88	17071.87
506.06	16905.69
506.23	17334.01
506.41	16987.61
506.58	17462.74
506.76	17137.40
506.93	17263.79
507.11	17380.82
507.28	17315.28
507.46	17771.69
507.63	17338.69
507.81	17949.57
507.98	17987.02
508.16	17518.91
508.33	18015.10
508.50	17661.68
508.68	18024.47
508.85	18061.91
509.03	17846.58
509.20	17963.61
509.38	18417.68
509.55	18534.70
509.73	18359.16
509.90	18207.03
510.08	18202.35
510.25	18504.28
510.42	18214.05
510.60	18480.87
510.77	18590.88
510.95	18757.05
511.12	18427.04
511.30	18537.04
511.47	18590.88
511.64	18651.73
511.82	18647.05
511.99	19066.00
512.17	19080.05
512.34	18813.23
512.51	19356.23
512.69	19405.38
512.86	19080.05
513.04	19335.17
513.21	19077.71
513.38	19555.18
513.56	18934.93
513.73	19049.62
513.90	19398.36
514.08	19377.30
514.25	19506.02
514.43	19704.97
514.60	19747.10
514.77	19882.85
514.95	19845.40
515.12	19475.60
515.29	19573.90
515.47	20018.60
515.64	19894.55
515.81	19817.32
515.99	19936.68
516.16	20465.64
516.33	20184.78
516.51	20381.38
516.68	20156.69
516.85	20219.89
517.03	20238.61
517.20	20264.36
517.37	20456.28
517.54	20369.68
517.72	20407.13
517.89	20589.69
518.06	20669.27
518.24	20720.76
518.41	20758.21
518.58	20610.76
518.75	20648.21
518.93	20879.92
519.10	20662.25
519.27	20739.49
519.45	20884.60
519.62	20720.76
519.79	21018.01
519.96	20917.37
520.14	21092.91
520.31	20978.22
520.48	21125.68
520.65	21146.74
520.83	21120.99
521.00	21109.29
521.17	21146.74
521.34	21415.90
521.52	21565.70
521.69	21399.52
521.86	21451.01
522.03	21715.49
522.20	21837.20
522.38	21909.75
522.55	21610.17
522.72	21673.36
522.89	21841.88
523.07	22148.49
523.24	21839.54
523.41	22223.39
523.58	21776.34
523.75	22125.08
523.92	21825.50
524.10	21884.01
524.27	22040.82
524.44	22300.62
524.61	22368.50
524.78	22382.54
524.96	22471.48
525.13	22214.02
525.30	22396.59
525.47	22473.82
525.64	22419.99
525.81	22602.55
525.98	22621.28
526.16	22387.22
526.33	22537.02
526.50	22742.99
526.67	22548.72
526.84	22712.56
527.01	22703.20
527.18	23049.60
527.36	22998.10
527.53	22892.78
527.70	23211.09
527.87	23285.99
528.04	22960.66
528.21	23201.73
528.38	23108.11
528.55	23311.74
528.72	23206.41
528.89	23440.47
529.07	23239.18
529.24	22885.76
529.41	23564.51
529.58	23276.63
529.75	23400.68
529.92	23314.08
530.09	22965.34
530.26	23557.49
530.43	23288.33
530.60	23564.51
530.77	23344.50
530.94	23721.33
531.11	23784.52
531.28	23541.11
531.46	23726.01
531.63	23637.07
531.80	23791.55
531.97	23791.55
532.14	24081.77
532.31	24112.20
532.48	24016.24
532.65	24315.83
532.82	23852.40
532.99	23634.73
533.16	23974.11
533.33	23995.17
533.50	24243.27
533.67	24222.20
533.84	24058.37
534.01	24350.93
534.18	24119.22
534.35	24416.47
534.52	24474.98
534.69	24376.68
534.86	24416.47
535.03	24198.80
535.20	24489.03
535.37	24367.32
535.54	24648.18
535.71	24582.65
535.88	24575.62
536.05	24283.06
536.22	25158.42
536.38	24877.55
536.55	24992.24
536.72	24950.11
536.89	24898.62
537.06	24610.73
537.23	24982.88
537.40	24982.88
537.57	24844.79
537.74	25116.29
537.91	25465.03
538.08	25102.25
538.25	25109.27
538.42	25050.75
538.59	25340.98
538.75	24779.25
538.92	25500.14
539.09	25333.96
539.26	25291.83
539.43	25523.54
539.60	25413.54
539.77	25268.42
539.94	25387.79
540.11	25481.41
540.28	25523.54
540.44	25284.81
540.61	25514.18
540.78	25429.92
540.95	25401.83
541.12	25394.81
541.29	25462.69
541.46	25617.16
541.62	25539.93
541.79	25544.61
541.96	25240.34
542.13	25652.27
542.30	25523.54
542.47	25909.73
542.63	25888.67
542.80	25818.45
542.97	26349.75
543.14	26160.17
543.31	25902.71
543.48	26239.75
543.64	26426.99
543.81	26101.65
543.98	26157.83
544.15	26361.45
544.32	26202.30
544.48	26656.36
544.65	26452.73
544.82	26302.94
544.99	26017.40
545.16	26291.24
545.32	26129.74
545.49	26504.23
545.66	26590.83
545.83	26705.51
546.00	26719.56
546.16	26487.84
546.33	26419.97
546.50	26094.63
546.67	26586.15
546.83	26424.65
547.00	26618.91
547.17	26478.48
547.34	26506.57
547.50	26939.57
547.67	26852.97
547.84	27063.61
548.00	27384.27
548.17	27243.84
548.34	26789.77
548.51	27009.78
548.67	27152.55
548.84	27096.38
549.01	26906.80
549.18	26939.57
549.34	26782.75
549.51	27140.85
549.68	26810.84
549.84	27140.85
550.01	27290.65
550.18	27040.21
550.34	27484.91
550.51	27454.48
550.68	26953.61
550.84	27363.20
551.01	27398.31
551.18	26686.79
551.34	26937.23
551.51	27117.45
551.68	27346.82
551.84	27601.94
552.01	27857.06
552.18	27555.13
552.34	27178.30
552.51	27742.37
552.68	27330.44
552.84	27461.51
553.01	27646.41
553.18	27513.00
553.34	27793.86
553.51	27402.99
553.67	28070.04
553.84	27880.46
554.01	28116.86
554.17	28151.96
554.34	27843.01
554.51	27864.08
554.67	27950.68
554.84	28051.32
555.00	28109.83
555.17	28123.88
555.33	28056.00
555.50	27688.54
555.67	28013.87
555.83	27936.63
556.00	28133.24
556.16	28252.61
556.33	28348.57
556.50	27718.96
556.66	28144.94
556.83	28006.85
556.99	28271.33
557.16	28404.74
557.32	28460.91
557.49	28608.37
557.65	28208.14
557.82	28247.93
557.98	28121.54
558.15	28360.27
558.32	28404.74
558.48	28638.80
558.65	28318.14
558.81	28388.36
558.98	28297.08
559.14	28283.03
559.31	28540.49
559.47	27992.81
559.64	28470.28
559.80	28599.01
559.97	28648.16
560.13	28243.24
560.30	28538.15
560.46	28339.21
560.63	28659.86
560.79	28858.81
560.96	28694.97
561.12	28666.88
561.29	28603.69
561.45	28833.06
561.61	28650.50
561.78	28458.57
561.94	28776.89
562.11	28872.85
562.27	28727.74
562.44	28844.76
562.60	28938.38
562.77	28514.75
562.93	28577.94
563.10	28900.94
563.26	28919.66
563.42	28959.45
563.59	28870.51
563.75	28701.99
563.92	29205.20
564.08	28542.83
564.24	28800.29
564.41	28797.95
564.57	29039.03
564.74	28961.79
564.90	28914.98
565.07	28847.10
565.23	28596.67
565.39	28442.19
565.56	29284.78
565.72	29008.60
565.88	29151.37
566.05	28940.72
566.21	28896.25
566.38	29277.76
566.54	29181.80
566.70	29364.36
566.87	29350.32
567.03	29233.29
567.19	29462.66
567.36	29228.61
567.52	29062.43
567.68	29411.17
567.85	28945.41
568.01	29322.23
568.17	29333.93
568.34	29013.28
568.50	29191.16
568.66	29408.83
568.83	29188.82
568.99	29331.59
569.15	29212.23
569.32	29275.42
569.48	28631.77
569.64	29261.38
569.81	29209.89
569.97	29336.27
570.13	29315.21
570.30	29685.01
570.46	29352.66
570.62	29078.82
570.78	29209.89
570.95	28610.71
571.11	29291.80
571.27	29017.96
571.43	29149.03
571.60	29188.82
571.76	29373.72
571.92	29397.13
572.09	29371.38
572.25	29202.86
572.41	29584.37
572.57	29425.22
572.74	29565.65
572.90	29090.52
573.06	29404.15
573.22	29277.76
573.38	29270.74
573.55	28912.64
573.71	29713.10
573.87	29834.81
574.03	29472.03
574.20	29319.89
574.36	29474.37
574.52	29460.32
574.68	29415.85
574.84	28968.81
575.01	29766.93
575.17	29509.47
575.33	29425.22
575.49	29834.81
575.65	29060.09
575.82	29701.40
575.98	29551.60
576.14	29563.31
576.30	29235.63
576.46	29266.06
576.62	29113.92
576.79	29324.57
576.95	29621.82
577.11	29764.59
577.27	29549.26
577.43	29809.06
577.59	29467.34
577.75	29336.27
577.92	29319.89
578.08	29156.05
578.24	29467.34
578.40	29376.06
578.56	29612.46
578.72	29532.88
578.88	29816.08
579.04	29694.38
579.21	30038.44
579.37	29759.91
579.53	29895.66
579.69	29516.50
579.85	29097.54
580.01	29692.04
580.17	29247.33
580.33	29404.15
580.49	29762.25
580.65	29631.18
580.82	29755.23
580.98	29635.86
581.14	29883.96
581.30	29788.00
581.46	29277.76
581.62	29006.26
581.78	29689.70
581.94	29521.18
582.10	29549.26
582.26	29399.47
582.42	29457.98
582.58	29347.98
582.74	29785.66
582.90	29633.52
583.06	29750.55
583.22	29727.14
583.38	29626.50
583.54	29923.75
583.70	29378.40
583.86	29724.80
584.02	29266.06
584.18	29663.95
584.34	29860.55
584.50	30162.48
584.66	29481.39
584.82	29935.45
584.98	29673.31
585.14	29516.50
585.30	29198.18
585.46	29687.36
585.62	29553.94
585.78	29734.17
585.94	29329.25
586.10	29535.22
586.26	30075.88
586.42	30258.45
586.58	30045.46
586.74	29549.26
586.90	29902.68
587.06	28961.79
587.22	29689.70
587.38	29659.27
587.54	29701.40
587.70	30113.33
587.86	29741.19
588.02	30024.39
588.18	30188.23
588.34	29607.78
588.49	29797.36
588.65	29493.09
588.81	29830.13
588.97	29813.74
589.13	29570.33
589.29	29544.58
589.45	29668.63
589.61	30298.23
589.77	30377.81
589.93	30216.32
590.08	29876.94
590.24	29881.62
590.40	29977.58
590.56	30101.63
590.72	29898.00
590.88	29675.65
591.04	29958.86
591.20	29799.70
591.35	30047.80
591.51	30745.28
591.67	30628.25
591.83	30567.40
591.99	30038.44
