SpectraSuite Data File
++++++++++++++++++++++++++++++++++++
Date: Fri Oct 18 13:57:58 GMT-05:00 2013
User: bianchi
Dark Spectrum Present: No
Reference Spectrum Present: No
Number of Sampled Component Spectra: 1
Spectrometers: USB2+H05261
Integration Time (usec): 50000 (USB2+H05261)
Spectra Averaged: 1 (USB2+H05261)
Boxcar Smoothing: 0 (USB2+H05261)
Correct for Electrical Dark: No (USB2+H05261)
Strobe/Lamp Enabled: No (USB2+H05261)
Correct for Detector Non-linearity: No (USB2+H05261)
Correct for Stray Light: No (USB2+H05261)
Number of Pixels in Processed Spectrum: 2048
>>>>>Begin Processed Spectral Data<<<<<
365.73	0.00
365.92	0.00
366.12	0.00
366.32	0.00
366.52	0.00
366.72	0.00
366.91	0.00
367.11	0.00
367.31	0.00
367.51	0.00
367.70	0.00
367.90	0.00
368.10	0.00
368.30	0.00
368.49	0.00
368.69	0.00
368.89	0.00
369.09	0.00
369.28	0.00
369.48	0.00
369.68	0.00
369.87	0.00
370.07	0.00
370.27	0.00
370.47	0.00
370.66	4.68
370.86	117.03
371.06	86.60
371.25	159.16
371.45	131.07
371.65	142.77
371.84	212.99
372.04	147.45
372.24	194.26
372.44	205.97
372.63	196.60
372.83	166.18
373.03	168.52
373.22	212.99
373.42	222.35
373.62	205.97
373.81	212.99
374.01	269.16
374.21	262.14
374.40	220.01
374.60	229.37
374.79	205.97
374.99	266.82
375.19	259.80
375.38	278.52
375.58	294.91
375.78	266.82
375.97	220.01
376.17	330.02
376.37	229.37
376.56	250.44
376.76	301.93
376.95	308.95
377.15	276.18
377.35	245.76
377.54	241.08
377.74	184.90
377.93	215.33
378.13	222.35
378.33	332.36
378.52	273.84
378.72	264.48
378.91	311.29
379.11	231.71
379.31	390.87
379.50	264.48
379.70	365.12
379.89	353.42
380.09	315.97
380.28	257.46
380.48	259.80
380.68	332.36
380.87	318.31
381.07	337.04
381.26	360.44
381.46	266.82
381.65	306.61
381.85	332.36
382.04	285.55
382.24	330.02
382.43	379.17
382.63	353.42
382.83	444.70
383.02	407.25
383.22	313.63
383.41	346.40
383.61	355.76
383.80	372.15
384.00	355.76
384.19	400.23
384.39	379.17
384.58	369.80
384.78	325.33
384.97	339.38
385.17	442.36
385.36	341.72
385.56	353.42
385.75	346.40
385.95	465.77
386.14	379.17
386.34	390.87
386.53	409.59
386.72	407.25
386.92	510.24
387.11	433.00
387.31	465.77
387.50	498.53
387.70	468.11
387.89	397.89
388.09	507.90
388.28	393.21
388.48	468.11
388.67	496.19
388.86	447.04
389.06	381.51
389.25	444.70
389.45	468.11
389.64	503.22
389.84	472.79
390.03	489.17
390.22	552.37
390.42	491.51
390.61	458.74
390.81	526.62
391.00	477.47
391.19	521.94
391.39	526.62
391.58	524.28
391.78	465.77
391.97	505.56
392.16	458.74
392.36	554.71
392.55	606.20
392.75	603.86
392.94	517.26
393.13	519.60
393.33	575.77
393.52	547.69
393.71	587.47
393.91	552.37
394.10	578.11
394.29	622.58
394.49	575.77
394.68	629.60
394.88	688.12
395.07	608.54
395.26	568.75
395.46	636.63
395.65	667.05
395.84	657.69
396.04	648.33
396.23	702.16
396.42	648.33
396.62	585.13
396.81	645.99
397.00	589.82
397.19	653.01
397.39	676.41
397.58	660.03
397.77	685.78
397.97	671.73
398.16	655.35
398.35	737.27
398.55	741.95
398.74	730.25
398.93	786.42
399.12	767.70
399.32	793.44
399.51	748.97
399.70	695.14
399.90	739.61
400.09	755.99
400.28	748.97
400.47	793.44
400.67	837.91
400.86	898.77
401.05	842.59
401.24	802.80
401.44	807.48
401.63	844.93
401.82	830.89
402.01	870.68
402.21	875.36
402.40	880.04
402.59	772.38
402.78	924.51
402.97	823.87
403.17	938.55
403.36	856.64
403.55	978.34
403.74	912.81
403.93	940.90
404.13	968.98
404.32	910.47
404.51	924.51
404.70	968.98
404.89	950.26
405.09	1048.56
405.28	1022.81
405.47	968.98
405.66	964.30
405.85	952.60
406.05	983.02
406.24	985.37
406.43	1102.39
406.62	1067.28
406.81	1111.75
407.00	1022.81
407.20	1004.09
407.39	1036.86
407.58	1107.07
407.77	1027.50
407.96	1095.37
408.15	1163.25
408.34	1036.86
408.54	1163.25
408.73	1217.08
408.92	1083.67
409.11	1153.88
409.30	1125.80
409.49	1172.61
409.68	1109.41
409.87	1205.38
410.07	1287.29
410.26	1219.42
410.45	1221.76
410.64	1252.19
410.83	1280.27
411.02	1144.52
411.21	1282.61
411.40	1303.68
411.59	1362.19
411.78	1263.89
411.98	1275.59
412.17	1310.70
412.36	1313.04
412.55	1397.30
412.74	1373.89
412.93	1416.02
413.12	1380.92
413.31	1390.28
413.50	1352.83
413.69	1336.45
413.88	1364.53
414.07	1394.96
414.26	1455.81
414.45	1427.73
414.64	1418.36
414.83	1474.54
415.02	1621.99
415.22	1596.25
415.41	1554.12
415.60	1502.62
415.79	1621.99
415.98	1664.12
416.17	1673.48
416.36	1612.63
416.55	1636.03
416.74	1540.07
416.93	1701.57
417.12	1633.69
417.31	1647.74
417.50	1603.27
417.69	1795.19
417.88	1811.57
418.07	1757.74
418.26	1792.85
418.45	1827.96
418.64	1771.79
418.83	1940.30
419.02	1823.28
419.21	1879.45
419.39	1785.83
419.58	1746.04
419.77	1783.49
419.96	1905.20
420.15	1942.64
420.34	1879.45
420.53	1977.75
420.72	1930.94
420.91	1968.39
421.10	1888.81
421.29	2036.27
421.48	1858.39
421.67	2010.52
421.86	2071.37
422.05	2106.48
422.24	1966.05
422.43	2078.40
422.61	1998.82
422.80	2066.69
422.99	2040.95
423.18	2022.22
423.37	2038.61
423.56	2097.12
423.75	2057.33
423.94	2019.88
424.13	1891.15
424.32	1930.94
424.50	2080.74
424.69	2235.21
424.88	2136.91
425.07	2085.42
425.26	2204.78
425.45	2076.06
425.64	2043.29
425.83	2113.50
426.01	2092.44
426.20	2019.88
426.39	2111.16
426.58	2150.95
426.77	2043.29
426.96	2183.72
427.15	2183.72
427.33	2216.49
427.52	2214.15
427.71	2162.66
427.90	2167.34
428.09	2293.72
428.28	2237.55
428.46	2272.66
428.65	2319.47
428.84	2242.23
429.03	2321.81
429.22	2242.23
429.40	2370.96
429.59	2312.45
429.78	2235.21
429.97	2195.42
430.16	2324.15
430.34	2347.56
430.53	2324.15
430.72	2380.32
430.91	2406.07
431.10	2448.20
431.28	2480.97
431.47	2450.54
431.66	2485.65
431.85	2452.88
432.03	2516.08
432.22	2558.21
432.41	2415.43
432.60	2450.54
432.79	2375.64
432.97	2394.37
433.16	2422.45
433.35	2558.21
433.54	2509.05
433.72	2560.55
433.91	2555.86
434.10	2574.59
434.28	2565.23
434.47	2729.06
434.66	2621.40
434.85	2635.44
435.03	2647.15
435.22	2576.93
435.41	2841.41
435.59	2700.98
435.78	2899.92
435.97	2731.41
436.16	2670.55
436.34	2752.47
436.53	2778.22
436.72	2876.52
436.90	2818.00
437.09	2757.15
437.28	2738.43
437.46	2813.32
437.65	2733.75
437.84	2827.37
438.02	2911.63
438.21	2913.97
438.40	2801.62
438.58	2965.46
438.77	3052.06
438.96	2960.78
439.14	2970.14
439.33	3105.89
439.52	2972.48
439.70	3143.34
439.89	3157.38
440.08	2986.52
440.26	3199.51
440.45	3119.93
440.63	3084.83
440.82	3094.19
441.01	3101.21
441.19	3190.15
441.38	3384.41
441.57	3262.71
441.75	3311.86
441.94	3375.05
442.12	3239.30
442.31	3258.03
442.50	3449.95
442.68	3246.32
442.87	3421.86
443.05	3456.97
443.24	3475.70
443.43	3428.88
443.61	3419.52
443.80	3569.32
443.98	3398.46
444.17	3363.35
444.35	3449.95
444.54	3515.48
444.73	3492.08
444.91	3499.10
445.10	3499.10
445.28	3581.02
445.47	3398.46
445.65	3431.23
445.84	3590.38
446.02	3463.99
446.21	3531.87
446.39	3435.91
446.58	3616.13
446.77	3723.79
446.95	3485.06
447.14	3487.40
447.32	3641.87
447.51	3536.55
447.69	3442.93
447.88	3744.86
448.06	3454.63
448.25	3515.48
448.43	3599.74
448.62	3590.38
448.80	3559.95
448.99	3679.32
449.17	3644.21
449.36	3702.73
449.54	3882.95
449.73	3681.66
449.91	3712.09
450.10	3826.78
450.28	3896.99
450.46	3906.35
450.65	3812.73
450.83	3836.14
451.02	3896.99
451.20	3999.98
451.39	3796.35
451.57	3990.61
451.76	3936.78
451.94	3864.22
452.13	3906.35
452.31	3777.62
452.49	4002.32
452.68	3957.85
452.86	4074.87
453.05	3878.27
453.23	4018.70
453.42	4035.08
453.60	3918.06
453.78	3988.27
453.97	3896.99
454.15	4030.40
454.34	4109.98
454.52	4128.70
454.70	4124.02
454.89	4198.92
455.07	4112.32
455.26	4037.42
455.44	4278.50
455.62	4276.16
455.81	4168.49
455.99	4156.79
456.17	4355.74
456.36	4262.12
456.54	4205.94
456.73	4285.52
456.91	4374.46
457.09	4496.17
457.28	4395.53
457.46	4341.69
457.64	4470.42
457.83	4437.66
458.01	4344.03
458.19	4484.47
458.38	4486.81
458.56	4552.34
458.74	4540.64
458.93	4550.00
459.11	4545.32
459.29	4559.36
459.48	4561.70
459.66	4596.81
459.84	4585.11
460.03	4826.18
460.21	4716.18
460.39	4690.43
460.57	4580.43
460.76	4760.65
460.94	4550.00
461.12	4744.27
461.31	4819.16
461.49	4695.11
461.67	4793.42
461.85	4947.89
462.04	4835.55
462.22	5184.29
462.40	4947.89
462.59	4868.31
462.77	4847.25
462.95	4908.10
463.13	4938.53
463.32	4924.49
463.50	4997.04
463.68	4971.30
463.86	4957.25
464.05	4873.00
464.23	4936.19
464.41	5118.75
464.59	5064.92
464.78	5158.54
464.96	5146.84
465.14	4990.02
465.32	5165.56
465.50	5270.89
465.69	5123.43
465.87	5280.25
466.05	4983.00
466.23	5081.30
466.41	5343.44
466.60	5245.14
466.78	5064.92
466.96	5179.61
467.14	5078.96
467.32	5160.88
467.51	5268.55
467.69	5111.73
467.87	5179.61
468.05	5434.72
468.23	5186.63
468.41	5296.63
468.60	5362.17
468.78	5378.55
468.96	5263.86
469.14	5338.76
469.32	5469.83
469.50	5345.78
469.69	5547.07
469.87	5504.94
470.05	5596.22
470.23	5472.17
470.41	5526.00
470.59	5617.29
470.77	5535.37
470.95	5575.16
471.14	5748.36
471.32	5554.09
471.50	5713.25
471.68	5753.04
471.86	5809.21
472.04	5858.36
472.22	6155.61
472.40	5764.74
472.58	5804.53
472.77	5837.30
472.95	5937.94
473.13	6129.86
473.31	5907.51
473.49	5870.06
473.67	5940.28
473.85	6237.53
474.03	6190.72
474.21	6214.12
474.39	6164.97
474.57	6228.17
474.75	6312.42
474.93	6469.24
475.12	6366.26
475.30	6277.32
475.48	6452.86
475.66	6246.89
475.84	6450.52
476.02	6422.43
476.20	6693.93
476.38	6616.69
476.56	6869.47
476.74	6672.87
476.92	6541.80
477.10	6614.35
477.28	6715.00
477.46	6836.70
477.64	7073.10
477.82	7180.76
478.00	7061.40
478.18	7208.85
478.36	7101.19
478.54	7279.07
478.72	7276.73
478.90	7281.41
479.08	7461.63
479.26	7452.27
479.44	7466.31
479.62	7651.21
479.80	7616.10
479.98	7653.55
480.16	7768.24
480.34	7644.19
480.52	7918.03
480.70	7871.22
480.88	7691.00
481.06	7751.85
481.24	7815.05
481.41	7929.74
481.59	8091.23
481.77	8135.70
481.95	8372.10
482.13	8379.12
482.31	8360.39
482.49	8491.46
482.67	8435.29
482.85	8692.75
483.03	8631.90
483.21	8610.83
483.39	8905.74
483.57	8982.98
483.74	9081.28
483.92	8919.78
484.10	8961.91
484.28	9345.76
484.46	9116.39
484.64	9200.65
484.82	9263.84
485.00	9352.78
485.18	9535.34
485.35	9680.46
485.53	9703.86
485.71	9635.99
485.89	9984.73
486.07	10057.28
486.25	9755.35
486.43	10160.27
486.61	10113.45
486.78	9963.66
486.96	10333.47
487.14	10314.74
487.32	10310.06
487.50	10391.98
487.68	10450.49
487.85	10761.78
488.03	10698.59
488.21	10834.34
488.39	10902.22
488.57	10937.32
488.75	11253.30
488.92	10906.90
489.10	11073.07
489.28	11133.93
489.46	11360.96
489.64	11257.98
489.81	11548.20
489.99	11604.38
490.17	11592.67
490.35	11744.81
490.53	11836.09
490.70	11934.39
490.88	11875.88
491.06	12168.45
491.24	12198.87
491.41	12191.85
491.59	12416.54
491.77	12348.67
491.95	12713.79
492.13	12657.62
492.30	12404.84
492.48	12681.02
492.66	12641.23
492.84	12879.97
493.01	12798.05
493.19	13111.68
493.37	13130.41
493.54	13041.46
493.72	13200.62
493.90	13439.36
494.08	13277.86
494.25	13385.52
494.43	13483.83
494.61	13427.65
494.79	13668.73
494.96	13638.30
495.14	13902.78
495.32	14036.19
495.49	14040.87
495.67	14094.71
495.85	14249.18
496.02	14340.46
496.20	14300.67
496.38	14473.87
496.55	14260.88
496.73	14574.52
496.91	14630.69
497.09	14361.53
497.26	14934.96
497.44	14757.08
497.62	14885.81
497.79	15101.14
497.97	14817.93
498.14	15133.90
498.32	15267.31
498.50	15307.10
498.67	15370.30
498.85	15192.42
499.03	15358.60
499.20	15477.96
499.38	15709.68
499.56	15704.99
499.73	15871.17
499.91	15765.85
500.08	15815.00
500.26	15779.89
500.44	15873.51
500.61	16259.70
500.79	16039.69
500.97	16154.38
501.14	15784.57
501.32	16297.15
501.49	16472.69
501.67	16093.52
501.84	16458.65
502.02	16219.91
502.20	16617.80
502.37	16671.64
502.55	16556.95
502.72	16568.65
502.90	16421.20
503.07	16652.91
503.25	16627.17
503.43	16723.13
503.60	16908.03
503.78	17090.59
503.95	17020.38
504.13	17125.70
504.30	17317.62
504.48	16919.73
504.65	17245.07
504.83	17160.81
505.01	17565.72
505.18	17383.16
505.36	17591.47
505.53	17418.27
505.71	17539.97
505.88	17750.62
506.06	17380.82
506.23	17982.34
506.41	17680.41
506.58	18057.23
506.76	18031.49
506.93	18080.64
507.11	17972.97
507.28	18132.13
507.46	18314.69
507.63	18263.20
507.81	18466.83
507.98	18398.95
508.16	18169.58
508.33	18434.06
508.50	18450.44
508.68	18249.16
508.85	18768.76
509.03	18656.41
509.20	18663.43
509.38	18759.39
509.55	18855.36
509.73	18951.32
509.90	18845.99
510.08	18600.24
510.25	18869.40
510.42	19276.65
510.60	18984.09
510.77	19119.84
510.95	19543.47
511.12	19164.31
511.30	19459.21
511.47	19342.19
511.64	19190.05
511.82	19644.12
511.99	19667.52
512.17	19620.71
512.34	19721.35
512.51	19817.32
512.69	19826.68
512.86	19981.15
513.04	19868.81
513.21	20142.65
513.38	19969.45
513.56	20294.79
513.73	20079.46
513.90	19920.30
514.08	20020.94
514.25	20313.51
514.43	20191.80
514.60	20311.17
514.77	20615.44
514.95	20652.89
515.12	20386.07
515.29	20482.03
515.47	20395.43
515.64	20456.28
515.81	20645.87
515.99	20889.28
516.16	21102.27
516.33	20908.01
516.51	20968.86
516.68	20889.28
516.85	20765.23
517.03	20772.25
517.20	21085.89
517.37	20790.98
517.54	21231.00
517.72	21345.69
517.89	21373.77
518.06	21209.93
518.24	21451.01
518.41	21418.24
518.58	21366.75
518.75	21497.82
518.93	21757.62
519.10	21523.57
519.27	21436.97
519.45	21764.64
519.62	21525.91
519.79	21556.33
519.96	21891.03
520.14	21884.01
520.31	21919.12
520.48	21975.29
520.65	22118.06
520.83	21919.12
521.00	22104.02
521.17	22085.30
521.34	21905.07
521.52	22157.85
521.69	21919.12
521.86	22340.41
522.03	22396.59
522.20	22703.20
522.38	22389.56
522.55	22284.24
522.72	22609.58
522.89	22647.02
523.07	22551.06
523.24	22457.44
523.41	22934.91
523.58	22473.82
523.75	22806.18
523.92	22909.16
524.10	22899.80
524.27	22939.59
524.44	23288.33
524.61	23321.10
524.78	23353.87
524.96	23051.94
525.13	23381.95
525.30	23290.67
525.47	23138.54
525.64	23325.78
525.81	23300.03
525.98	23878.15
526.16	23295.35
526.33	23473.23
526.50	23669.84
526.67	23655.79
526.84	23749.42
527.01	23742.39
527.18	23922.62
527.36	23630.05
527.53	23936.66
527.70	24142.63
527.87	24058.37
528.04	23733.03
528.21	24079.43
528.38	23868.78
528.55	23939.00
528.72	24168.37
528.89	24212.84
529.07	24034.96
529.24	24074.75
529.41	24226.89
529.58	24280.72
529.75	24444.56
529.92	24217.52
530.09	24329.87
530.26	24257.31
530.43	24484.34
530.60	24676.27
530.77	24720.74
530.94	24437.53
531.11	24280.72
531.28	24388.38
531.46	24603.71
531.63	24276.04
531.80	24697.33
531.97	24762.87
532.14	24805.00
532.31	24854.15
532.48	25294.17
532.65	24694.99
532.82	24940.75
532.99	24521.79
533.16	25071.82
533.33	24821.38
533.50	25472.05
533.67	25401.83
533.84	25184.16
534.01	25022.67
534.18	24540.52
534.35	25240.34
534.52	25207.57
534.69	25465.03
534.86	25380.77
535.03	25106.93
535.20	25633.55
535.37	25469.71
535.54	25364.39
535.71	25556.31
535.88	25352.68
536.05	25500.14
536.22	25682.70
536.38	25788.02
536.55	25610.14
536.72	25989.31
536.89	25359.70
537.06	25509.50
537.23	25724.83
537.40	25502.48
537.57	25816.11
537.74	26047.82
537.91	26370.82
538.08	26232.72
538.25	25928.45
538.42	25919.09
538.59	26068.89
538.75	25827.81
538.92	25879.30
539.09	26319.32
539.26	26204.64
539.43	26171.87
539.60	26560.40
539.77	26494.86
539.94	26579.12
540.11	26408.26
540.28	26190.59
540.44	26572.10
540.61	26235.06
540.78	26129.74
540.95	26244.43
541.12	26492.52
541.29	26525.29
541.46	26424.65
541.62	26230.38
541.79	26375.50
541.96	26504.23
542.13	26618.91
542.30	26735.94
542.47	26792.11
542.63	26632.96
542.80	26974.67
542.97	27307.03
543.14	27374.91
543.31	27454.48
543.48	27300.01
543.64	27292.99
543.81	27325.75
543.98	27599.60
544.15	27330.44
544.32	27215.75
544.48	27630.02
544.65	27222.77
544.82	27037.87
544.99	27274.26
545.16	27768.12
545.32	27520.02
545.49	27737.69
545.66	27618.32
545.83	27768.12
546.00	27564.49
546.16	27768.12
546.33	27372.57
546.50	27070.64
546.67	27571.51
546.83	27487.25
547.00	27627.68
547.17	27793.86
547.34	27789.18
547.50	27775.14
547.67	28011.53
547.84	27960.04
548.00	28156.64
548.17	27992.81
548.34	27967.06
548.51	28067.70
548.67	28421.13
548.84	28467.94
549.01	28070.04
549.18	28266.65
549.34	28105.15
549.51	28182.39
549.68	27941.32
549.84	28006.85
550.01	28105.15
550.18	28130.90
550.34	28629.43
550.51	28500.70
550.68	28453.89
550.84	28170.69
551.01	28601.35
551.18	28570.92
551.34	27903.87
551.51	28397.72
551.68	28510.07
551.84	28797.95
552.01	28266.65
552.18	28833.06
552.34	28460.91
552.51	28692.63
552.68	28552.20
552.84	28297.08
553.01	28804.97
553.18	28402.40
553.34	29083.50
553.51	28554.54
553.67	28622.41
553.84	29142.01
554.01	29055.41
554.17	28919.66
554.34	29039.03
554.51	29024.98
554.67	29324.57
554.84	28877.53
555.00	29289.46
555.17	29027.32
555.33	28971.15
555.50	28931.36
555.67	29106.90
555.83	28821.36
556.00	29102.22
556.16	29336.27
556.33	28989.88
556.50	29095.20
556.66	29362.02
556.83	29399.47
556.99	29156.05
557.16	29411.17
557.32	29369.04
557.49	29067.11
557.65	29149.03
557.82	29160.73
557.98	29315.21
558.15	29497.77
558.32	29479.05
558.48	29525.86
558.65	29752.89
558.81	29329.25
558.98	29535.22
559.14	29546.92
559.31	29516.50
559.47	29893.32
559.64	29696.72
559.80	29837.15
559.97	29668.63
560.13	29134.99
560.30	29724.80
560.46	29947.15
560.63	29741.19
560.79	29837.15
560.96	29839.49
561.12	29366.70
561.29	30015.03
561.45	29788.00
561.61	29766.93
561.78	30155.46
561.94	30059.50
562.11	30127.38
562.27	29895.66
562.44	29872.26
562.60	29825.45
562.77	29764.59
562.93	29619.48
563.10	29806.72
563.26	29898.00
563.42	30258.45
563.59	30331.00
563.75	30150.78
563.92	29923.75
564.08	29741.19
564.24	30085.25
564.41	29979.92
564.57	30059.50
564.74	30221.00
564.90	30293.55
565.07	30134.40
565.23	29846.51
565.39	29717.78
565.56	30366.11
565.72	30036.09
565.88	30127.38
566.05	29876.94
566.21	30029.07
566.38	29783.32
566.54	30431.65
566.70	30499.52
566.87	30665.70
567.03	30101.63
567.19	30403.56
567.36	30263.13
567.52	30567.40
567.68	30604.84
567.85	30686.76
568.01	30061.84
568.17	30277.17
568.34	30221.00
568.50	30508.88
568.66	30384.83
568.83	30352.07
568.99	30288.87
569.15	30412.92
569.32	30150.78
569.48	30164.82
569.64	30525.27
569.81	30639.95
569.97	30054.82
570.13	30431.65
570.30	30237.38
570.46	30522.93
570.62	30911.46
570.78	30064.18
570.95	30375.47
571.11	30260.79
571.27	30459.73
571.43	30328.66
571.60	30443.35
571.76	30623.57
571.92	30501.86
572.09	30696.13
572.25	30920.82
572.41	30682.08
572.57	30307.60
572.74	30515.90
572.90	29968.22
573.06	30661.02
573.22	30195.25
573.38	30511.22
573.55	30354.41
573.71	31094.02
573.87	30728.89
574.03	30658.68
574.20	30630.59
574.36	30188.23
574.52	30654.00
574.68	30602.50
574.84	30787.41
575.01	30625.91
575.17	30749.96
575.33	30691.44
575.49	30623.57
575.65	30707.83
575.82	30969.97
575.98	30710.17
576.14	30738.26
576.30	31194.66
576.46	30820.17
576.62	30595.48
576.79	30579.10
576.95	30506.54
577.11	30541.65
577.27	30923.16
577.43	30529.95
577.59	30876.35
577.75	30831.88
577.92	30696.13
578.08	30387.18
578.24	30611.87
578.40	30714.85
578.56	30817.83
578.72	30941.88
578.88	30850.60
579.04	31040.18
579.21	30810.81
579.37	30670.38
579.53	30724.21
579.69	30691.44
579.85	30576.76
580.01	30494.84
580.17	30789.75
580.33	30508.88
580.49	30764.00
580.65	31026.14
580.82	30841.24
580.98	30918.48
581.14	30642.29
581.30	30621.23
581.46	30775.70
581.62	30703.15
581.78	30700.81
581.94	30754.64
582.10	31012.10
582.26	31033.16
582.42	30848.26
582.58	30857.62
582.74	30682.08
582.90	31094.02
583.06	30717.19
583.22	31087.00
583.38	30677.40
583.54	30756.98
583.70	31000.40
583.86	30899.75
584.02	30890.39
584.18	31058.91
584.34	31285.94
584.50	31328.07
584.66	31021.46
584.82	30712.51
584.98	31152.53
585.14	30864.64
585.30	30871.67
585.46	30735.92
585.62	31143.17
585.78	31077.63
585.94	30604.84
586.10	31138.49
586.26	31299.98
586.42	31211.04
586.58	30756.98
586.74	30618.89
586.90	31028.48
587.06	30857.62
587.22	31042.53
587.38	31005.08
587.54	30998.06
587.70	31180.62
587.86	31236.79
588.02	31407.65
588.18	31524.68
588.34	31068.27
588.49	31332.75
588.65	30883.37
588.81	31040.18
588.97	31110.40
589.13	31246.15
589.29	30869.33
589.45	31091.68
589.61	31622.98
589.77	31351.48
589.93	31166.57
590.08	31213.38
590.24	31325.73
590.40	30771.02
590.56	31428.71
590.72	31250.83
590.88	31002.74
591.04	31133.81
591.20	31512.97
591.35	31606.59
591.51	31763.41
591.67	31459.14
591.83	31887.46
