SpectraSuite Data File
++++++++++++++++++++++++++++++++++++
Date: Fri Oct 18 13:57:56 GMT-05:00 2013
User: bianchi
Dark Spectrum Present: No
Reference Spectrum Present: No
Number of Sampled Component Spectra: 1
Spectrometers: USB2+H05261
Integration Time (usec): 50000 (USB2+H05261)
Spectra Averaged: 1 (USB2+H05261)
Boxcar Smoothing: 0 (USB2+H05261)
Correct for Electrical Dark: No (USB2+H05261)
Strobe/Lamp Enabled: No (USB2+H05261)
Correct for Detector Non-linearity: No (USB2+H05261)
Correct for Stray Light: No (USB2+H05261)
Number of Pixels in Processed Spectrum: 2048
>>>>>Begin Processed Spectral Data<<<<<
365.73	0.00
365.92	0.00
366.12	0.00
366.32	0.00
366.52	0.00
366.72	0.00
366.91	0.00
367.11	0.00
367.31	0.00
367.51	0.00
367.70	0.00
367.90	0.00
368.10	0.00
368.30	0.00
368.49	0.00
368.69	0.00
368.89	0.00
369.09	0.00
369.28	0.00
369.48	0.00
369.68	0.00
369.87	0.00
370.07	0.00
370.27	0.00
370.47	0.00
370.66	84.26
370.86	77.24
371.06	102.98
371.25	166.18
371.45	140.43
371.65	332.36
371.84	114.69
372.04	187.24
372.24	210.65
372.44	191.92
372.63	205.97
372.83	215.33
373.03	166.18
373.22	243.42
373.42	271.50
373.62	248.10
373.81	222.35
374.01	248.10
374.21	332.36
374.40	182.56
374.60	229.37
374.79	210.65
374.99	203.63
375.19	231.71
375.38	280.86
375.58	220.01
375.78	273.84
375.97	292.57
376.17	252.78
376.37	292.57
376.56	341.72
376.76	297.25
376.95	236.39
377.15	287.89
377.35	283.20
377.54	250.44
377.74	292.57
377.93	250.44
378.13	301.93
378.33	322.99
378.52	341.72
378.72	259.80
378.91	311.29
379.11	278.52
379.31	276.18
379.50	280.86
379.70	351.08
379.89	351.08
380.09	252.78
380.28	299.59
380.48	262.14
380.68	308.95
380.87	351.08
381.07	313.63
381.26	332.36
381.46	332.36
381.65	332.36
381.85	346.40
382.04	367.46
382.24	369.80
382.43	318.31
382.63	344.06
382.83	407.25
383.02	454.06
383.22	409.59
383.41	355.76
383.61	348.74
383.80	393.21
384.00	418.96
384.19	362.78
384.39	400.23
384.58	395.55
384.78	402.57
384.97	374.49
385.17	458.74
385.36	362.78
385.56	367.46
385.75	411.93
385.95	407.25
386.14	428.32
386.34	437.68
386.53	449.38
386.72	458.74
386.92	477.47
387.11	486.83
387.31	472.79
387.50	491.51
387.70	456.40
387.89	430.66
388.09	475.13
388.28	461.09
388.48	479.81
388.67	507.90
388.86	477.47
389.06	503.22
389.25	491.51
389.45	454.06
389.64	383.85
389.84	463.43
390.03	489.17
390.22	545.34
390.42	533.64
390.61	489.17
390.81	402.57
391.00	479.81
391.19	528.96
391.39	521.94
391.58	543.00
391.78	498.53
391.97	557.05
392.16	428.32
392.36	566.41
392.55	580.45
392.75	545.34
392.94	505.56
393.13	519.60
393.33	528.96
393.52	596.84
393.71	650.67
393.91	641.31
394.10	557.05
394.29	594.50
394.49	601.52
394.68	573.43
394.88	634.29
395.07	737.27
395.26	613.22
395.46	540.66
395.65	697.48
395.84	669.39
396.04	727.91
396.23	603.86
396.42	608.54
396.62	674.07
396.81	620.24
397.00	720.88
397.19	695.14
397.39	622.58
397.58	765.36
397.77	699.82
397.97	748.97
398.16	739.61
398.35	760.67
398.55	725.57
398.74	690.46
398.93	819.19
399.12	788.76
399.32	770.04
399.51	765.36
399.70	802.80
399.90	770.04
400.09	840.25
400.28	702.16
400.47	805.14
400.67	758.33
400.86	784.08
401.05	798.12
401.24	791.10
401.44	765.36
401.63	795.78
401.82	875.36
402.01	849.61
402.21	926.85
402.40	873.02
402.59	821.53
402.78	870.68
402.97	873.02
403.17	940.90
403.36	950.26
403.55	870.68
403.74	1013.45
403.93	1013.45
404.13	959.62
404.32	950.26
404.51	929.19
404.70	1001.75
404.89	968.98
405.09	1100.05
405.28	938.55
405.47	1015.79
405.66	980.68
405.85	1053.24
406.05	910.47
406.24	1015.79
406.43	1036.86
406.62	1011.11
406.81	1097.71
407.00	1043.88
407.20	999.41
407.39	1057.92
407.58	1081.33
407.77	1107.07
407.96	1121.12
408.15	1132.82
408.34	1184.31
408.54	1111.75
408.73	1088.35
408.92	1151.54
409.11	1102.39
409.30	1139.84
409.49	1172.61
409.68	1174.95
409.87	1200.69
410.07	1224.10
410.26	1083.67
410.45	1188.99
410.64	1261.55
410.83	1170.27
411.02	1177.29
411.21	1299.00
411.40	1203.04
411.59	1299.00
411.78	1249.85
411.98	1390.28
412.17	1341.13
412.36	1294.32
412.55	1350.49
412.74	1317.72
412.93	1387.94
413.12	1390.28
413.31	1437.09
413.50	1364.53
413.69	1441.77
413.88	1544.75
414.07	1430.07
414.26	1509.65
414.45	1462.83
414.64	1533.05
414.83	1509.65
415.02	1476.88
415.22	1596.25
415.41	1600.93
415.60	1607.95
415.79	1640.72
415.98	1654.76
416.17	1708.59
416.36	1710.93
416.55	1675.82
416.74	1607.95
416.93	1626.67
417.12	1701.57
417.31	1654.76
417.50	1741.36
417.69	1933.28
417.88	1797.53
418.07	1804.55
418.26	1713.27
418.45	1778.81
418.64	1823.28
418.83	1839.66
419.02	1879.45
419.21	1902.86
419.39	1879.45
419.58	1937.96
419.77	1902.86
419.96	1984.77
420.15	1973.07
420.34	1970.73
420.53	1952.01
420.72	2038.61
420.91	1891.15
421.10	2001.16
421.29	2076.06
421.48	1980.09
421.67	2043.29
421.86	1959.03
422.05	1940.30
422.24	1968.39
422.43	2059.67
422.61	2083.08
422.80	2104.14
422.99	2179.04
423.18	2083.08
423.37	2136.91
423.56	2132.23
423.75	2150.95
423.94	2031.58
424.13	1949.67
424.32	1947.33
424.50	2104.14
424.69	2256.28
424.88	2118.18
425.07	2036.27
425.26	2033.93
425.45	2064.35
425.64	2115.84
425.83	2104.14
426.01	2188.40
426.20	2153.29
426.39	2085.42
426.58	2183.72
426.77	2062.01
426.96	2139.25
427.15	2228.19
427.33	2258.62
427.52	2200.10
427.71	2108.82
427.90	2258.62
428.09	2197.76
428.28	2214.15
428.46	2251.60
428.65	2197.76
428.84	2298.41
429.03	2307.77
429.22	2179.04
429.40	2335.85
429.59	2361.60
429.78	2237.55
429.97	2326.49
430.16	2253.94
430.34	2399.05
430.53	2314.79
430.72	2516.08
430.91	2427.14
431.10	2445.86
431.28	2434.16
431.47	2471.61
431.66	2499.69
431.85	2394.37
432.03	2473.95
432.22	2583.95
432.41	2520.76
432.60	2459.90
432.79	2597.99
432.97	2509.05
433.16	2506.71
433.35	2478.63
433.54	2537.14
433.72	2630.76
433.91	2593.31
434.10	2590.97
434.28	2480.97
434.47	2623.74
434.66	2649.49
434.85	2553.52
435.03	2665.87
435.22	2712.68
435.41	2750.13
435.59	2722.04
435.78	2672.89
435.97	2679.91
436.16	2686.94
436.34	2733.75
436.53	2853.11
436.72	2789.92
436.90	2705.66
437.09	2803.96
437.28	2719.70
437.46	2848.43
437.65	2778.22
437.84	2895.24
438.02	2928.01
438.21	2988.86
438.40	2801.62
438.58	3000.57
438.77	3068.44
438.96	2984.18
439.14	3112.91
439.33	3103.55
439.52	3084.83
439.70	2981.84
439.89	3075.46
440.08	3070.78
440.26	3131.64
440.45	3190.15
440.63	3159.72
440.82	3208.87
441.01	3157.38
441.19	3279.09
441.38	3328.24
441.57	3328.24
441.75	3332.92
441.94	3452.29
442.12	3335.26
442.31	3506.12
442.50	3475.70
442.68	3353.99
442.87	3335.26
443.05	3510.80
443.24	3538.89
443.43	3302.50
443.61	3506.12
443.80	3616.13
443.98	3449.95
444.17	3330.58
444.35	3456.97
444.54	3578.68
444.73	3569.32
444.91	3478.04
445.10	3555.27
445.28	3534.21
445.47	3471.01
445.65	3527.19
445.84	3597.40
446.02	3611.45
446.21	3653.58
446.39	3646.55
446.58	3604.42
446.77	3576.34
446.95	3531.87
447.14	3543.57
447.32	3571.66
447.51	3524.85
447.69	3716.77
447.88	3646.55
448.06	3583.36
448.25	3658.26
448.43	3639.53
448.62	3620.81
448.80	3655.92
448.99	3627.83
449.17	3810.39
449.36	3749.54
449.54	3798.69
449.73	3742.52
449.91	3721.45
450.10	3634.85
450.28	3913.38
450.46	3819.75
450.65	3784.65
450.83	3815.07
451.02	3801.03
451.20	3805.71
451.39	3915.72
451.57	3758.90
451.76	3843.16
451.94	3770.60
452.13	4023.38
452.31	3948.48
452.49	3999.98
452.68	3960.19
452.86	3990.61
453.05	4002.32
453.23	4063.17
453.42	3824.44
453.60	3964.87
453.78	3904.01
453.97	3939.12
454.15	3960.19
454.34	3948.48
454.52	4182.54
454.70	4177.86
454.89	4128.70
455.07	4145.09
455.26	4292.54
455.44	4360.42
455.62	4269.14
455.81	4180.20
455.99	4121.68
456.17	4173.18
456.36	4404.89
456.54	4124.02
456.73	4397.87
456.91	4430.63
457.09	4311.27
457.28	4507.87
457.46	4456.38
457.64	4517.23
457.83	4355.74
458.01	4397.87
458.19	4564.04
458.38	4535.96
458.56	4571.07
458.74	4657.67
458.93	4606.17
459.11	4699.80
459.29	4578.09
459.48	4472.76
459.66	4676.39
459.84	4690.43
460.03	4702.14
460.21	4748.95
460.39	4641.28
460.57	4702.14
460.76	4692.77
460.94	4765.33
461.12	4767.67
461.31	4781.71
461.49	4788.74
461.67	4744.27
461.85	4908.10
462.04	4594.47
462.22	5167.90
462.40	4950.23
462.59	4762.99
462.77	4884.70
462.95	4861.29
463.13	4880.02
463.32	5102.37
463.50	4915.12
463.68	4940.87
463.86	4926.83
464.05	4975.98
464.23	4875.34
464.41	5210.03
464.59	4978.32
464.78	5060.24
464.96	4987.68
465.14	5085.98
465.32	5184.29
465.50	5200.67
465.69	5090.67
465.87	5210.03
466.05	5109.39
466.23	5142.16
466.41	5226.42
466.60	5266.21
466.78	5146.84
466.96	5207.69
467.14	5214.71
467.32	5247.48
467.51	5373.87
467.69	5210.03
467.87	5380.89
468.05	5275.57
468.23	5320.04
468.41	5242.80
468.60	5186.63
468.78	5448.77
468.96	5296.63
469.14	5486.22
469.32	5401.96
469.50	5289.61
469.69	5331.74
469.87	5556.43
470.05	5607.92
470.23	5549.41
470.41	5535.37
470.59	5661.76
470.77	5572.82
470.95	5678.14
471.14	5710.91
471.32	5818.57
471.50	5834.96
471.68	5816.23
471.86	5841.98
472.04	5818.57
472.22	5764.74
472.40	5928.58
472.58	5734.31
472.77	5776.44
472.95	5937.94
473.13	6127.52
473.31	5951.98
473.49	5963.68
473.67	6146.25
473.85	6045.60
474.03	6221.14
474.21	6157.95
474.39	6228.17
474.57	6349.87
474.75	6282.00
474.93	6478.60
475.12	6509.03
475.30	6480.94
475.48	6609.67
475.66	6621.38
475.84	6473.92
476.02	6623.72
476.20	6588.61
476.38	6719.68
476.56	6771.17
476.74	6768.83
476.92	6867.13
477.10	6764.15
477.28	6799.26
477.46	6827.34
477.64	6855.43
477.82	6890.54
478.00	7070.76
478.18	7094.16
478.36	7197.15
478.54	7255.66
478.72	7407.80
478.90	7229.91
479.08	7405.46
479.26	7442.90
479.44	7616.10
479.62	7672.28
479.80	7728.45
479.98	7691.00
480.16	7803.35
480.34	7772.92
480.52	7817.39
480.70	8016.33
480.88	7894.63
481.06	7908.67
481.24	7906.33
481.41	7985.91
481.59	8439.97
481.77	8109.96
481.95	8194.22
482.13	8430.61
482.31	8212.94
482.49	8533.59
482.67	8709.13
482.85	8603.81
483.03	8692.75
483.21	9085.96
483.39	8858.93
483.57	8847.22
483.74	8875.31
483.92	8968.93
484.10	9034.47
484.28	9090.64
484.46	9334.06
484.64	9563.43
484.82	9437.04
485.00	9420.66
485.18	9614.92
485.35	9593.86
485.53	9598.54
485.71	9863.02
485.89	9963.66
486.07	9898.13
486.25	9909.83
486.43	9982.38
486.61	9954.30
486.78	10190.69
486.96	10431.77
487.14	10576.88
487.32	10326.44
487.50	10686.89
487.68	10476.24
487.85	10780.51
488.03	11026.26
488.21	10913.92
488.39	10850.72
488.57	11035.63
488.75	11145.63
488.92	11405.43
489.10	11480.33
489.28	11246.27
489.46	11384.37
489.64	11613.74
489.81	11627.78
489.99	11730.76
490.17	11934.39
490.35	11967.16
490.53	11791.62
490.70	12032.69
490.88	12020.99
491.06	12320.58
491.24	12210.57
491.41	12147.38
491.59	12332.28
491.77	12217.60
491.95	12681.02
492.13	12751.24
492.30	12776.98
492.48	12816.77
492.66	12556.97
492.84	12858.90
493.01	12978.27
493.19	12833.16
493.37	13366.80
493.54	13039.12
493.72	13624.26
493.90	13331.69
494.08	13514.25
494.25	13483.83
494.43	13907.46
494.61	13900.44
494.79	13769.37
494.96	13940.23
495.14	13998.74
495.32	14017.47
495.49	14024.49
495.67	14122.79
495.85	14354.51
496.02	14256.20
496.20	14417.70
496.38	14352.16
496.55	14408.34
496.73	14855.38
496.91	14682.18
497.09	14817.93
497.26	15073.05
497.44	14794.53
497.62	14881.13
497.79	15000.49
497.97	15222.84
498.14	15129.22
498.32	15332.85
498.50	15288.38
498.67	15396.04
498.85	15304.76
499.03	15248.59
499.20	15688.61
499.38	15690.95
499.56	15634.78
499.73	15908.62
499.91	16013.95
500.08	16163.74
500.26	15803.30
500.44	16077.14
500.61	15899.26
500.79	15969.48
500.97	16269.06
501.14	16507.80
501.32	16308.85
501.49	16301.83
501.67	16449.28
501.84	16350.98
502.02	16566.31
502.20	16575.67
502.37	16961.86
502.55	16788.66
502.72	16842.50
502.90	16929.09
503.07	16786.32
503.25	16903.35
503.43	16985.27
503.60	17198.26
503.78	17523.59
503.95	17240.39
504.13	17202.94
504.30	17032.08
504.48	17392.52
504.65	17205.28
504.83	17495.50
505.01	17671.04
505.18	17699.13
505.36	17930.84
505.53	17584.44
505.71	17757.64
505.88	17748.28
506.06	17500.19
506.23	17872.33
506.41	17914.46
506.58	18017.44
506.76	17989.36
506.93	18202.35
507.11	18139.15
507.28	18118.09
507.46	18195.32
507.63	18260.86
507.81	18724.29
507.98	18148.51
508.16	18228.09
508.33	18537.04
508.50	18778.12
508.68	18508.96
508.85	18771.10
509.03	18752.37
509.20	18649.39
509.38	19033.24
509.55	18789.82
509.73	18892.80
509.90	18799.18
510.08	19157.28
510.25	18871.74
510.42	19337.51
510.60	19590.28
510.77	19489.64
510.95	19433.47
511.12	19267.29
511.30	19286.01
511.47	19353.89
511.64	19707.31
511.82	19719.01
511.99	19814.98
512.17	19606.67
512.34	19749.44
512.51	19981.15
512.69	19810.29
512.86	19791.57
513.04	19960.09
513.21	20411.81
513.38	19927.32
513.56	20290.10
513.73	19824.34
513.90	20386.07
514.08	20116.90
514.25	20343.94
514.43	20428.20
514.60	20229.25
514.77	20184.78
514.95	20379.04
515.12	20524.16
515.29	20613.10
515.47	20702.04
515.64	20783.96
515.81	20994.61
515.99	21130.36
516.16	21055.46
516.33	20840.13
516.51	21064.82
516.68	21092.91
516.85	21097.59
517.03	21078.86
517.20	20905.66
517.37	21195.89
517.54	21181.85
517.72	21558.67
517.89	21256.75
518.06	21350.37
518.24	21212.28
518.41	21518.89
518.58	21160.78
518.75	21420.58
518.93	21570.38
519.10	21359.73
519.27	21731.87
519.45	21930.82
519.62	22024.44
519.79	21874.65
519.96	21563.36
520.14	22026.78
520.31	21905.07
520.48	21853.58
520.65	22080.61
520.83	22071.25
521.00	22207.00
521.17	22050.19
521.34	21926.14
521.52	22401.27
521.69	22511.27
521.86	22431.69
522.03	22354.46
522.20	22597.87
522.38	22796.82
522.55	23131.51
522.72	22581.49
522.89	22771.07
523.07	22892.78
523.24	22569.79
523.41	22822.56
523.58	22778.09
523.75	22986.40
523.92	22637.66
524.10	22939.59
524.27	23260.24
524.44	23337.48
524.61	23564.51
524.78	23522.38
524.96	23131.51
525.13	23501.32
525.30	23049.60
525.47	23358.55
525.64	23676.86
525.81	23393.65
525.98	23632.39
526.16	23625.37
526.33	23623.03
526.50	23758.78
526.67	23854.74
526.84	23723.67
527.01	24041.98
527.18	23541.11
527.36	23557.49
527.53	24161.35
527.70	23976.45
527.87	24313.48
528.04	24147.31
528.21	24301.78
528.38	23934.32
528.55	24367.32
528.72	24093.47
528.89	24208.16
529.07	24369.66
529.24	24147.31
529.41	24261.99
529.58	24554.56
529.75	24671.59
529.92	24582.65
530.09	24409.45
530.26	24334.55
530.43	24463.28
530.60	24393.06
530.77	24390.72
530.94	24847.13
531.11	24624.78
531.28	24947.77
531.46	24622.44
531.63	24819.04
531.80	24996.92
531.97	24910.32
532.14	24926.71
532.31	25235.66
532.48	24767.55
532.65	25256.72
532.82	24648.18
532.99	25064.80
533.16	25090.54
533.33	25198.21
533.50	25652.27
533.67	25535.24
533.84	24706.70
534.01	25413.54
534.18	25287.15
534.35	25467.37
534.52	25296.51
534.69	25816.11
534.86	25525.88
535.03	25324.60
535.20	25280.13
535.37	25493.12
535.54	25905.05
535.71	25638.23
535.88	25488.43
536.05	25600.78
536.22	25905.05
536.38	26075.91
536.55	25876.96
536.72	26267.83
536.89	26118.04
537.06	25867.60
537.23	25851.22
537.40	25937.82
537.57	26080.59
537.74	26026.76
537.91	26061.87
538.08	26366.13
538.25	25937.82
538.42	26068.89
538.59	26590.83
538.75	26214.00
538.92	26457.42
539.09	26555.72
539.26	26764.03
539.43	26237.41
539.60	26771.05
539.77	26375.50
539.94	26609.55
540.11	26649.34
540.28	26761.69
540.44	26464.44
540.61	26555.72
540.78	26658.70
540.95	26419.97
541.12	26590.83
541.29	26775.73
541.46	26892.76
541.62	26665.72
541.79	27175.96
541.96	26572.10
542.13	26401.24
542.30	26852.97
542.47	27019.14
542.63	27157.24
542.80	26965.31
542.97	27442.78
543.14	27220.43
543.31	26876.37
543.48	27087.02
543.64	27440.44
543.81	27576.19
543.98	27297.67
544.15	27477.89
544.32	27466.19
544.48	27587.89
544.65	27873.44
544.82	27784.50
544.99	27601.94
545.16	27398.31
545.32	27297.67
545.49	27651.09
545.66	27917.91
545.83	28058.34
546.00	27665.13
546.16	27889.82
546.33	27295.33
546.50	27840.67
546.67	28121.54
546.83	27379.59
547.00	28046.64
547.17	28074.73
547.34	27742.37
547.50	28301.76
547.67	28226.86
547.84	28364.95
548.00	28343.89
548.17	28400.06
548.34	28191.75
548.51	28414.10
548.67	28577.94
548.84	28758.16
549.01	28077.07
549.18	28442.19
549.34	28318.14
549.51	28205.80
549.68	28343.89
549.84	28056.00
550.01	28158.99
550.18	28449.21
550.34	28156.64
550.51	28521.77
550.68	28910.30
550.84	28276.01
551.01	28699.65
551.18	28453.89
551.34	28423.47
551.51	28350.91
551.68	28907.96
551.84	29046.05
552.01	28713.69
552.18	29228.61
552.34	28959.45
552.51	29289.46
552.68	28837.74
552.84	28706.67
553.01	29027.32
553.18	28734.76
553.34	29284.78
553.51	28966.47
553.67	29607.78
553.84	29441.60
554.01	29394.79
554.17	29062.43
554.34	29127.97
554.51	28645.82
554.67	29263.72
554.84	29219.25
555.00	29160.73
555.17	29244.99
555.33	29408.83
555.50	29376.06
555.67	29399.47
555.83	29411.17
556.00	29137.33
556.16	29539.90
556.33	29432.24
556.50	29685.01
556.66	29460.32
556.83	29631.18
556.99	29673.31
557.16	29865.24
557.32	29736.51
557.49	29666.29
557.65	29743.53
557.82	29324.57
557.98	29457.98
558.15	29448.62
558.32	29626.50
558.48	29404.15
558.65	29907.37
558.81	29448.62
558.98	29656.93
559.14	30204.61
559.31	29415.85
559.47	30167.16
559.64	30125.04
559.80	29874.60
559.97	29713.10
560.13	29621.82
560.30	29479.05
560.46	30204.61
560.63	30314.62
560.79	29933.11
560.96	29752.89
561.12	29975.24
561.29	29895.66
561.45	29914.39
561.61	30326.32
561.78	30164.82
561.94	29879.28
562.11	30202.27
562.27	30295.89
562.44	30094.61
562.60	30019.71
562.77	30242.06
562.93	30045.46
563.10	30597.82
563.26	30153.12
563.42	30864.64
563.59	30279.51
563.75	30422.28
563.92	30242.06
564.08	30108.65
564.24	29909.71
564.41	30171.85
564.57	30195.25
564.74	30089.93
564.90	30576.76
565.07	30256.11
565.23	30426.96
565.39	30478.46
565.56	30534.63
565.72	30206.95
565.88	30113.33
566.05	30412.92
566.21	30029.07
566.38	30513.56
566.54	30766.34
566.70	30459.73
566.87	30822.51
567.03	30476.12
567.19	30768.68
567.36	30609.53
567.52	30487.82
567.68	30314.62
567.85	30532.29
568.01	30513.56
568.17	30312.28
568.34	30735.92
568.50	30749.96
568.66	30749.96
568.83	31023.80
568.99	30897.41
569.15	30646.97
569.32	31110.40
569.48	30433.99
569.64	30558.03
569.81	30728.89
569.97	30717.19
570.13	30604.84
570.30	30529.95
570.46	31115.08
570.62	30953.58
570.78	30579.10
570.95	30443.35
571.11	30492.50
571.27	30534.63
571.43	31065.93
571.60	31021.46
571.76	30827.20
571.92	30852.94
572.09	30670.38
572.25	30881.03
572.41	31042.53
572.57	30609.53
572.74	30955.93
572.90	30799.11
573.06	30593.14
573.22	30759.32
573.38	30455.05
573.55	31019.12
573.71	31381.90
573.87	30948.90
574.03	31019.12
574.20	30637.61
574.36	30747.62
574.52	30684.42
574.68	30895.07
574.84	30930.18
575.01	30988.69
575.17	31033.16
575.33	30981.67
575.49	30955.93
575.65	31412.33
575.82	31012.10
575.98	30808.47
576.14	30845.92
576.30	30719.53
576.46	30773.36
576.62	30892.73
576.79	30845.92
576.95	31157.21
577.11	31194.66
577.27	31321.05
577.43	31014.44
577.59	30878.69
577.75	30429.30
577.92	30759.32
578.08	30635.27
578.24	30700.81
578.40	30941.88
578.56	31278.92
578.72	30714.85
578.88	31548.08
579.04	31264.88
579.21	31164.23
579.37	31283.60
579.53	31000.40
579.69	30969.97
579.85	30988.69
580.01	30993.37
580.17	30813.15
580.33	31519.99
580.49	30995.71
580.65	31030.82
580.82	30848.26
580.98	31269.56
581.14	31278.92
581.30	31087.00
581.46	31211.04
581.62	30820.17
581.78	30976.99
581.94	31185.30
582.10	30675.06
582.26	30841.24
582.42	31288.28
582.58	31164.23
582.74	31271.90
582.90	31274.24
583.06	30991.03
583.22	31248.49
583.38	31016.78
583.54	30927.84
583.70	31267.22
583.86	31374.88
584.02	31126.78
584.18	31094.02
584.34	31503.61
584.50	31498.93
584.66	31295.30
584.82	30841.24
584.98	31569.15
585.14	31028.48
585.30	30869.33
585.46	31185.30
585.62	30871.67
585.78	30808.47
585.94	30693.79
586.10	31257.85
586.26	31220.41
586.42	31761.07
586.58	31054.23
586.74	31297.64
586.90	31358.50
587.06	30689.10
587.22	31229.77
587.38	31253.17
587.54	31473.18
587.70	31550.42
587.86	31271.90
588.02	31676.81
588.18	31814.90
588.34	31391.26
588.49	31431.05
588.65	30988.69
588.81	30998.06
588.97	31456.80
589.13	31307.01
589.29	31182.96
589.45	31299.98
589.61	31669.79
589.77	31899.16
589.93	31807.88
590.08	31527.02
590.24	31730.64
590.40	31353.82
590.56	31438.08
590.72	31618.30
590.88	31180.62
591.04	31463.82
591.20	31791.50
591.35	32161.30
591.51	32086.40
591.67	31763.41
591.83	32055.98
