SpectraSuite Data File
++++++++++++++++++++++++++++++++++++
Date: Fri Oct 18 13:58:43 GMT-05:00 2013
User: bianchi
Dark Spectrum Present: No
Reference Spectrum Present: No
Number of Sampled Component Spectra: 1
Spectrometers: USB2+H05261
Integration Time (usec): 50000 (USB2+H05261)
Spectra Averaged: 1 (USB2+H05261)
Boxcar Smoothing: 0 (USB2+H05261)
Correct for Electrical Dark: No (USB2+H05261)
Strobe/Lamp Enabled: No (USB2+H05261)
Correct for Detector Non-linearity: No (USB2+H05261)
Correct for Stray Light: No (USB2+H05261)
Number of Pixels in Processed Spectrum: 2048
>>>>>Begin Processed Spectral Data<<<<<
365.73	0.00
365.92	0.00
366.12	0.00
366.32	0.00
366.52	0.00
366.72	0.00
366.91	0.00
367.11	0.00
367.31	0.00
367.51	0.00
367.70	0.00
367.90	0.00
368.10	0.00
368.30	0.00
368.49	0.00
368.69	0.00
368.89	0.00
369.09	0.00
369.28	0.00
369.48	0.00
369.68	0.00
369.87	0.00
370.07	0.00
370.27	0.00
370.47	0.00
370.66	95.96
370.86	79.58
371.06	49.15
371.25	142.77
371.45	140.43
371.65	191.92
371.84	154.48
372.04	173.20
372.24	145.11
372.44	184.90
372.63	208.31
372.83	180.22
373.03	241.08
373.22	173.20
373.42	238.73
373.62	189.58
373.81	229.37
374.01	227.03
374.21	212.99
374.40	147.45
374.60	264.48
374.79	187.24
374.99	205.97
375.19	229.37
375.38	245.76
375.58	266.82
375.78	220.01
375.97	255.12
376.17	292.57
376.37	245.76
376.56	266.82
376.76	250.44
376.95	255.12
377.15	212.99
377.35	325.33
377.54	325.33
377.74	222.35
377.93	252.78
378.13	379.17
378.33	297.25
378.52	248.10
378.72	269.16
378.91	212.99
379.11	264.48
379.31	409.59
379.50	257.46
379.70	301.93
379.89	224.69
380.09	318.31
380.28	255.12
380.48	264.48
380.68	294.91
380.87	318.31
381.07	341.72
381.26	285.55
381.46	341.72
381.65	322.99
381.85	379.17
382.04	353.42
382.24	301.93
382.43	283.20
382.63	311.29
382.83	421.30
383.02	327.68
383.22	390.87
383.41	301.93
383.61	344.06
383.80	341.72
384.00	227.03
384.19	278.52
384.39	358.10
384.58	404.91
384.78	369.80
384.97	395.55
385.17	425.98
385.36	390.87
385.56	311.29
385.75	437.68
385.95	386.19
386.14	428.32
386.34	444.70
386.53	376.83
386.72	442.36
386.92	393.21
387.11	400.23
387.31	381.51
387.50	454.06
387.70	425.98
387.89	486.83
388.09	418.96
388.28	428.32
388.48	425.98
388.67	437.68
388.86	442.36
389.06	444.70
389.25	468.11
389.45	442.36
389.64	449.38
389.84	491.51
390.03	505.56
390.22	414.27
390.42	449.38
390.61	444.70
390.81	449.38
391.00	526.62
391.19	489.17
391.39	477.47
391.58	550.03
391.78	566.41
391.97	535.98
392.16	517.26
392.36	519.60
392.55	538.32
392.75	484.49
392.94	526.62
393.13	517.26
393.33	531.30
393.52	552.37
393.71	521.94
393.91	573.43
394.10	599.18
394.29	496.19
394.49	571.09
394.68	528.96
394.88	620.24
395.07	622.58
395.26	559.39
395.46	610.88
395.65	704.50
395.84	589.82
396.04	599.18
396.23	622.58
396.42	671.73
396.62	650.67
396.81	594.50
397.00	636.63
397.19	655.35
397.39	631.94
397.58	643.65
397.77	545.34
397.97	671.73
398.16	669.39
398.35	671.73
398.55	641.31
398.74	732.59
398.93	723.23
399.12	781.74
399.32	603.86
399.51	732.59
399.70	732.59
399.90	751.31
400.09	833.23
400.28	662.37
400.47	730.25
400.67	755.99
400.86	772.38
401.05	802.80
401.24	748.97
401.44	699.82
401.63	861.32
401.82	851.96
402.01	788.76
402.21	779.40
402.40	763.01
402.59	809.83
402.78	840.25
402.97	868.34
403.17	814.51
403.36	777.06
403.55	877.70
403.74	870.68
403.93	887.06
404.13	915.15
404.32	940.90
404.51	884.72
404.70	891.74
404.89	992.39
405.09	936.21
405.28	940.90
405.47	905.79
405.66	945.58
405.85	917.49
406.05	968.98
406.24	1018.13
406.43	971.32
406.62	994.73
406.81	1022.81
407.00	978.34
407.20	990.05
407.39	983.02
407.58	1076.65
407.77	1048.56
407.96	1041.54
408.15	1053.24
408.34	1050.90
408.54	1041.54
408.73	1088.35
408.92	1088.35
409.11	1146.86
409.30	1083.67
409.49	1088.35
409.68	1088.35
409.87	1123.46
410.07	1165.59
410.26	1158.57
410.45	1214.74
410.64	1174.95
410.83	1231.12
411.02	1315.38
411.21	1263.89
411.40	1228.78
411.59	1242.82
411.78	1275.59
411.98	1296.66
412.17	1336.45
412.36	1390.28
412.55	1366.87
412.74	1334.11
412.93	1306.02
413.12	1179.63
413.31	1268.57
413.50	1411.34
413.69	1392.62
413.88	1392.62
414.07	1409.00
414.26	1425.39
414.45	1458.15
414.64	1427.73
414.83	1474.54
415.02	1416.02
415.22	1434.75
415.41	1563.48
415.60	1458.15
415.79	1593.90
415.98	1483.90
416.17	1579.86
416.36	1603.27
416.55	1603.27
416.74	1694.55
416.93	1603.27
417.12	1645.40
417.31	1572.84
417.50	1659.44
417.69	1769.44
417.88	1734.34
418.07	1682.85
418.26	1696.89
418.45	1757.74
418.64	1886.47
418.83	1797.53
419.02	1825.62
419.21	1774.13
419.39	1881.79
419.58	1881.79
419.77	1832.64
419.96	1788.17
420.15	1832.64
420.34	1811.57
420.53	1811.57
420.72	1748.38
420.91	1891.15
421.10	1879.45
421.29	1881.79
421.48	1832.64
421.67	1991.80
421.86	1940.30
422.05	1834.98
422.24	1914.56
422.43	1919.24
422.61	1926.26
422.80	1919.24
422.99	2019.88
423.18	2019.88
423.37	1877.11
423.56	1933.28
423.75	1912.22
423.94	1827.96
424.13	1739.02
424.32	1879.45
424.50	2026.90
424.69	2139.25
424.88	2115.84
425.07	2045.63
425.26	2066.69
425.45	2073.71
425.64	1963.71
425.83	1909.88
426.01	2122.87
426.20	2090.10
426.39	2001.16
426.58	2113.50
426.77	2064.35
426.96	2029.24
427.15	2141.59
427.33	2232.87
427.52	2106.48
427.71	2160.31
427.90	2139.25
428.09	2186.06
428.28	2097.12
428.46	2200.10
428.65	2043.29
428.84	2122.87
429.03	2251.60
429.22	2146.27
429.40	2230.53
429.59	2148.61
429.78	2174.36
429.97	2129.89
430.16	2122.87
430.34	2193.08
430.53	2277.34
430.72	2303.09
430.91	2218.83
431.10	2207.13
431.28	2363.94
431.47	2375.64
431.66	2417.77
431.85	2331.17
432.03	2340.54
432.22	2382.67
432.41	2415.43
432.60	2422.45
432.79	2410.75
432.97	2375.64
433.16	2455.22
433.35	2408.41
433.54	2408.41
433.72	2492.67
433.91	2443.52
434.10	2483.31
434.28	2373.30
434.47	2607.36
434.66	2567.57
434.85	2565.23
435.03	2567.57
435.22	2546.50
435.41	2551.18
435.59	2747.79
435.78	2635.44
435.97	2523.10
436.16	2778.22
436.34	2581.61
436.53	2635.44
436.72	2619.06
436.90	2616.72
437.09	2752.47
437.28	2476.29
437.46	2612.04
437.65	2647.15
437.84	2752.47
438.02	2768.85
438.21	2672.89
438.40	2745.45
438.58	2766.51
438.77	2913.97
438.96	2953.76
439.14	2871.84
439.33	2895.24
439.52	3094.19
439.70	2944.39
439.89	2988.86
440.08	3023.97
440.26	3038.02
440.45	3112.91
440.63	3112.91
440.82	3033.33
441.01	3094.19
441.19	3155.04
441.38	3119.93
441.57	3227.60
441.75	3222.92
441.94	3206.53
442.12	3265.05
442.31	3339.94
442.50	3251.00
442.68	3358.67
442.87	3330.58
443.05	3353.99
443.24	3370.37
443.43	3269.73
443.61	3330.58
443.80	3393.78
443.98	3194.83
444.17	3208.87
444.35	3236.96
444.54	3471.01
444.73	3344.63
444.91	3480.38
445.10	3358.67
445.28	3435.91
445.47	3424.20
445.65	3386.76
445.84	3433.57
446.02	3529.53
446.21	3372.71
446.39	3428.88
446.58	3410.16
446.77	3405.48
446.95	3384.41
447.14	3475.70
447.32	3494.42
447.51	3478.04
447.69	3403.14
447.88	3543.57
448.06	3407.82
448.25	3478.04
448.43	3478.04
448.62	3492.08
448.80	3417.18
448.99	3552.93
449.17	3503.78
449.36	3562.30
449.54	3609.11
449.73	3667.62
449.91	3648.90
450.10	3754.22
450.28	3840.82
450.46	3646.55
450.65	3700.39
450.83	3740.18
451.02	3646.55
451.20	3880.61
451.39	3850.18
451.57	3700.39
451.76	3686.34
451.94	3803.37
452.13	3845.50
452.31	3770.60
452.49	3794.01
452.68	3840.82
452.86	3822.09
453.05	3918.06
453.23	3906.35
453.42	3791.67
453.60	3794.01
453.78	3847.84
453.97	3939.12
454.15	3960.19
454.34	3913.38
454.52	3932.10
454.70	4007.00
454.89	3985.93
455.07	3861.88
455.26	4121.68
455.44	4222.33
455.62	4018.70
455.81	4086.58
455.99	3941.46
456.17	4112.32
456.36	4093.60
456.54	4011.68
456.73	4212.96
456.91	4245.73
457.09	4245.73
457.28	4344.03
457.46	4205.94
457.64	4320.63
457.83	4372.12
458.01	4236.37
458.19	4248.07
458.38	4149.77
458.56	4353.40
458.74	4327.65
458.93	4376.80
459.11	4432.97
459.29	4231.69
459.48	4400.21
459.66	4425.95
459.84	4390.84
460.03	4552.34
460.21	4589.79
460.39	4374.46
460.57	4484.47
460.76	4566.39
460.94	4514.89
461.12	4535.96
461.31	4545.32
461.49	4503.19
461.67	4660.01
461.85	4674.05
462.04	4807.46
462.22	4727.88
462.40	4589.79
462.59	4678.73
462.77	4655.33
462.95	4727.88
463.13	4578.09
463.32	4575.75
463.50	4739.58
463.68	4901.08
463.86	4894.06
464.05	4856.61
464.23	4737.24
464.41	4929.17
464.59	4826.18
464.78	5008.75
464.96	4765.33
465.14	4894.06
465.32	4947.89
465.50	4910.44
465.69	4929.17
465.87	5022.79
466.05	4835.55
466.23	4945.55
466.41	5095.35
466.60	5151.52
466.78	5128.11
466.96	4950.23
467.14	5053.22
467.32	5071.94
467.51	5160.88
467.69	4910.44
467.87	5172.58
468.05	5100.03
468.23	5151.52
468.41	5043.85
468.60	5109.39
468.78	5151.52
468.96	5200.67
469.14	5401.96
469.32	5207.69
469.50	4973.64
469.69	5315.36
469.87	5207.69
470.05	5322.38
470.23	5408.98
470.41	5296.63
470.59	5500.26
470.77	5371.53
470.95	5291.95
471.14	5556.43
471.32	5479.19
471.50	5607.92
471.68	5467.49
471.86	5514.30
472.04	5528.35
472.22	5757.72
472.40	5516.64
472.58	5593.88
472.77	5624.31
472.95	5668.78
473.13	5930.92
473.31	5834.96
473.49	5673.46
473.67	5891.13
473.85	5762.40
474.03	5797.51
474.21	5942.62
474.39	6104.12
474.57	6232.85
474.75	5898.15
474.93	6193.06
475.12	6099.44
475.30	6157.95
475.48	6050.28
475.66	6221.14
475.84	6092.41
476.02	6118.16
476.20	6143.91
476.38	6251.57
476.56	6333.49
476.74	6427.11
476.92	6487.96
477.10	6324.13
477.28	6567.54
477.46	6516.05
477.64	6506.69
477.82	6658.82
478.00	6853.09
478.18	6867.13
478.36	7033.31
478.54	7140.97
478.72	7105.87
478.90	7098.84
479.08	7084.80
479.26	7178.42
479.44	7220.55
479.62	7260.34
479.80	7136.29
479.98	7454.61
480.16	7461.63
480.34	7466.31
480.52	7545.89
480.70	7548.23
480.88	7566.95
481.06	7515.46
481.24	7545.89
481.41	7796.32
481.59	7840.79
481.77	7817.39
481.95	7920.37
482.13	7983.57
482.31	8079.53
482.49	8138.04
482.67	8208.26
482.85	8224.64
483.03	8243.37
483.21	8566.36
483.39	8376.78
483.57	8341.67
483.74	8676.37
483.92	8683.39
484.10	8557.00
484.28	9053.19
484.46	8791.05
484.64	9015.74
484.82	8987.66
485.00	8999.36
485.18	9233.41
485.35	9235.75
485.53	9174.90
485.71	9331.72
485.89	9446.40
486.07	9474.49
486.25	9378.53
486.43	9528.32
486.61	9495.55
486.78	9666.41
486.96	9827.91
487.14	10162.61
487.32	10061.96
487.50	10157.92
487.68	10038.56
487.85	10303.04
488.03	10443.47
488.21	10518.37
488.39	10476.24
488.57	10363.89
488.75	10637.73
488.92	10832.00
489.10	10810.93
489.28	10525.39
489.46	10984.13
489.64	10846.04
489.81	11047.33
489.99	11154.99
490.17	11180.74
490.35	11480.33
490.53	11358.62
490.70	11625.44
490.88	11321.17
491.06	11922.69
491.24	11819.71
491.41	11754.17
491.59	11723.74
491.77	11936.73
491.95	12049.08
492.13	12222.28
492.30	12145.04
492.48	12131.00
492.66	12278.45
492.84	12233.98
493.01	12512.50
493.19	12360.37
493.37	12681.02
493.54	12666.98
493.72	12671.66
493.90	12507.82
494.08	12938.48
494.25	12999.34
494.43	12919.76
494.61	13135.09
494.79	13280.20
494.96	13224.03
495.14	13163.17
495.32	13472.12
495.49	13427.65
495.67	13270.84
495.85	13703.84
496.02	13514.25
496.20	13774.05
496.38	13912.14
496.55	13853.63
496.73	14221.10
496.91	14005.77
497.09	14235.14
497.26	14368.55
497.44	14246.84
497.62	14155.56
497.79	14209.39
497.97	14611.96
498.14	14317.06
498.32	14745.38
498.50	14513.66
498.67	14810.91
498.85	14719.63
499.03	14782.82
499.20	14623.67
499.38	14913.89
499.56	14757.08
499.73	15136.24
499.91	15346.89
500.08	15358.60
500.26	15103.48
500.44	15396.04
500.61	15091.77
500.79	15393.70
500.97	15234.55
501.14	15597.33
501.32	15737.76
501.49	15688.61
501.67	15616.05
501.84	15669.89
502.02	15459.24
502.20	15943.73
502.37	15981.18
502.55	16177.78
502.72	16149.70
502.90	15840.75
503.07	15908.62
503.25	16130.97
503.43	16074.80
503.60	16561.63
503.78	16023.31
503.95	16315.87
504.13	16287.79
504.30	16287.79
504.48	16182.46
504.65	16346.30
504.83	16547.59
505.01	16563.97
505.18	16776.96
505.36	17060.16
505.53	16603.76
505.71	16795.68
505.88	16964.20
506.06	16786.32
506.23	16961.86
506.41	17254.43
506.58	17125.70
506.76	17205.28
506.93	17322.30
507.11	17275.49
507.28	17420.61
507.46	17668.70
507.63	17497.84
507.81	17167.83
507.98	17600.83
508.16	17413.59
508.33	17703.81
508.50	17774.03
508.68	17488.48
508.85	17923.82
509.03	17816.16
509.20	17954.25
509.38	18057.23
509.55	18129.79
509.73	17928.50
509.90	18314.69
510.08	18071.28
510.25	17944.89
510.42	18394.27
510.60	18586.19
510.77	18525.34
510.95	18417.68
511.12	18232.77
511.30	18665.77
511.47	18408.31
511.64	18630.66
511.82	18799.18
511.99	18750.03
512.17	18834.29
512.34	18796.84
512.51	18824.93
512.69	19103.45
512.86	19061.32
513.04	19300.06
513.21	19094.09
513.38	19080.05
513.56	19213.46
513.73	19300.06
513.90	19075.37
514.08	19311.76
514.25	19623.05
514.43	19276.65
514.60	19529.43
514.77	19510.71
514.95	19704.97
515.12	19489.64
515.29	19176.01
515.47	20149.67
515.64	19620.71
515.81	19594.96
515.99	19814.98
516.16	20280.74
516.33	20130.95
516.51	19833.70
516.68	20102.86
516.85	20067.75
517.03	20086.48
517.20	20070.09
517.37	20269.04
517.54	20315.85
517.72	20535.86
517.89	20713.74
518.06	20240.95
518.24	20339.26
518.41	20444.58
518.58	20758.21
518.75	20652.89
518.93	20905.66
519.10	20606.08
519.27	20713.74
519.45	20755.87
519.62	20744.17
519.79	20896.30
519.96	20802.68
520.14	20898.64
520.31	20575.65
520.48	20762.89
520.65	21151.42
520.83	21092.91
521.00	21055.46
521.17	21158.44
521.34	21345.69
521.52	21357.39
521.69	21312.92
521.86	21586.76
522.03	21348.03
522.20	21518.89
522.38	21626.55
522.55	21703.79
522.72	21530.59
522.89	21497.82
523.07	21839.54
523.24	21766.98
523.41	21668.68
523.58	21687.40
523.75	22197.64
523.92	21649.96
524.10	21811.45
524.27	22078.27
524.44	21912.10
524.61	22380.20
524.78	22436.38
524.96	22167.21
525.13	22284.24
525.30	22125.08
525.47	22031.46
525.64	22494.89
525.81	22714.90
525.98	22553.40
526.16	22349.78
526.33	22319.35
526.50	22719.58
526.67	22377.86
526.84	22647.02
527.01	22373.18
527.18	22850.65
527.36	22747.67
527.53	22913.84
527.70	22972.36
527.87	23080.02
528.04	22640.00
528.21	22691.49
528.38	22817.88
528.55	22714.90
528.72	23183.01
528.89	23344.50
529.07	23150.24
529.24	22911.50
529.41	23379.61
529.58	23105.77
529.75	23098.75
529.92	23531.75
530.09	23611.32
530.26	23126.83
530.43	23452.17
530.60	23342.16
530.77	23391.31
530.94	23302.37
531.11	23300.03
531.28	23637.07
531.46	23456.85
531.63	23552.81
531.80	23852.40
531.97	23976.45
532.14	24060.71
532.31	23634.73
532.48	23683.88
532.65	23754.10
532.82	23538.77
532.99	23913.25
533.16	23751.76
533.33	23976.45
533.50	24290.08
533.67	23953.04
533.84	23569.19
534.01	24044.32
534.18	23892.19
534.35	24156.67
534.52	23983.47
534.69	24327.53
534.86	24046.66
535.03	24180.07
535.20	24224.54
535.37	24538.18
535.54	24432.85
535.71	24166.03
535.88	24414.13
536.05	24341.57
536.22	24489.03
536.38	24676.27
536.55	24950.11
536.72	24615.41
536.89	24180.07
537.06	24781.59
537.23	24725.42
537.40	24709.04
537.57	24643.50
537.74	24634.14
537.91	25057.78
538.08	25078.84
538.25	24779.25
538.42	24947.77
538.59	25104.59
538.75	24739.46
538.92	24872.87
539.09	24957.13
539.26	24769.89
539.43	25085.86
539.60	25544.61
539.77	24833.08
539.94	25245.02
540.11	25144.38
540.28	25151.40
540.44	25277.79
540.61	25411.20
540.78	25153.74
540.95	25411.20
541.12	25546.95
541.29	25322.26
541.46	25518.86
541.62	25701.42
541.79	25317.57
541.96	25687.38
542.13	25434.60
542.30	25682.70
542.47	25930.80
542.63	25844.20
542.80	25783.34
542.97	26188.25
543.14	25998.67
543.31	25764.62
543.48	25790.36
543.64	26111.02
543.81	26073.57
543.98	26167.19
544.15	26113.36
544.32	26047.82
544.48	26192.94
544.65	26251.45
544.82	26146.12
544.99	25912.07
545.16	26040.80
545.32	25963.56
545.49	26373.16
545.66	26623.59
545.83	26438.69
546.00	26625.93
546.16	26462.10
546.33	26609.55
546.50	26214.00
546.67	25970.58
546.83	25979.95
547.00	26293.58
547.17	26396.56
547.34	26817.86
547.50	26218.68
547.67	26630.62
547.84	26480.82
548.00	26960.63
548.17	26747.64
548.34	26785.09
548.51	27021.48
548.67	27000.42
548.84	27180.64
549.01	26457.42
549.18	26965.31
549.34	26742.96
549.51	26635.30
549.68	26958.29
549.84	27136.17
550.01	27023.83
550.18	27108.08
550.34	27040.21
550.51	27122.13
550.68	27363.20
550.84	26775.73
551.01	27063.61
551.18	27040.21
551.34	26754.66
551.51	27005.10
551.68	27484.91
551.84	27269.58
552.01	27222.77
552.18	27445.12
552.34	27260.22
552.51	27311.71
552.68	27342.14
552.84	27353.84
553.01	27466.19
553.18	27274.26
553.34	27456.82
553.51	27529.38
553.67	27349.16
553.84	27873.44
554.01	27505.98
554.17	27716.62
554.34	27721.30
554.51	27484.91
554.67	27667.47
554.84	27924.93
555.00	27470.87
555.17	27538.74
555.33	27449.80
555.50	27931.95
555.67	27559.81
555.83	27599.60
556.00	27814.93
556.16	27793.86
556.33	27810.25
556.50	27749.39
556.66	28025.57
556.83	27981.10
556.99	28037.28
557.16	28292.40
557.32	28023.23
557.49	28254.95
557.65	27679.18
557.82	27901.53
557.98	27873.44
558.15	27889.82
558.32	28226.86
558.48	28074.73
558.65	28147.28
558.81	28147.28
558.98	27871.10
559.14	28034.94
559.31	28355.59
559.47	27927.27
559.64	28191.75
559.80	28369.63
559.97	28584.96
560.13	28271.33
560.30	28215.16
560.46	28491.34
560.63	28388.36
560.79	28353.25
560.96	28505.38
561.12	28039.62
561.29	28247.93
561.45	28322.82
561.61	28147.28
561.78	28327.50
561.94	28458.57
562.11	28350.91
562.27	28570.92
562.44	28746.46
562.60	28512.41
562.77	28051.32
562.93	28063.02
563.10	28456.23
563.26	28797.95
563.42	28371.97
563.59	28709.01
563.75	28659.86
563.92	28357.93
564.08	28402.40
564.24	28732.42
564.41	28496.02
564.57	28734.76
564.74	28929.02
564.90	28961.79
565.07	28727.74
565.23	28624.75
565.39	29064.77
565.56	28554.54
565.72	28634.11
565.88	28620.07
566.05	28453.89
566.21	28884.55
566.38	28830.72
566.54	28584.96
566.70	28912.64
566.87	29158.39
567.03	28769.86
567.19	29188.82
567.36	28980.51
567.52	28905.62
567.68	29048.39
567.85	29139.67
568.01	28725.39
568.17	28849.44
568.34	29078.82
568.50	29219.25
568.66	28716.03
568.83	29120.95
568.99	28971.15
569.15	28975.83
569.32	29195.84
569.48	29029.66
569.64	29149.03
569.81	29193.50
569.97	28849.44
570.13	29263.72
570.30	28940.72
570.46	29411.17
570.62	29277.76
570.78	28732.42
570.95	28947.75
571.11	29085.84
571.27	29003.92
571.43	29209.89
571.60	28978.17
571.76	28802.63
571.92	29076.48
572.09	29158.39
572.25	29149.03
572.41	29179.46
572.57	29160.73
572.74	29017.96
572.90	28788.59
573.06	29170.10
573.22	28980.51
573.38	29345.64
573.55	29092.86
573.71	29343.30
573.87	29017.96
574.03	29074.13
574.20	28868.17
574.36	28980.51
574.52	29120.95
574.68	28950.09
574.84	29156.05
575.01	29542.24
575.17	29200.52
575.33	28996.90
575.49	29289.46
575.65	29413.51
575.82	29392.45
575.98	29663.95
576.14	29387.77
576.30	29039.03
576.46	29340.96
576.62	29123.29
576.79	29371.38
576.95	29165.42
577.11	29296.49
577.27	29242.65
577.43	29130.31
577.59	29476.71
577.75	29802.04
577.92	29055.41
578.08	29125.63
578.24	29317.55
578.40	29441.60
578.56	29153.71
578.72	29123.29
578.88	29762.25
579.04	29642.88
579.21	29493.09
579.37	29362.02
579.53	29247.33
579.69	29069.45
579.85	29177.12
580.01	29113.92
580.17	28996.90
580.33	29460.32
580.49	29034.35
580.65	29331.59
580.82	29352.66
580.98	29364.36
581.14	29493.09
581.30	29394.79
581.46	29020.30
581.62	29518.84
581.78	29275.42
581.94	29378.40
582.10	29113.92
582.26	28891.57
582.42	29256.70
582.58	29635.86
582.74	29806.72
582.90	29392.45
583.06	29567.99
583.22	29336.27
583.38	29741.19
583.54	29640.54
583.70	29181.80
583.86	29205.20
584.02	29186.48
584.18	29612.46
584.34	29731.83
584.50	29605.44
584.66	29504.79
584.82	29144.35
584.98	29373.72
585.14	29750.55
585.30	29567.99
585.46	29282.44
585.62	29479.05
585.78	29600.76
585.94	29275.42
586.10	29270.74
586.26	29692.04
586.42	29670.97
586.58	29572.67
586.74	29467.34
586.90	29362.02
587.06	29624.16
587.22	29556.28
587.38	28964.13
587.54	29736.51
587.70	29748.21
587.86	29708.42
588.02	29809.06
588.18	29715.44
588.34	29621.82
588.49	29839.49
588.65	29635.86
588.81	29181.80
588.97	29626.50
589.13	29420.53
589.29	29593.73
589.45	29556.28
589.61	29799.70
589.77	29724.80
589.93	29977.58
590.08	30003.33
590.24	29881.62
590.40	29890.98
590.56	29844.17
590.72	30012.69
590.88	29647.57
591.04	29621.82
591.20	30094.61
591.35	29935.45
591.51	30113.33
591.67	29933.11
591.83	30017.37
591.99	29965.88
