SpectraSuite Data File
++++++++++++++++++++++++++++++++++++
Date: Fri Oct 18 13:57:54 GMT-05:00 2013
User: bianchi
Dark Spectrum Present: No
Reference Spectrum Present: No
Number of Sampled Component Spectra: 1
Spectrometers: USB2+H05261
Integration Time (usec): 50000 (USB2+H05261)
Spectra Averaged: 1 (USB2+H05261)
Boxcar Smoothing: 0 (USB2+H05261)
Correct for Electrical Dark: No (USB2+H05261)
Strobe/Lamp Enabled: No (USB2+H05261)
Correct for Detector Non-linearity: No (USB2+H05261)
Correct for Stray Light: No (USB2+H05261)
Number of Pixels in Processed Spectrum: 2048
>>>>>Begin Processed Spectral Data<<<<<
365.73	0.00
365.92	0.00
366.12	0.00
366.32	0.00
366.52	0.00
366.72	0.00
366.91	0.00
367.11	0.00
367.31	0.00
367.51	0.00
367.70	0.00
367.90	0.00
368.10	0.00
368.30	0.00
368.49	0.00
368.69	0.00
368.89	0.00
369.09	0.00
369.28	0.00
369.48	0.00
369.68	0.00
369.87	0.00
370.07	0.00
370.27	0.00
370.47	0.00
370.66	110.01
370.86	93.62
371.06	152.13
371.25	163.84
371.45	124.05
371.65	182.56
371.84	187.24
372.04	168.52
372.24	170.86
372.44	161.50
372.63	229.37
372.83	248.10
373.03	196.60
373.22	231.71
373.42	227.03
373.62	154.48
373.81	210.65
374.01	168.52
374.21	210.65
374.40	205.97
374.60	301.93
374.79	292.57
374.99	208.31
375.19	311.29
375.38	283.20
375.58	259.80
375.78	220.01
375.97	287.89
376.17	292.57
376.37	269.16
376.56	227.03
376.76	304.27
376.95	262.14
377.15	306.61
377.35	271.50
377.54	285.55
377.74	290.23
377.93	236.39
378.13	243.42
378.33	315.97
378.52	351.08
378.72	285.55
378.91	341.72
379.11	299.59
379.31	301.93
379.50	271.50
379.70	243.42
379.89	280.86
380.09	306.61
380.28	252.78
380.48	344.06
380.68	332.36
380.87	248.10
381.07	327.68
381.26	428.32
381.46	325.33
381.65	393.21
381.85	353.42
382.04	351.08
382.24	287.89
382.43	339.38
382.63	325.33
382.83	353.42
383.02	390.87
383.22	414.27
383.41	262.14
383.61	327.68
383.80	369.80
384.00	362.78
384.19	332.36
384.39	397.89
384.58	374.49
384.78	393.21
384.97	421.30
385.17	353.42
385.36	409.59
385.56	322.99
385.75	416.62
385.95	416.62
386.14	409.59
386.34	383.85
386.53	409.59
386.72	351.08
386.92	484.49
387.11	498.53
387.31	428.32
387.50	498.53
387.70	486.83
387.89	440.02
388.09	468.11
388.28	477.47
388.48	479.81
388.67	486.83
388.86	407.25
389.06	493.85
389.25	482.15
389.45	454.06
389.64	468.11
389.84	458.74
390.03	512.58
390.22	519.60
390.42	510.24
390.61	454.06
390.81	512.58
391.00	528.96
391.19	524.28
391.39	617.90
391.58	601.52
391.78	524.28
391.97	550.03
392.16	496.19
392.36	615.56
392.55	578.11
392.75	535.98
392.94	538.32
393.13	601.52
393.33	503.22
393.52	528.96
393.71	671.73
393.91	547.69
394.10	599.18
394.29	638.97
394.49	582.79
394.68	561.73
394.88	568.75
395.07	547.69
395.26	575.77
395.46	648.33
395.65	580.45
395.84	660.03
396.04	702.16
396.23	627.26
396.42	671.73
396.62	685.78
396.81	645.99
397.00	580.45
397.19	688.12
397.39	758.33
397.58	676.41
397.77	702.16
397.97	788.76
398.16	706.84
398.35	683.44
398.55	723.23
398.74	692.80
398.93	678.76
399.12	791.10
399.32	725.57
399.51	699.82
399.70	774.72
399.90	725.57
400.09	734.93
400.28	781.74
400.47	795.78
400.67	791.10
400.86	875.36
401.05	919.83
401.24	772.38
401.44	779.40
401.63	863.66
401.82	882.38
402.01	873.02
402.21	823.87
402.40	863.66
402.59	868.34
402.78	823.87
402.97	847.27
403.17	889.40
403.36	924.51
403.55	866.00
403.74	905.79
403.93	938.55
404.13	905.79
404.32	940.90
404.51	858.98
404.70	1001.75
404.89	971.32
405.09	912.81
405.28	889.40
405.47	961.96
405.66	1034.52
405.85	994.73
406.05	964.30
406.24	1015.79
406.43	1041.54
406.62	978.34
406.81	1158.57
407.00	1071.97
407.20	950.26
407.39	1025.15
407.58	1170.27
407.77	1060.26
407.96	1104.73
408.15	1097.71
408.34	1114.10
408.54	1151.54
408.73	1177.29
408.92	983.02
409.11	1083.67
409.30	1158.57
409.49	1198.35
409.68	1174.95
409.87	1233.46
410.07	1254.53
410.26	1226.44
410.45	1177.29
410.64	1198.35
410.83	1273.25
411.02	1242.82
411.21	1252.19
411.40	1310.70
411.59	1359.85
411.78	1280.27
411.98	1273.25
412.17	1275.59
412.36	1270.91
412.55	1371.55
412.74	1320.06
412.93	1378.58
413.12	1423.05
413.31	1350.49
413.50	1299.00
413.69	1315.38
413.88	1446.45
414.07	1418.36
414.26	1495.60
414.45	1483.90
414.64	1495.60
414.83	1603.27
415.02	1547.09
415.22	1675.82
415.41	1626.67
415.60	1579.86
415.79	1666.46
415.98	1537.73
416.17	1584.54
416.36	1610.29
416.55	1645.40
416.74	1671.14
416.93	1678.16
417.12	1764.76
417.31	1682.85
417.50	1715.61
417.69	1757.74
417.88	1732.00
418.07	1682.85
418.26	1743.70
418.45	1783.49
418.64	1834.98
418.83	1942.64
419.02	1809.23
419.21	1774.13
419.39	1907.54
419.58	1774.13
419.77	1771.79
419.96	1980.09
420.15	1804.55
420.34	1923.92
420.53	2017.54
420.72	2122.87
420.91	2045.63
421.10	2019.88
421.29	1989.46
421.48	1919.24
421.67	2036.27
421.86	2015.20
422.05	1989.46
422.24	1916.90
422.43	1966.05
422.61	2019.88
422.80	1994.14
422.99	2106.48
423.18	2054.99
423.37	2153.29
423.56	2045.63
423.75	1909.88
423.94	2003.50
424.13	1933.28
424.32	1975.41
424.50	2057.33
424.69	2087.76
424.88	2080.74
425.07	2106.48
425.26	2087.76
425.45	2045.63
425.64	2062.01
425.83	2115.84
426.01	2230.53
426.20	2085.42
426.39	2111.16
426.58	2129.89
426.77	2155.63
426.96	2092.44
427.15	2183.72
427.33	2326.49
427.52	2218.83
427.71	2181.38
427.90	2249.25
428.09	2298.41
428.28	2190.74
428.46	2324.15
428.65	2239.89
428.84	2359.26
429.03	2356.92
429.22	2293.72
429.40	2296.07
429.59	2401.39
429.78	2195.42
429.97	2221.17
430.16	2347.56
430.34	2363.94
430.53	2455.22
430.72	2413.09
430.91	2363.94
431.10	2359.26
431.28	2490.33
431.47	2490.33
431.66	2497.35
431.85	2480.97
432.03	2588.63
432.22	2633.10
432.41	2619.06
432.60	2523.10
432.79	2555.86
432.97	2621.40
433.16	2523.10
433.35	2464.58
433.54	2518.42
433.72	2593.31
433.91	2502.03
434.10	2506.71
434.28	2619.06
434.47	2642.46
434.66	2696.30
434.85	2633.10
435.03	2588.63
435.22	2693.96
435.41	2839.07
435.59	2675.23
435.78	2750.13
435.97	2768.85
436.16	2710.34
436.34	2630.76
436.53	2698.64
436.72	2803.96
436.90	2630.76
437.09	2825.03
437.28	2698.64
437.46	2787.58
437.65	2799.28
437.84	2867.16
438.02	2841.41
438.21	2881.20
438.40	2834.39
438.58	2855.45
438.77	2981.84
438.96	2963.12
439.14	2895.24
439.33	3005.25
439.52	2942.05
439.70	3141.00
439.89	3183.13
440.08	3061.42
440.26	3129.30
440.45	3087.17
440.63	3171.43
440.82	3141.00
441.01	3159.72
441.19	3260.37
441.38	3398.46
441.57	3194.83
441.75	3349.31
441.94	3283.77
442.12	3473.36
442.31	3410.16
442.50	3468.67
442.68	3351.65
442.87	3337.60
443.05	3471.01
443.24	3471.01
443.43	3445.27
443.61	3473.36
443.80	3529.53
443.98	3449.95
444.17	3311.86
444.35	3382.07
444.54	3529.53
444.73	3578.68
444.91	3552.93
445.10	3658.26
445.28	3496.76
445.47	3356.33
445.65	3592.72
445.84	3590.38
446.02	3538.89
446.21	3421.86
446.39	3557.61
446.58	3590.38
446.77	3602.08
446.95	3648.90
447.14	3625.49
447.32	3557.61
447.51	3595.06
447.69	3632.51
447.88	3585.70
448.06	3559.95
448.25	3550.59
448.43	3557.61
448.62	3597.40
448.80	3737.84
448.99	3665.28
449.17	3744.86
449.36	3709.75
449.54	3817.41
449.73	3730.81
449.91	3784.65
450.10	3843.16
450.28	3789.33
450.46	4032.74
450.65	3812.73
450.83	3913.38
451.02	3803.37
451.20	3864.22
451.39	3911.04
451.57	4028.06
451.76	3817.41
451.94	3786.99
452.13	4107.64
452.31	4053.81
452.49	3840.82
452.68	3904.01
452.86	4121.68
453.05	4056.15
453.23	4086.58
453.42	3943.80
453.60	3941.46
453.78	4002.32
453.97	4140.41
454.15	4018.70
454.34	3997.64
454.52	4147.43
454.70	4105.30
454.89	4257.43
455.07	4266.80
455.26	4194.24
455.44	4205.94
455.62	4184.88
455.81	4102.96
455.99	4124.02
456.17	4189.56
456.36	4318.29
456.54	4175.52
456.73	4329.99
456.91	4463.40
457.09	4484.47
457.28	4454.04
457.46	4463.40
457.64	4493.83
457.83	4367.44
458.01	4383.82
458.19	4465.74
458.38	4517.23
458.56	4603.83
458.74	4489.15
458.93	4472.76
459.11	4688.09
459.29	4774.69
459.48	4521.92
459.66	4615.54
459.84	4568.73
460.03	4695.11
460.21	4704.48
460.39	4685.75
460.57	4723.20
460.76	4758.31
460.94	4725.54
461.12	4812.14
461.31	4732.56
461.49	4861.29
461.67	4704.48
461.85	4887.04
462.04	4784.06
462.22	5142.16
462.40	4873.00
462.59	4931.51
462.77	4894.06
462.95	4809.80
463.13	4952.57
463.32	4929.17
463.50	4896.40
463.68	4997.04
463.86	5039.17
464.05	4922.15
464.23	5158.54
464.41	5081.30
464.59	4901.08
464.78	5039.17
464.96	5114.07
465.14	5069.60
465.32	5238.12
465.50	4931.51
465.69	5048.54
465.87	5193.65
466.05	5207.69
466.23	5247.48
466.41	5217.05
466.60	5123.43
466.78	5186.63
466.96	5191.31
467.14	5226.42
467.32	5060.24
467.51	5383.23
467.69	5247.48
467.87	5371.53
468.05	5364.51
468.23	5359.83
468.41	5210.03
468.60	5313.02
468.78	5568.13
468.96	5282.59
469.14	5418.34
469.32	5387.91
469.50	5378.55
469.69	5430.04
469.87	5556.43
470.05	5561.11
470.23	5509.62
470.41	5593.88
470.59	5710.91
470.77	5617.29
470.95	5591.54
471.14	5804.53
471.32	5631.33
471.50	5682.82
471.68	5872.40
471.86	5996.45
472.04	5813.89
472.22	5795.17
472.40	5673.46
472.58	5823.25
472.77	5820.91
472.95	6026.88
473.13	6307.74
473.31	5916.87
473.49	5998.79
473.67	6015.18
473.85	6186.04
474.03	6108.80
474.21	6092.41
474.39	6228.17
474.57	6282.00
474.75	6293.70
474.93	6270.30
475.12	6366.26
475.30	6321.79
475.48	6223.48
475.66	6450.52
475.84	6513.71
476.02	6586.27
476.20	6448.18
476.38	6619.04
476.56	6724.36
476.74	6574.56
476.92	6738.40
477.10	6715.00
477.28	6883.52
477.46	6855.43
477.64	6946.71
477.82	6993.52
478.00	7220.55
478.18	7077.78
478.36	7171.40
478.54	7368.01
478.72	7454.61
478.90	7236.94
479.08	7431.20
479.26	7552.91
479.44	7588.02
479.62	7728.45
479.80	7431.20
479.98	7447.58
480.16	7728.45
480.34	7679.30
480.52	7754.19
480.70	7815.05
480.88	7894.63
481.06	7953.14
481.24	7751.85
481.41	8161.45
481.59	8121.66
481.77	8369.76
481.95	8222.30
482.13	8285.50
482.31	8290.18
482.49	8465.72
482.67	8425.93
482.85	8608.49
483.03	8648.28
483.21	8999.36
483.39	8905.74
483.57	8842.54
483.74	8779.35
483.92	8936.17
484.10	9015.74
484.28	9064.89
484.46	9411.29
484.64	9364.48
484.82	9275.54
485.00	9437.04
485.18	9490.87
485.35	9671.09
485.53	9750.67
485.71	9701.52
485.89	10038.56
486.07	9806.84
486.25	9738.97
486.43	9905.15
486.61	10115.80
486.78	10059.62
486.96	10181.33
487.14	10326.44
487.32	10438.79
487.50	10619.01
487.68	10403.68
487.85	10647.10
488.03	10757.10
488.21	11040.31
488.39	10923.28
488.57	10801.57
488.75	11068.39
488.92	11059.03
489.10	11309.47
489.28	11276.70
489.46	11501.39
489.64	11279.04
489.81	11501.39
489.99	11707.36
490.17	11674.59
490.35	12070.14
490.53	11983.54
490.70	11946.09
490.88	12035.03
491.06	12215.26
491.24	12109.93
491.41	11981.20
491.59	12453.99
491.77	12322.92
491.95	12470.37
492.13	12657.62
492.30	12840.18
492.48	12697.41
492.66	12774.64
492.84	12690.38
493.01	12982.95
493.19	12837.84
493.37	13235.73
493.54	13167.85
493.72	13186.58
493.90	13429.99
494.08	13357.44
494.25	13556.38
494.43	13371.48
494.61	13472.12
494.79	13685.11
494.96	13865.33
495.14	13804.48
495.32	13919.17
495.49	14052.58
495.67	13956.61
495.85	14410.68
496.02	14160.24
496.20	14459.83
496.38	14572.18
496.55	14361.53
496.73	14654.09
496.91	14661.12
497.09	14597.92
497.26	14665.80
497.44	14637.71
497.62	14813.25
497.79	15133.90
497.97	15023.90
498.14	15129.22
498.32	15049.64
498.50	15262.63
498.67	15241.57
498.85	15297.74
499.03	15667.55
499.20	15391.36
499.38	15602.01
499.56	15592.65
499.73	16126.29
499.91	15896.92
500.08	15749.46
500.26	15960.11
500.44	16013.95
500.61	16116.93
500.79	16168.42
500.97	16287.79
501.14	16414.18
501.32	16273.74
501.49	16383.75
501.67	16276.09
501.84	16542.91
502.02	16425.88
502.20	16608.44
502.37	16826.11
502.55	16744.19
502.72	16704.40
502.90	16795.68
503.07	16950.16
503.25	16952.50
503.43	16816.75
503.60	17057.82
503.78	16950.16
503.95	17062.51
504.13	17345.71
504.30	17561.04
504.48	17001.65
504.65	17584.44
504.83	17495.50
505.01	17678.07
505.18	17448.69
505.36	17598.49
505.53	17598.49
505.71	17497.84
505.88	17762.33
506.06	17586.79
506.23	18125.11
506.41	17827.86
506.58	17942.55
506.76	18106.38
506.93	17820.84
507.11	17994.04
507.28	18111.07
507.46	18354.48
507.63	18363.84
507.81	18551.09
507.98	18429.38
508.16	18501.93
508.33	18532.36
508.50	18377.89
508.68	18642.37
508.85	19028.56
509.03	18799.18
509.20	18773.44
509.38	19098.77
509.55	18934.93
509.73	19000.47
509.90	18860.04
510.08	18853.02
510.25	18967.70
510.42	19042.60
510.60	19513.05
510.77	19377.30
510.95	19281.33
511.12	19243.88
511.30	19161.97
511.47	19655.82
511.64	19393.68
511.82	19784.55
511.99	19770.51
512.17	19793.91
512.34	20105.20
512.51	19847.74
512.69	20102.86
512.86	19592.62
513.04	20058.39
513.21	20114.56
513.38	20006.90
513.56	20072.43
513.73	19758.80
513.90	20283.08
514.08	20121.59
514.25	20643.52
514.43	20449.26
514.60	20568.63
514.77	20512.46
514.95	20781.62
515.12	20589.69
515.29	20306.49
515.47	20985.24
515.64	20596.71
515.81	20922.05
515.99	20844.81
516.16	21003.97
516.33	21015.67
516.51	20971.20
516.68	20933.75
516.85	21006.31
517.03	20966.52
517.20	21263.77
517.37	21109.29
517.54	21280.15
517.72	21118.65
517.89	20999.29
518.06	21270.79
518.24	21518.89
518.41	21298.88
518.58	21366.75
518.75	21589.10
518.93	21755.28
519.10	21532.93
519.27	21610.17
519.45	21827.84
519.62	21914.44
519.79	21867.63
519.96	21680.38
520.14	21839.54
520.31	21961.25
520.48	22019.76
520.65	22331.05
520.83	22195.30
521.00	21933.16
521.17	22326.37
521.34	22026.78
521.52	22340.41
521.69	22464.46
521.86	22302.96
522.03	22941.93
522.20	22424.67
522.38	22607.23
522.55	22710.22
522.72	22745.33
522.89	22932.57
523.07	22920.87
523.24	22925.55
523.41	23070.66
523.58	22841.29
523.75	23145.56
523.92	22899.80
524.10	22761.71
524.27	23344.50
524.44	23307.05
524.61	23248.54
524.78	23370.25
524.96	23152.58
525.13	23307.05
525.30	23433.44
525.47	23529.41
525.64	23295.35
525.81	23634.73
525.98	23618.35
526.16	23491.96
526.33	23555.15
526.50	23747.08
526.67	23283.65
526.84	23531.75
527.01	23543.45
527.18	23878.15
527.36	23913.25
527.53	23707.29
527.70	24112.20
527.87	24013.90
528.04	24056.03
528.21	24034.96
528.38	23744.73
528.55	23901.55
528.72	24329.87
528.89	24369.66
529.07	24362.64
529.24	24095.82
529.41	24226.89
529.58	24322.85
529.75	24226.89
529.92	24294.76
530.09	24257.31
530.26	24631.80
530.43	24599.03
530.60	24687.97
530.77	24699.67
530.94	24346.25
531.11	24596.69
531.28	24802.66
531.46	24655.20
531.63	24889.26
531.80	25099.90
531.97	25191.19
532.14	25137.35
532.31	24868.19
532.48	24865.85
532.65	24826.06
532.82	25060.12
532.99	24847.13
533.16	24872.87
533.33	25340.98
533.50	25462.69
533.67	24987.56
533.84	25212.25
534.01	25415.88
534.18	25006.28
534.35	25741.21
534.52	25099.90
534.69	25338.64
534.86	25755.26
535.03	25343.32
535.20	25488.43
535.37	25741.21
535.54	25425.24
535.71	25256.72
535.88	25731.85
536.05	25301.19
536.22	25734.19
536.38	25820.79
536.55	25874.62
536.72	25755.26
536.89	26005.69
537.06	25642.91
537.23	26111.02
537.40	25912.07
537.57	26082.93
537.74	26082.93
537.91	26291.24
538.08	26281.88
538.25	26251.45
538.42	26335.71
538.59	26576.78
538.75	26302.94
538.92	25853.56
539.09	26387.20
539.26	26239.75
539.43	26326.35
539.60	26448.05
539.77	26319.32
539.94	26415.29
540.11	26450.39
540.28	26639.98
540.44	26761.69
540.61	26551.04
540.78	26466.78
540.95	26469.12
541.12	26801.47
541.29	26855.31
541.46	26686.79
541.62	26890.41
541.79	26749.98
541.96	26515.93
542.13	26567.42
542.30	27007.44
542.47	26927.86
542.63	27005.10
542.80	27077.66
542.97	27365.54
543.14	27316.39
543.31	27461.51
543.48	27419.38
543.64	27466.19
543.81	27278.94
543.98	27531.72
544.15	27728.33
544.32	27674.49
544.48	27716.62
544.65	27604.28
544.82	27484.91
544.99	27098.72
545.16	27683.86
545.32	27405.33
545.49	27630.02
545.66	27751.73
545.83	28011.53
546.00	28041.96
546.16	28098.13
546.33	27559.81
546.50	27564.49
546.67	27723.65
546.83	27225.11
547.00	27866.42
547.17	27929.61
547.34	27800.88
547.50	28268.99
547.67	28283.03
547.84	28198.77
548.00	28112.17
548.17	28526.45
548.34	27871.10
548.51	28177.71
548.67	28191.75
548.84	28222.18
549.01	28142.60
549.18	27793.86
549.34	28458.57
549.51	28051.32
549.68	28690.29
549.84	28243.24
550.01	27835.99
550.18	28063.02
550.34	28414.10
550.51	28236.22
550.68	28528.79
550.84	28226.86
551.01	28418.78
551.18	28643.48
551.34	28177.71
551.51	28453.89
551.68	28379.00
551.84	28683.27
552.01	28814.34
552.18	29057.75
552.34	28402.40
552.51	28999.24
552.68	28706.67
552.84	28718.37
553.01	28863.49
553.18	28627.09
553.34	29097.54
553.51	29326.91
553.67	29137.33
553.84	29338.62
554.01	28917.32
554.17	29188.82
554.34	29226.27
554.51	28671.56
554.67	29074.13
554.84	29273.08
555.00	29200.52
555.17	29312.87
555.33	29057.75
555.50	28933.70
555.67	29378.40
555.83	29142.01
556.00	29074.13
556.16	29364.36
556.33	29415.85
556.50	29156.05
556.66	29570.33
556.83	29357.34
556.99	29743.53
557.16	29790.34
557.32	29841.83
557.49	29453.30
557.65	29083.50
557.82	29715.44
557.98	29539.90
558.15	29539.90
558.32	29762.25
558.48	29450.96
558.65	29919.07
558.81	29886.30
558.98	29537.56
559.14	29645.23
559.31	29795.02
559.47	29687.36
559.64	29977.58
559.80	29717.78
559.97	29949.50
560.13	29736.51
560.30	30218.66
560.46	29851.19
560.63	30071.20
560.79	29818.42
560.96	29755.23
561.12	30181.21
561.29	29900.34
561.45	30040.78
561.61	29797.36
561.78	30291.21
561.94	30162.48
562.11	30064.18
562.27	30347.39
562.44	29874.60
562.60	29879.28
562.77	30019.71
562.93	29914.39
563.10	30462.07
563.26	30265.47
563.42	30717.19
563.59	30590.80
563.75	30029.07
563.92	30120.35
564.08	30368.45
564.24	30246.74
564.41	30040.78
564.57	30024.39
564.74	30487.82
564.90	30560.37
565.07	30480.80
565.23	30412.92
565.39	30108.65
565.56	30637.61
565.72	30265.47
565.88	30569.74
566.05	30223.34
566.21	30326.32
566.38	30213.98
566.54	30181.21
566.70	30464.41
566.87	30567.40
567.03	30646.97
567.19	30445.69
567.36	30361.43
567.52	30415.26
567.68	30429.30
567.85	30382.49
568.01	30384.83
568.17	30403.56
568.34	30469.09
568.50	30497.18
568.66	30527.61
568.83	30623.57
568.99	30546.33
569.15	30838.90
569.32	30560.37
569.48	30522.93
569.64	30874.01
569.81	30387.18
569.97	30675.06
570.13	30930.18
570.30	30314.62
570.46	30511.22
570.62	30642.29
570.78	30824.86
570.95	30560.37
571.11	30478.46
571.27	30256.11
571.43	30607.19
571.60	30466.75
571.76	30560.37
571.92	30658.68
572.09	30497.18
572.25	31096.36
572.41	31285.94
572.57	30799.11
572.74	31222.75
572.90	30682.08
573.06	30614.21
573.22	30726.55
573.38	30892.73
573.55	31096.36
573.71	31529.36
573.87	30951.24
574.03	30637.61
574.20	30717.19
574.36	30682.08
574.52	30480.80
574.68	31028.48
574.84	30780.39
575.01	30609.53
575.17	30693.79
575.33	31269.56
575.49	30895.07
575.65	30969.97
575.82	30890.39
575.98	31234.45
576.14	30948.90
576.30	30841.24
576.46	30698.47
576.62	30672.72
576.79	31084.65
576.95	30579.10
577.11	31103.38
577.27	31138.49
577.43	31098.70
577.59	31405.31
577.75	30939.54
577.92	30941.88
578.08	30962.95
578.24	30962.95
578.40	30895.07
578.56	31094.02
578.72	30883.37
578.88	31108.06
579.04	31236.79
579.21	31026.14
579.37	30609.53
579.53	30843.58
579.69	30691.44
579.85	31091.68
580.01	30808.47
580.17	30637.61
580.33	30904.43
580.49	31159.55
580.65	30916.14
580.82	31152.53
580.98	31318.71
581.14	30953.58
581.30	30852.94
581.46	30724.21
581.62	31314.03
581.78	31084.65
581.94	31143.17
582.10	31016.78
582.26	31428.71
582.42	31091.68
582.58	31426.37
582.74	31026.14
582.90	31161.89
583.06	31292.96
583.22	31187.64
583.38	31049.55
583.54	31232.11
583.70	30998.06
583.86	31187.64
584.02	31487.23
584.18	31126.78
584.34	31297.64
584.50	31164.23
584.66	31456.80
584.82	30967.63
584.98	31204.02
585.14	31381.90
585.30	30911.46
585.46	30831.88
585.62	31381.90
585.78	31285.94
585.94	31009.76
586.10	31213.38
586.26	31552.76
586.42	31255.51
586.58	31735.32
586.74	31175.94
586.90	30850.60
587.06	30937.20
587.22	31454.46
587.38	31061.25
587.54	31021.46
587.70	31339.77
587.86	31358.50
588.02	31384.24
588.18	31534.04
588.34	31440.42
588.49	30946.56
588.65	30948.90
588.81	31063.59
588.97	31307.01
589.13	31260.20
589.29	31274.24
589.45	31304.67
589.61	31620.64
589.77	31845.33
589.93	31735.32
590.08	31784.48
590.24	31665.11
590.40	31243.81
590.56	31594.89
590.72	31601.91
590.88	31194.66
591.04	31215.72
591.20	31700.22
591.35	31735.32
591.51	32112.15
591.67	31578.51
591.83	31871.07
