SpectraSuite Data File
++++++++++++++++++++++++++++++++++++
Date: Fri Oct 18 13:58:14 GMT-05:00 2013
User: bianchi
Dark Spectrum Present: No
Reference Spectrum Present: No
Number of Sampled Component Spectra: 1
Spectrometers: USB2+H05261
Integration Time (usec): 50000 (USB2+H05261)
Spectra Averaged: 1 (USB2+H05261)
Boxcar Smoothing: 0 (USB2+H05261)
Correct for Electrical Dark: No (USB2+H05261)
Strobe/Lamp Enabled: No (USB2+H05261)
Correct for Detector Non-linearity: No (USB2+H05261)
Correct for Stray Light: No (USB2+H05261)
Number of Pixels in Processed Spectrum: 2048
>>>>>Begin Processed Spectral Data<<<<<
365.73	0.00
365.92	0.00
366.12	0.00
366.32	0.00
366.52	0.00
366.72	0.00
366.91	0.00
367.11	0.00
367.31	0.00
367.51	0.00
367.70	0.00
367.90	0.00
368.10	0.00
368.30	0.00
368.49	0.00
368.69	0.00
368.89	0.00
369.09	0.00
369.28	0.00
369.48	0.00
369.68	0.00
369.87	0.00
370.07	0.00
370.27	0.00
370.47	0.00
370.66	91.28
370.86	135.75
371.06	135.75
371.25	149.79
371.45	79.58
371.65	166.18
371.84	119.37
372.04	79.58
372.24	107.66
372.44	156.82
372.63	184.90
372.83	187.24
373.03	173.20
373.22	205.97
373.42	191.92
373.62	205.97
373.81	215.33
374.01	248.10
374.21	250.44
374.40	278.52
374.60	266.82
374.79	210.65
374.99	208.31
375.19	208.31
375.38	222.35
375.58	297.25
375.78	224.69
375.97	210.65
376.17	238.73
376.37	238.73
376.56	245.76
376.76	318.31
376.95	311.29
377.15	229.37
377.35	241.08
377.54	252.78
377.74	276.18
377.93	222.35
378.13	266.82
378.33	238.73
378.52	297.25
378.72	259.80
378.91	252.78
379.11	280.86
379.31	191.92
379.50	287.89
379.70	334.70
379.89	255.12
380.09	292.57
380.28	234.05
380.48	262.14
380.68	315.97
380.87	327.68
381.07	304.27
381.26	327.68
381.46	348.74
381.65	325.33
381.85	290.23
382.04	327.68
382.24	360.44
382.43	358.10
382.63	306.61
382.83	360.44
383.02	379.17
383.22	320.65
383.41	358.10
383.61	320.65
383.80	393.21
384.00	341.72
384.19	346.40
384.39	332.36
384.58	360.44
384.78	311.29
384.97	376.83
385.17	360.44
385.36	365.12
385.56	437.68
385.75	365.12
385.95	383.85
386.14	414.27
386.34	390.87
386.53	404.91
386.72	435.34
386.92	475.13
387.11	346.40
387.31	463.43
387.50	472.79
387.70	353.42
387.89	454.06
388.09	376.83
388.28	383.85
388.48	376.83
388.67	421.30
388.86	465.77
389.06	416.62
389.25	470.45
389.45	491.51
389.64	447.04
389.84	498.53
390.03	489.17
390.22	451.72
390.42	484.49
390.61	421.30
390.81	505.56
391.00	512.58
391.19	545.34
391.39	489.17
391.58	505.56
391.78	465.77
391.97	526.62
392.16	425.98
392.36	566.41
392.55	524.28
392.75	512.58
392.94	482.15
393.13	526.62
393.33	568.75
393.52	587.47
393.71	592.16
393.91	580.45
394.10	538.32
394.29	575.77
394.49	627.26
394.68	615.56
394.88	608.54
395.07	601.52
395.26	636.63
395.46	617.90
395.65	634.29
395.84	685.78
396.04	704.50
396.23	589.82
396.42	669.39
396.62	662.37
396.81	655.35
397.00	664.71
397.19	751.31
397.39	699.82
397.58	594.50
397.77	634.29
397.97	648.33
398.16	664.71
398.35	650.67
398.55	645.99
398.74	706.84
398.93	746.63
399.12	788.76
399.32	739.61
399.51	704.50
399.70	674.07
399.90	702.16
400.09	765.36
400.28	842.59
400.47	725.57
400.67	802.80
400.86	784.08
401.05	711.52
401.24	844.93
401.44	826.21
401.63	805.14
401.82	795.78
402.01	805.14
402.21	788.76
402.40	894.08
402.59	760.67
402.78	821.53
402.97	884.72
403.17	847.27
403.36	875.36
403.55	952.60
403.74	889.40
403.93	950.26
404.13	856.64
404.32	800.46
404.51	861.32
404.70	938.55
404.89	851.96
405.09	943.24
405.28	933.87
405.47	957.28
405.66	924.51
405.85	1022.81
406.05	891.74
406.24	1001.75
406.43	990.05
406.62	1020.47
406.81	1184.31
407.00	1022.81
407.20	954.94
407.39	971.32
407.58	971.32
407.77	1130.48
407.96	1076.65
408.15	1123.46
408.34	1083.67
408.54	1146.86
408.73	1043.88
408.92	1125.80
409.11	1076.65
409.30	1139.84
409.49	1132.82
409.68	1114.10
409.87	1177.29
410.07	1196.01
410.26	1156.22
410.45	1165.59
410.64	1247.51
410.83	1174.95
411.02	1273.25
411.21	1259.21
411.40	1273.25
411.59	1313.04
411.78	1214.74
411.98	1268.57
412.17	1256.87
412.36	1291.98
412.55	1343.47
412.74	1338.79
412.93	1423.05
413.12	1350.49
413.31	1437.09
413.50	1390.28
413.69	1455.81
413.88	1427.73
414.07	1392.62
414.26	1397.30
414.45	1411.34
414.64	1495.60
414.83	1448.79
415.02	1404.32
415.22	1540.07
415.41	1523.69
415.60	1530.71
415.79	1603.27
415.98	1563.48
416.17	1659.44
416.36	1596.25
416.55	1638.38
416.74	1575.18
416.93	1650.08
417.12	1624.33
417.31	1724.97
417.50	1724.97
417.69	1734.34
417.88	1748.38
418.07	1797.53
418.26	1776.47
418.45	1785.83
418.64	1689.87
418.83	1863.07
419.02	1774.13
419.21	1776.47
419.39	1872.43
419.58	1830.30
419.77	1909.88
419.96	1799.87
420.15	1832.64
420.34	1788.17
420.53	1853.70
420.72	1877.11
420.91	1923.92
421.10	1923.92
421.29	2005.84
421.48	1874.77
421.67	1991.80
421.86	1977.75
422.05	1987.11
422.24	1996.48
422.43	1994.14
422.61	2050.31
422.80	1984.77
422.99	2036.27
423.18	2050.31
423.37	1963.71
423.56	2031.58
423.75	1949.67
423.94	2043.29
424.13	1888.81
424.32	1860.73
424.50	1966.05
424.69	2083.08
424.88	2169.68
425.07	2122.87
425.26	1959.03
425.45	1930.94
425.64	2083.08
425.83	2108.82
426.01	2134.57
426.20	2099.46
426.39	2019.88
426.58	2078.40
426.77	2197.76
426.96	2092.44
427.15	2146.27
427.33	2167.34
427.52	2157.97
427.71	2155.63
427.90	2136.91
428.09	2193.08
428.28	2190.74
428.46	2197.76
428.65	2324.15
428.84	2169.68
429.03	2282.02
429.22	2120.53
429.40	2127.55
429.59	2235.21
429.78	2172.02
429.97	2207.13
430.16	2342.88
430.34	2244.57
430.53	2382.67
430.72	2401.39
430.91	2298.41
431.10	2314.79
431.28	2450.54
431.47	2436.50
431.66	2417.77
431.85	2385.01
432.03	2310.11
432.22	2520.76
432.41	2356.92
432.60	2380.32
432.79	2495.01
432.97	2448.20
433.16	2562.89
433.35	2495.01
433.54	2483.31
433.72	2633.10
433.91	2518.42
434.10	2551.18
434.28	2523.10
434.47	2466.92
434.66	2630.76
434.85	2574.59
435.03	2633.10
435.22	2590.97
435.41	2759.49
435.59	2715.02
435.78	2670.55
435.97	2705.66
436.16	2715.02
436.34	2656.51
436.53	2717.36
436.72	2801.62
436.90	2649.49
437.09	2810.98
437.28	2759.49
437.46	2682.25
437.65	2733.75
437.84	2848.43
438.02	2789.92
438.21	2874.18
438.40	2860.13
438.58	2881.20
438.77	2820.35
438.96	2757.15
439.14	2916.31
439.33	2895.24
439.52	2958.44
439.70	3070.78
439.89	3014.61
440.08	2993.55
440.26	3148.02
440.45	3016.95
440.63	3148.02
440.82	3124.62
441.01	3281.43
441.19	3084.83
441.38	3190.15
441.57	3262.71
441.75	3318.88
441.94	3304.84
442.12	3325.90
442.31	3300.16
442.50	3396.12
442.68	3220.58
442.87	3304.84
443.05	3274.41
443.24	3225.26
443.43	3410.16
443.61	3314.20
443.80	3588.04
443.98	3405.48
444.17	3267.39
444.35	3459.31
444.54	3368.03
444.73	3485.06
444.91	3480.38
445.10	3536.55
445.28	3400.80
445.47	3400.80
445.65	3246.32
445.84	3510.80
446.02	3478.04
446.21	3520.17
446.39	3398.46
446.58	3492.08
446.77	3581.02
446.95	3447.61
447.14	3501.44
447.32	3529.53
447.51	3531.87
447.69	3541.23
447.88	3513.14
448.06	3562.30
448.25	3576.34
448.43	3632.51
448.62	3480.38
448.80	3641.87
448.99	3676.98
449.17	3459.31
449.36	3538.89
449.54	3730.81
449.73	3744.86
449.91	3779.97
450.10	3665.28
450.28	3794.01
450.46	3761.24
450.65	3707.41
450.83	3794.01
451.02	3733.15
451.20	3784.65
451.39	3719.11
451.57	3801.03
451.76	3932.10
451.94	4011.68
452.13	3971.89
452.31	3843.16
452.49	3721.45
452.68	3885.29
452.86	3896.99
453.05	4002.32
453.23	3892.31
453.42	4049.13
453.60	3920.40
453.78	4002.32
453.97	3861.88
454.15	3997.64
454.34	3901.67
454.52	3990.61
454.70	4011.68
454.89	3929.76
455.07	4060.83
455.26	4044.45
455.44	4170.83
455.62	4109.98
455.81	4109.98
455.99	4140.41
456.17	4119.34
456.36	4180.20
456.54	4198.92
456.73	4264.46
456.91	4383.82
457.09	4400.21
457.28	4493.83
457.46	4381.48
457.64	4510.21
457.83	4404.89
458.01	4306.59
458.19	4463.40
458.38	4297.22
458.56	4510.21
458.74	4472.76
458.93	4383.82
459.11	4550.00
459.29	4404.89
459.48	4517.23
459.66	4535.96
459.84	4592.13
460.03	4603.83
460.21	4491.49
460.39	4629.58
460.57	4524.26
460.76	4582.77
460.94	4678.73
461.12	4652.98
461.31	4875.34
461.49	4718.52
461.67	4610.86
461.85	4800.44
462.04	4774.69
462.22	4945.55
462.40	4809.80
462.59	4828.53
462.77	4807.46
462.95	4814.48
463.13	4835.55
463.32	4781.71
463.50	4903.42
463.68	4940.87
463.86	4905.76
464.05	4887.04
464.23	4847.25
464.41	4994.70
464.59	4919.81
464.78	4919.81
464.96	5001.72
465.14	4968.96
465.32	5069.60
465.50	5004.07
465.69	5097.69
465.87	5097.69
466.05	5078.96
466.23	5263.86
466.41	5139.82
466.60	5256.84
466.78	5139.82
466.96	5085.98
467.14	5022.79
467.32	5153.86
467.51	5261.52
467.69	5039.17
467.87	5149.18
468.05	5100.03
468.23	5137.48
468.41	5179.61
468.60	5174.92
468.78	5350.46
468.96	5139.82
469.14	5294.29
469.32	5345.78
469.50	5158.54
469.69	5378.55
469.87	5294.29
470.05	5523.66
470.23	5373.87
470.41	5479.19
470.59	5502.60
470.77	5537.71
470.95	5572.82
471.14	5614.95
471.32	5469.83
471.50	5699.20
471.68	5652.39
471.86	5689.84
472.04	5664.10
472.22	5872.40
472.40	5671.12
472.58	5687.50
472.77	5685.16
472.95	5996.45
473.13	6167.31
473.31	5865.38
473.49	5830.27
473.67	5795.17
473.85	5790.49
474.03	6026.88
474.21	6012.84
474.39	5989.43
474.57	6118.16
474.75	6008.16
474.93	6319.45
475.12	6012.84
475.30	6155.61
475.48	6167.31
475.66	6202.42
475.84	6410.73
476.02	6387.32
476.20	6394.34
476.38	6399.02
476.56	6640.10
476.74	6565.20
476.92	6626.06
477.10	6715.00
477.28	6619.04
477.46	6736.06
477.64	6836.70
477.82	6836.70
478.00	6874.15
478.18	6998.20
478.36	6984.16
478.54	7232.26
478.72	7117.57
478.90	7084.80
479.08	7250.98
479.26	7297.79
479.44	7449.93
479.62	7309.49
479.80	7286.09
479.98	7583.34
480.16	7665.25
480.34	7480.35
480.52	7618.44
480.70	7667.60
480.88	7627.81
481.06	7737.81
481.24	7810.37
481.41	7964.84
481.59	7871.22
481.77	8170.81
481.95	8238.69
482.13	8002.29
482.31	8124.00
482.49	8421.25
482.67	8208.26
482.85	8524.23
483.03	8524.23
483.21	8461.04
483.39	8748.92
483.57	8622.53
483.74	8774.67
483.92	8678.71
484.10	8879.99
484.28	8922.12
484.46	9144.47
484.64	9312.99
484.82	8961.91
485.00	9252.14
485.18	9352.78
485.35	9441.72
485.53	9467.47
485.71	9591.52
485.89	9745.99
486.07	9537.68
486.25	9858.34
486.43	9633.64
486.61	9813.87
486.78	9764.72
486.96	9928.55
487.14	10143.88
487.32	10122.82
487.50	10230.48
487.68	10225.80
487.85	10340.49
488.03	10504.32
488.21	10602.63
488.39	10469.22
488.57	10775.83
488.75	10827.32
488.92	11021.58
489.10	10899.87
489.28	10960.73
489.46	11084.78
489.64	11110.52
489.81	11456.92
489.99	11410.11
490.17	11564.59
490.35	11843.11
490.53	11569.27
490.70	11747.15
490.88	11625.44
491.06	11850.13
491.24	11688.64
491.41	11878.22
491.59	12016.31
491.77	12203.55
491.95	12358.03
492.13	12425.90
492.30	12301.86
492.48	12400.16
492.66	12599.10
492.84	12360.37
493.01	12730.17
493.19	12610.81
493.37	12861.24
493.54	13029.76
493.72	12952.52
493.90	13025.08
494.08	13018.06
494.25	13090.62
494.43	13249.77
494.61	13413.61
494.79	13607.87
494.96	13565.74
495.14	13390.20
495.32	13568.09
495.49	13762.35
495.67	13776.39
495.85	13884.06
496.02	13905.12
496.20	13874.70
496.38	14031.51
496.55	14090.02
496.73	14331.10
496.91	14356.85
497.09	14331.10
497.26	14413.02
497.44	14403.66
497.62	14642.39
497.79	14726.65
497.97	14696.22
498.14	14951.34
498.32	15154.97
498.50	14796.87
498.67	15145.61
498.85	15042.62
499.03	15213.48
499.20	15180.71
499.38	15227.53
499.56	15311.78
499.73	15400.72
499.91	15569.24
500.08	15468.60
500.26	15105.82
500.44	15529.45
500.61	15627.76
500.79	15606.69
500.97	15798.62
501.14	16173.10
501.32	16105.23
501.49	15866.49
501.67	16077.14
501.84	16100.55
502.02	16102.89
502.20	16205.87
502.37	16418.86
502.55	16388.43
502.72	16159.06
502.90	16493.76
503.07	16430.56
503.25	16350.98
503.43	16264.38
503.60	16889.31
503.78	16629.51
503.95	16856.54
504.13	16690.36
504.30	16908.03
504.48	16737.17
504.65	17022.72
504.83	17301.24
505.01	17097.61
505.18	17481.46
505.36	17582.10
505.53	16968.88
505.71	17226.34
505.88	17401.88
506.06	17018.04
506.23	17345.71
506.41	17523.59
506.58	17600.83
506.76	17563.38
506.93	17586.79
507.11	17678.07
507.28	17797.43
507.46	17774.03
507.63	17900.42
507.81	17865.31
507.98	17907.44
508.16	17980.00
508.33	18218.73
508.50	17860.63
508.68	17989.36
508.85	18317.03
509.03	18202.35
509.20	18366.18
509.38	18590.88
509.55	18607.26
509.73	18511.30
509.90	18590.88
510.08	18532.36
510.25	18724.29
510.42	18860.04
510.60	18899.83
510.77	18829.61
510.95	19140.90
511.12	19042.60
511.30	18845.99
511.47	19000.47
511.64	19140.90
511.82	19014.51
511.99	19126.86
512.17	19484.96
512.34	19138.56
512.51	19405.38
512.69	19260.27
512.86	19190.05
513.04	19454.53
513.21	19461.55
513.38	19538.79
513.56	19496.66
513.73	19681.56
513.90	19552.84
514.08	19765.82
514.25	19711.99
514.43	20030.30
514.60	19861.79
514.77	19910.94
514.95	19976.47
515.12	19864.13
515.29	20098.18
515.47	20299.47
515.64	20744.17
515.81	20311.17
515.99	20362.66
516.16	20404.79
516.33	20334.57
516.51	20311.17
516.68	20657.57
516.85	20372.02
517.03	20704.38
517.20	20673.95
517.37	20730.12
517.54	20767.57
517.72	20805.02
517.89	20538.20
518.06	20954.82
518.24	20973.54
518.41	20819.07
518.58	21298.88
518.75	20870.56
518.93	21312.92
519.10	21088.23
519.27	21149.08
519.45	21261.43
519.62	21427.60
519.79	21153.76
519.96	21081.21
520.14	21493.14
520.31	21085.89
520.48	21874.65
520.65	21825.50
520.83	21481.44
521.00	21806.77
521.17	21572.72
521.34	21528.25
521.52	21996.35
521.69	22129.77
521.86	21766.98
522.03	21965.93
522.20	22216.36
522.38	22029.12
522.55	22022.10
522.72	21935.50
522.89	22104.02
523.07	22518.29
523.24	22181.26
523.41	22384.88
523.58	22047.85
523.75	22164.87
523.92	22387.22
524.10	22445.74
524.27	22284.24
524.44	22518.29
524.61	22595.53
524.78	22635.32
524.96	22576.81
525.13	22656.39
525.30	22881.08
525.47	22766.39
525.64	22614.26
525.81	23063.64
525.98	22855.33
526.16	22780.43
526.33	23168.96
526.50	23012.15
526.67	23030.87
526.84	22963.00
527.01	22785.12
527.18	23117.47
527.36	23213.43
527.53	23150.24
527.70	23578.56
527.87	23398.34
528.04	23585.58
528.21	23513.02
528.38	23501.32
528.55	23480.25
528.72	23218.11
528.89	23683.88
529.07	23552.81
529.24	23618.35
529.41	23777.50
529.58	23716.65
529.75	23662.82
529.92	23578.56
530.09	23784.52
530.26	23962.40
530.43	24182.42
530.60	23789.20
530.77	24130.92
530.94	24133.26
531.11	24060.71
531.28	23962.40
531.46	24247.95
531.63	24233.91
531.80	23985.81
531.97	24503.07
532.14	24336.89
532.31	24180.07
532.48	24505.41
532.65	24348.59
532.82	24271.36
532.99	24416.47
533.16	24538.18
533.33	24720.74
533.50	24922.02
533.67	25013.31
533.84	24517.11
534.01	24613.07
534.18	24702.01
534.35	25027.35
534.52	24734.78
534.69	24905.64
534.86	25015.65
535.03	24755.85
535.20	24870.53
535.37	24741.80
535.54	25397.15
535.71	24807.34
535.88	25186.50
536.05	24816.70
536.22	25380.77
536.38	25242.68
536.55	25291.83
536.72	25221.61
536.89	25226.29
537.06	25069.48
537.23	25329.28
537.40	25507.16
537.57	25326.94
537.74	25172.46
537.91	25797.38
538.08	25764.62
538.25	25502.48
538.42	25472.05
538.59	25458.01
538.75	25663.97
538.92	25720.15
539.09	25284.81
539.26	26019.74
539.43	25687.38
539.60	25577.37
539.77	25846.54
539.94	25958.88
540.11	25649.93
540.28	25947.18
540.44	25820.79
540.61	25895.69
540.78	25916.75
540.95	25977.61
541.12	26073.57
541.29	25898.03
541.46	26319.32
541.62	26075.91
541.79	26101.65
541.96	25694.40
542.13	26141.44
542.30	26471.46
542.47	26195.28
542.63	26363.79
542.80	26443.37
542.97	26684.45
543.14	26548.70
543.31	26792.11
543.48	26436.35
543.64	27108.08
543.81	27021.48
543.98	26881.05
544.15	27101.06
544.32	27049.57
544.48	27175.96
544.65	26644.66
544.82	26534.65
544.99	26885.73
545.16	26843.60
545.32	26719.56
545.49	27456.82
545.66	26867.01
545.83	27101.06
546.00	27473.21
546.16	26857.65
546.33	26845.94
546.50	26958.29
546.67	27161.92
546.83	26937.23
547.00	27300.01
547.17	27264.90
547.34	27365.54
547.50	27021.48
547.67	27449.80
547.84	27594.92
548.00	27686.20
548.17	27770.46
548.34	27461.51
548.51	27505.98
548.67	27353.84
548.84	27735.35
549.01	27445.12
549.18	27601.94
549.34	27264.90
549.51	27545.76
549.68	27356.18
549.84	27417.04
550.01	27655.77
550.18	27292.99
550.34	27796.20
550.51	27843.01
550.68	27908.55
550.84	27517.68
551.01	28037.28
551.18	27669.81
551.34	27634.71
551.51	27620.66
551.68	27508.32
551.84	28072.39
552.01	28016.21
552.18	28149.62
552.34	27695.56
552.51	28133.24
552.68	28063.02
552.84	28294.74
553.01	28048.98
553.18	28086.43
553.34	28158.99
553.51	28325.16
553.67	28489.00
553.84	28538.15
554.01	28271.33
554.17	28563.90
554.34	28381.34
554.51	28105.15
554.67	28336.87
554.84	28102.81
555.00	28566.24
555.17	28573.26
555.33	28350.91
555.50	28379.00
555.67	28453.89
555.83	28292.40
556.00	28460.91
556.16	28861.15
556.33	28652.84
556.50	28458.57
556.66	28554.54
556.83	28685.61
556.99	28659.86
557.16	29067.11
557.32	28919.66
557.49	28973.49
557.65	28645.82
557.82	28694.97
557.98	28709.01
558.15	28395.38
558.32	28823.70
558.48	28837.74
558.65	29003.92
558.81	29001.58
558.98	28676.24
559.14	29233.29
559.31	28933.70
559.47	29036.69
559.64	28943.06
559.80	29315.21
559.97	29179.46
560.13	28980.51
560.30	28968.81
560.46	29165.42
560.63	29163.08
560.79	29214.57
560.96	29549.26
561.12	29027.32
561.29	28807.31
561.45	29081.16
561.61	29565.65
561.78	29263.72
561.94	29195.84
562.11	29355.00
562.27	29675.65
562.44	29343.30
562.60	29233.29
562.77	28624.75
562.93	29097.54
563.10	29165.42
563.26	29221.59
563.42	29331.59
563.59	29448.62
563.75	29383.09
563.92	29514.16
564.08	29469.69
564.24	29301.17
564.41	29219.25
564.57	29399.47
564.74	28893.91
564.90	29841.83
565.07	29413.51
565.23	29689.70
565.39	29373.72
565.56	29809.06
565.72	29605.44
565.88	29652.25
566.05	29287.12
566.21	28992.22
566.38	29443.94
566.54	29263.72
566.70	29649.91
566.87	29827.79
567.03	29689.70
567.19	30188.23
567.36	29914.39
567.52	29490.75
567.68	29729.48
567.85	29612.46
568.01	29841.83
568.17	29558.63
568.34	29783.32
568.50	29572.67
568.66	29752.89
568.83	30272.49
568.99	29799.70
569.15	29694.38
569.32	29383.09
569.48	29539.90
569.64	30199.93
569.81	29692.04
569.97	29567.99
570.13	29689.70
570.30	29912.05
570.46	29940.13
570.62	29872.26
570.78	29556.28
570.95	29579.69
571.11	29677.99
571.27	29670.97
571.43	29586.71
571.60	29853.53
571.76	29673.31
571.92	29930.77
572.09	29876.94
572.25	29905.02
572.41	30096.95
572.57	29963.54
572.74	30361.43
572.90	29958.86
573.06	29832.47
573.22	29572.67
573.38	29757.57
573.55	29930.77
573.71	30150.78
573.87	30288.87
574.03	30185.89
574.20	29647.57
574.36	29642.88
574.52	30085.25
574.68	29652.25
574.84	29970.56
575.01	30202.27
575.17	30108.65
575.33	30045.46
575.49	29790.34
575.65	30211.64
575.82	29986.94
575.98	29926.09
576.14	29780.98
576.30	30127.38
576.46	29675.65
576.62	30281.85
576.79	30073.54
576.95	30029.07
577.11	29848.85
577.27	30218.66
577.43	30068.86
577.59	30366.11
577.75	29900.34
577.92	29954.18
578.08	30120.35
578.24	30143.76
578.40	30263.13
578.56	30298.23
578.72	30216.32
578.88	30452.71
579.04	30438.67
579.21	30134.40
579.37	30295.89
579.53	30471.43
579.69	30197.59
579.85	30223.34
580.01	30078.22
580.17	30167.16
580.33	30110.99
580.49	30188.23
580.65	30188.23
580.82	30408.24
580.98	30532.29
581.14	30176.53
581.30	30307.60
581.46	30127.38
581.62	30204.61
581.78	29818.42
581.94	30335.68
582.10	30281.85
582.26	30536.97
582.42	30218.66
582.58	30206.95
582.74	30277.17
582.90	30476.12
583.06	30478.46
583.22	30265.47
583.38	30155.46
583.54	30211.64
583.70	30150.78
583.86	30567.40
584.02	29890.98
584.18	30291.21
584.34	30586.12
584.50	30518.25
584.66	30265.47
584.82	30464.41
584.98	30316.96
585.14	30323.98
585.30	30211.64
585.46	30272.49
585.62	30249.08
585.78	30221.00
585.94	29771.61
586.10	30520.59
586.26	30609.53
586.42	30560.37
586.58	30237.38
586.74	30375.47
586.90	30125.04
587.06	30316.96
587.22	30450.37
587.38	30410.58
587.54	30710.17
587.70	30459.73
587.86	30462.07
588.02	30855.28
588.18	30752.30
588.34	30600.16
588.49	30162.48
588.65	30101.63
588.81	30206.95
588.97	29855.87
589.13	30448.03
589.29	30408.24
589.45	30501.86
589.61	30742.94
589.77	30960.61
589.93	30829.54
590.08	30876.35
590.24	30380.15
590.40	30520.59
590.56	30831.88
590.72	30412.92
590.88	30242.06
591.04	30382.49
591.20	30775.70
591.35	30469.09
591.51	31056.57
591.67	30925.50
591.83	30745.28
591.99	30663.36
