SpectraSuite Data File
++++++++++++++++++++++++++++++++++++
Date: Fri Oct 18 13:58:30 GMT-05:00 2013
User: bianchi
Dark Spectrum Present: No
Reference Spectrum Present: No
Number of Sampled Component Spectra: 1
Spectrometers: USB2+H05261
Integration Time (usec): 50000 (USB2+H05261)
Spectra Averaged: 1 (USB2+H05261)
Boxcar Smoothing: 0 (USB2+H05261)
Correct for Electrical Dark: No (USB2+H05261)
Strobe/Lamp Enabled: No (USB2+H05261)
Correct for Detector Non-linearity: No (USB2+H05261)
Correct for Stray Light: No (USB2+H05261)
Number of Pixels in Processed Spectrum: 2048
>>>>>Begin Processed Spectral Data<<<<<
365.73	0.00
365.92	0.00
366.12	0.00
366.32	0.00
366.52	0.00
366.72	0.00
366.91	0.00
367.11	0.00
367.31	0.00
367.51	0.00
367.70	0.00
367.90	0.00
368.10	0.00
368.30	0.00
368.49	0.00
368.69	0.00
368.89	0.00
369.09	0.00
369.28	0.00
369.48	0.00
369.68	0.00
369.87	0.00
370.07	0.00
370.27	0.00
370.47	9.36
370.66	53.83
370.86	51.49
371.06	152.13
371.25	161.50
371.45	131.07
371.65	119.37
371.84	182.56
372.04	184.90
372.24	152.13
372.44	163.84
372.63	184.90
372.83	236.39
373.03	126.39
373.22	238.73
373.42	203.63
373.62	196.60
373.81	145.11
374.01	227.03
374.21	187.24
374.40	203.63
374.60	257.46
374.79	191.92
374.99	234.05
375.19	262.14
375.38	266.82
375.58	128.73
375.78	264.48
375.97	248.10
376.17	252.78
376.37	212.99
376.56	163.84
376.76	208.31
376.95	257.46
377.15	217.67
377.35	252.78
377.54	231.71
377.74	227.03
377.93	273.84
378.13	271.50
378.33	271.50
378.52	283.20
378.72	327.68
378.91	313.63
379.11	266.82
379.31	276.18
379.50	341.72
379.70	278.52
379.89	271.50
380.09	290.23
380.28	173.20
380.48	292.57
380.68	287.89
380.87	278.52
381.07	320.65
381.26	330.02
381.46	348.74
381.65	318.31
381.85	341.72
382.04	395.55
382.24	304.27
382.43	292.57
382.63	332.36
382.83	337.04
383.02	367.46
383.22	374.49
383.41	334.70
383.61	339.38
383.80	318.31
384.00	411.93
384.19	313.63
384.39	327.68
384.58	332.36
384.78	271.50
384.97	283.20
385.17	383.85
385.36	407.25
385.56	402.57
385.75	365.12
385.95	367.46
386.14	428.32
386.34	355.76
386.53	409.59
386.72	407.25
386.92	388.53
387.11	449.38
387.31	395.55
387.50	313.63
387.70	409.59
387.89	524.28
388.09	381.51
388.28	369.80
388.48	468.11
388.67	458.74
388.86	479.81
389.06	519.60
389.25	458.74
389.45	433.00
389.64	418.96
389.84	521.94
390.03	519.60
390.22	397.89
390.42	456.40
390.61	411.93
390.81	519.60
391.00	491.51
391.19	470.45
391.39	463.43
391.58	505.56
391.78	519.60
391.97	440.02
392.16	437.68
392.36	543.00
392.55	472.79
392.75	517.26
392.94	454.06
393.13	580.45
393.33	489.17
393.52	500.87
393.71	533.64
393.91	554.71
394.10	521.94
394.29	479.81
394.49	535.98
394.68	559.39
394.88	603.86
395.07	533.64
395.26	519.60
395.46	564.07
395.65	552.37
395.84	601.52
396.04	575.77
396.23	669.39
396.42	643.65
396.62	561.73
396.81	671.73
397.00	617.90
397.19	645.99
397.39	753.65
397.58	643.65
397.77	662.37
397.97	727.91
398.16	744.29
398.35	678.76
398.55	664.71
398.74	713.86
398.93	755.99
399.12	669.39
399.32	620.24
399.51	692.80
399.70	734.93
399.90	699.82
400.09	655.35
400.28	774.72
400.47	683.44
400.67	727.91
400.86	718.54
401.05	788.76
401.24	828.55
401.44	833.23
401.63	814.51
401.82	819.19
402.01	805.14
402.21	791.10
402.40	706.84
402.59	849.61
402.78	777.06
402.97	854.30
403.17	751.31
403.36	767.70
403.55	833.23
403.74	802.80
403.93	887.06
404.13	851.96
404.32	896.43
404.51	884.72
404.70	880.04
404.89	844.93
405.09	992.39
405.28	875.36
405.47	933.87
405.66	994.73
405.85	922.17
406.05	954.94
406.24	835.57
406.43	919.83
406.62	1043.88
406.81	1015.79
407.00	952.60
407.20	983.02
407.39	973.66
407.58	919.83
407.77	1043.88
407.96	1032.18
408.15	1078.99
408.34	1006.43
408.54	1097.71
408.73	1090.69
408.92	1032.18
409.11	1034.52
409.30	1135.16
409.49	1069.62
409.68	1158.57
409.87	1011.11
410.07	1149.20
410.26	1188.99
410.45	1144.52
410.64	1064.94
410.83	1273.25
411.02	1137.50
411.21	1322.40
411.40	1135.16
411.59	1273.25
411.78	1207.72
411.98	1221.76
412.17	1203.04
412.36	1212.40
412.55	1301.34
412.74	1317.72
412.93	1376.24
413.12	1212.40
413.31	1322.40
413.50	1469.86
413.69	1378.58
413.88	1455.81
414.07	1406.66
414.26	1345.81
414.45	1453.47
414.64	1465.18
414.83	1521.35
415.02	1500.28
415.22	1577.52
415.41	1523.69
415.60	1544.75
415.79	1558.80
415.98	1584.54
416.17	1610.29
416.36	1507.30
416.55	1507.30
416.74	1680.50
416.93	1481.56
417.12	1626.67
417.31	1664.12
417.50	1631.35
417.69	1685.19
417.88	1666.46
418.07	1619.65
418.26	1593.90
418.45	1675.82
418.64	1853.70
418.83	1842.00
419.02	1729.66
419.21	1830.30
419.39	1863.07
419.58	1813.92
419.77	1762.42
419.96	1902.86
420.15	1809.23
420.34	1928.60
420.53	1820.94
420.72	1989.46
420.91	1825.62
421.10	1905.20
421.29	1956.69
421.48	1874.77
421.67	1959.03
421.86	1870.09
422.05	1846.68
422.24	1940.30
422.43	1952.01
422.61	1905.20
422.80	1977.75
422.99	1963.71
423.18	1914.56
423.37	2008.18
423.56	2008.18
423.75	1884.13
423.94	1959.03
424.13	1785.83
424.32	2005.84
424.50	2115.84
424.69	1952.01
424.88	1856.04
425.07	1930.94
425.26	2031.58
425.45	2050.31
425.64	1912.22
425.83	1947.33
426.01	2022.22
426.20	2050.31
426.39	1994.14
426.58	2019.88
426.77	1956.69
426.96	2012.86
427.15	2005.84
427.33	2019.88
427.52	2165.00
427.71	2054.99
427.90	2111.16
428.09	2108.82
428.28	2165.00
428.46	2195.42
428.65	2188.40
428.84	2181.38
429.03	2179.04
429.22	2197.76
429.40	2183.72
429.59	2232.87
429.78	2209.47
429.97	2113.50
430.16	2181.38
430.34	2275.00
430.53	2328.83
430.72	2303.09
430.91	2176.70
431.10	2260.96
431.28	2373.30
431.47	2361.60
431.66	2377.98
431.85	2275.00
432.03	2410.75
432.22	2352.24
432.41	2408.41
432.60	2436.50
432.79	2328.83
432.97	2373.30
433.16	2464.58
433.35	2282.02
433.54	2434.16
433.72	2457.56
433.91	2450.54
434.10	2518.42
434.28	2312.45
434.47	2539.48
434.66	2478.63
434.85	2586.29
435.03	2502.03
435.22	2576.93
435.41	2595.65
435.59	2619.06
435.78	2590.97
435.97	2588.63
436.16	2520.76
436.34	2607.36
436.53	2684.59
436.72	2672.89
436.90	2644.81
437.09	2738.43
437.28	2534.80
437.46	2654.17
437.65	2670.55
437.84	2705.66
438.02	2712.68
438.21	2644.81
438.40	2693.96
438.58	2897.58
438.77	2897.58
438.96	2853.11
439.14	2876.52
439.33	2869.50
439.52	2902.26
439.70	2974.82
439.89	2892.90
440.08	2958.44
440.26	2995.89
440.45	2904.60
440.63	2995.89
440.82	3124.62
441.01	2906.95
441.19	3068.44
441.38	3180.79
441.57	3183.13
441.75	3183.13
441.94	3108.23
442.12	3269.73
442.31	3197.17
442.50	3152.70
442.68	3225.26
442.87	3255.69
443.05	3236.96
443.24	3272.07
443.43	3206.53
443.61	3173.77
443.80	3325.90
443.98	3243.98
444.17	3178.45
444.35	3253.34
444.54	3335.26
444.73	3253.34
444.91	3414.84
445.10	3300.16
445.28	3330.58
445.47	3218.24
445.65	3323.56
445.84	3393.78
446.02	3393.78
446.21	3449.95
446.39	3344.63
446.58	3272.07
446.77	3435.91
446.95	3452.29
447.14	3531.87
447.32	3407.82
447.51	3435.91
447.69	3405.48
447.88	3417.18
448.06	3433.57
448.25	3520.17
448.43	3391.44
448.62	3351.65
448.80	3412.50
448.99	3499.10
449.17	3588.04
449.36	3440.59
449.54	3468.67
449.73	3473.36
449.91	3564.64
450.10	3538.89
450.28	3667.62
450.46	3669.96
450.65	3499.10
450.83	3660.60
451.02	3534.21
451.20	3658.26
451.39	3691.02
451.57	3555.27
451.76	3604.42
451.94	3726.13
452.13	3751.88
452.31	3747.20
452.49	3758.90
452.68	3798.69
452.86	3676.98
453.05	3665.28
453.23	3838.48
453.42	3747.20
453.60	3602.08
453.78	3777.62
453.97	3747.20
454.15	3913.38
454.34	3786.99
454.52	3918.06
454.70	3915.72
454.89	3782.31
455.07	3896.99
455.26	3920.40
455.44	3950.82
455.62	4002.32
455.81	3913.38
455.99	4030.40
456.17	4098.28
456.36	4070.19
456.54	4037.42
456.73	4212.96
456.91	4252.75
457.09	4245.73
457.28	4402.55
457.46	4126.36
457.64	4348.72
457.83	4250.41
458.01	4187.22
458.19	4348.72
458.38	4360.42
458.56	4182.54
458.74	4432.97
458.93	4386.16
459.11	4231.69
459.29	4332.33
459.48	4334.67
459.66	4320.63
459.84	4383.82
460.03	4409.57
460.21	4341.69
460.39	4498.51
460.57	4461.06
460.76	4423.61
460.94	4491.49
461.12	4367.44
461.31	4430.63
461.49	4620.22
461.67	4475.10
461.85	4676.39
462.04	4442.34
462.22	4779.37
462.40	4610.86
462.59	4472.76
462.77	4517.23
462.95	4683.41
463.13	4603.83
463.32	4762.99
463.50	4732.56
463.68	4788.74
463.86	4849.59
464.05	4713.84
464.23	4716.18
464.41	4809.80
464.59	4718.52
464.78	5057.90
464.96	4805.12
465.14	4655.33
465.32	4816.82
465.50	5032.15
465.69	4882.36
465.87	4753.63
466.05	4978.32
466.23	4793.42
466.41	4837.89
466.60	5135.14
466.78	4997.04
466.96	4922.15
467.14	4919.81
467.32	5083.64
467.51	5015.77
467.69	4865.97
467.87	4933.85
468.05	5254.50
468.23	5001.72
468.41	4903.42
468.60	5132.79
468.78	5167.90
468.96	5130.45
469.14	5296.63
469.32	5254.50
469.50	5043.85
469.69	5132.79
469.87	5153.86
470.05	5322.38
470.23	5359.83
470.41	5322.38
470.59	5399.62
470.77	5345.78
470.95	5317.70
471.14	5430.04
471.32	5252.16
471.50	5542.39
471.68	5528.35
471.86	5502.60
472.04	5472.17
472.22	5666.44
472.40	5497.92
472.58	5650.05
472.77	5561.11
472.95	5565.79
473.13	5832.62
473.31	5540.05
473.49	5722.61
473.67	5664.10
473.85	5605.58
474.03	5727.29
474.21	5834.96
474.39	5966.03
474.57	6010.50
474.75	6052.63
474.93	6069.01
475.12	6036.24
475.30	6195.40
475.48	6193.06
475.66	6188.38
475.84	6225.82
476.02	6256.25
476.20	6284.34
476.38	6345.19
476.56	6417.75
476.74	6380.30
476.92	6317.11
477.10	6375.62
477.28	6445.84
477.46	6356.90
477.64	6530.09
477.82	6466.90
478.00	6792.23
478.18	6736.06
478.36	6715.00
478.54	6815.64
478.72	6782.87
478.90	6960.75
479.08	6960.75
479.26	7052.03
479.44	7180.76
479.62	7309.49
479.80	7276.73
479.98	7145.66
480.16	7473.33
480.34	7440.56
480.52	7445.24
480.70	7555.25
480.88	7391.41
481.06	7428.86
481.24	7435.88
481.41	7672.28
481.59	7669.94
481.77	7765.90
481.95	7864.20
482.13	7786.96
482.31	7903.99
482.49	8081.87
482.67	8360.39
482.85	8121.66
483.03	8009.31
483.21	8430.61
483.39	8365.07
483.57	8241.03
483.74	8386.14
483.92	8500.83
484.10	8456.36
484.28	8664.66
484.46	8725.52
484.64	8809.78
484.82	8814.46
485.00	8765.31
485.18	9125.75
485.35	9179.58
485.53	9345.76
485.71	9088.30
485.89	9383.21
486.07	9331.72
486.25	9310.65
486.43	9362.14
486.61	9610.24
486.78	9593.86
486.96	9584.49
487.14	10153.24
487.32	9720.24
487.50	9790.46
487.68	10052.60
487.85	10139.20
488.03	10218.78
488.21	10399.00
488.39	10441.13
488.57	10457.51
488.75	10450.49
488.92	10677.52
489.10	10764.12
489.28	10794.55
489.46	10841.36
489.64	10782.85
489.81	10927.96
489.99	10984.13
490.17	11021.58
490.35	11129.25
490.53	11234.57
490.70	11236.91
490.88	11190.10
491.06	11758.85
491.24	11536.50
491.41	11669.91
491.59	11606.72
491.77	11768.21
491.95	11833.75
492.13	11681.61
492.30	12037.38
492.48	11889.92
492.66	11756.51
492.84	12145.04
493.01	12184.83
493.19	12276.11
493.37	12491.44
493.54	12545.27
493.72	12657.62
493.90	12627.19
494.08	12732.51
494.25	12943.16
494.43	12840.18
494.61	12821.45
494.79	13001.68
494.96	12924.44
495.14	13144.45
495.32	13137.43
495.49	13235.73
495.67	13425.31
495.85	13444.04
496.02	13364.46
496.20	13544.68
496.38	13640.64
496.55	13535.32
496.73	13830.23
496.91	13820.86
497.09	14183.65
497.26	14111.09
497.44	13827.88
497.62	13916.83
497.79	14005.77
497.97	14080.66
498.14	14354.51
498.32	14310.04
498.50	14422.38
498.67	14485.58
498.85	14904.53
499.03	14628.35
499.20	14656.43
499.38	14949.00
499.56	14846.02
499.73	14923.26
499.91	14934.96
500.08	15007.52
500.26	14906.87
500.44	15019.22
500.61	15161.99
500.79	14986.45
500.97	14934.96
501.14	15524.77
501.32	15742.44
501.49	15311.78
501.67	15391.36
501.84	15147.95
502.02	15346.89
502.20	15655.84
502.37	15564.56
502.55	15754.15
502.72	15700.31
502.90	15604.35
503.07	15756.49
503.25	15686.27
503.43	16070.12
503.60	16248.00
503.78	16411.84
503.95	16173.10
504.13	15960.11
504.30	15946.07
504.48	15901.60
504.65	16617.80
504.83	16278.43
505.01	16622.48
505.18	16524.18
505.36	16570.99
505.53	16650.57
505.71	16685.68
505.88	16807.39
506.06	16662.27
506.23	16802.71
506.41	16882.28
506.58	17202.94
506.76	16886.97
506.93	17095.27
507.11	16865.90
507.28	16987.61
507.46	17322.30
507.63	17537.63
507.81	17261.45
507.98	17008.67
508.16	17352.73
508.33	17205.28
508.50	17387.84
508.68	17530.61
508.85	17539.97
509.03	17343.37
509.20	17418.27
509.38	17942.55
509.55	17830.20
509.73	17762.33
509.90	17862.97
510.08	17811.48
510.25	18066.60
510.42	17830.20
510.60	18197.67
510.77	18178.94
510.95	18384.91
511.12	18270.22
511.30	18345.12
511.47	18160.22
511.64	18370.86
511.82	18595.56
511.99	18424.70
512.17	18909.19
512.34	18431.72
512.51	18728.97
512.69	18773.44
512.86	18941.96
513.04	18815.57
513.21	18771.10
513.38	19049.62
513.56	18831.95
513.73	19143.24
513.90	18867.06
514.08	19080.05
514.25	19278.99
514.43	19250.91
514.60	19105.79
514.77	19243.88
514.95	19442.83
515.12	19239.20
515.29	19332.82
515.47	19597.31
515.64	19587.94
515.81	19854.76
515.99	19632.41
516.16	19969.45
516.33	20046.69
516.51	19695.61
516.68	19983.49
516.85	19407.72
517.03	19796.25
517.20	19819.66
517.37	20304.15
517.54	20121.59
517.72	20252.66
517.89	19850.08
518.06	19924.98
518.24	19976.47
518.41	20215.21
518.58	20304.15
518.75	20327.55
518.93	20470.33
519.10	20240.95
519.27	20547.56
519.45	20446.92
519.62	20498.41
519.79	20507.77
519.96	20416.49
520.14	20758.21
520.31	20552.24
520.48	20903.32
520.65	20891.62
520.83	20692.68
521.00	20798.00
521.17	21032.05
521.34	20680.97
521.52	20964.18
521.69	21006.31
521.86	21317.60
522.03	21319.94
522.20	21305.90
522.38	21060.14
522.55	21458.03
522.72	21291.85
522.89	21366.75
523.07	21626.55
523.24	21612.51
523.41	21809.11
523.58	21221.64
523.75	21664.00
523.92	21668.68
524.10	21610.17
524.27	21357.39
524.44	21811.45
524.61	22155.51
524.78	21884.01
524.96	21820.81
525.13	21979.97
525.30	21809.11
525.47	22078.27
525.64	21809.11
525.81	22183.60
525.98	22441.06
526.16	22207.00
526.33	22129.77
526.50	22244.45
526.67	22211.68
526.84	22291.26
527.01	21900.39
527.18	22345.09
527.36	22684.47
527.53	22668.09
527.70	22745.33
527.87	22707.88
528.04	22438.72
528.21	22618.94
528.38	22665.75
528.55	23014.49
528.72	22834.27
528.89	23098.75
529.07	23070.66
529.24	22731.28
529.41	22995.76
529.58	22946.61
529.75	22757.03
529.92	23023.85
530.09	22885.76
530.26	23154.92
530.43	23082.36
530.60	23054.28
530.77	23208.75
530.94	23194.71
531.11	22771.07
531.28	23321.10
531.46	23129.17
531.63	23480.25
531.80	23580.90
531.97	23388.97
532.14	23363.23
532.31	23356.21
532.48	23484.94
532.65	23833.68
532.82	23573.88
532.99	23616.01
533.16	23311.74
533.33	23981.13
533.50	23672.18
533.67	23962.40
533.84	23412.38
534.01	23672.18
534.18	23840.70
534.35	23793.89
534.52	23793.89
534.69	24250.29
534.86	24222.20
535.03	24018.58
535.20	24159.01
535.37	24147.31
535.54	24081.77
535.71	23901.55
535.88	24098.16
536.05	24254.97
536.22	24161.35
536.38	24643.50
536.55	24683.29
536.72	24503.07
536.89	24507.75
537.06	24407.11
537.23	24570.94
537.40	24549.88
537.57	24348.59
537.74	24870.53
537.91	24519.45
538.08	24936.07
538.25	24493.71
538.42	24322.85
538.59	24723.08
538.75	24432.85
538.92	24711.38
539.09	24727.76
539.26	24896.28
539.43	24891.60
539.60	24938.41
539.77	24884.58
539.94	25109.27
540.11	25076.50
540.28	24858.83
540.44	24903.30
540.61	24779.25
540.78	24844.79
540.95	24971.18
541.12	25036.71
541.29	25310.55
541.46	25179.48
541.62	25027.35
541.79	25032.03
541.96	24886.92
542.13	25109.27
542.30	25083.52
542.47	25209.91
542.63	25425.24
542.80	25659.29
542.97	25837.17
543.14	25736.53
543.31	25734.19
543.48	25479.07
543.64	25907.39
543.81	25804.41
543.98	25806.75
544.15	25612.48
544.32	25989.31
544.48	25891.01
544.65	25593.76
544.82	26064.21
544.99	25642.91
545.16	26190.59
545.32	25830.15
545.49	26272.51
545.66	26221.02
545.83	26047.82
546.00	26340.39
546.16	25682.70
546.33	25865.26
546.50	25832.49
546.67	25940.16
546.83	26061.87
547.00	26333.37
547.17	26150.81
547.34	26324.01
547.50	26441.03
547.67	26548.70
547.84	25975.27
548.00	26506.57
548.17	26831.90
548.34	26244.43
548.51	27014.46
548.67	26504.23
548.84	26663.38
549.01	26377.84
549.18	26373.16
549.34	26838.92
549.51	26536.99
549.68	26693.81
549.84	26780.41
550.01	26703.17
550.18	26483.16
550.34	26925.52
550.51	26696.15
550.68	26913.82
550.84	26803.82
551.01	26768.71
551.18	26637.64
551.34	26639.98
551.51	26658.70
551.68	27124.47
551.84	26778.07
552.01	26682.11
552.18	27159.58
552.34	26883.39
552.51	27115.11
552.68	27021.48
552.84	27012.12
553.01	27026.17
553.18	26960.63
553.34	27206.39
553.51	27084.68
553.67	27154.90
553.84	27505.98
554.01	27501.29
554.17	27285.97
554.34	27182.98
554.51	27023.83
554.67	26930.20
554.84	27517.68
555.00	27381.93
555.17	27363.20
555.33	27283.62
555.50	27199.37
555.67	27435.76
555.83	27431.08
556.00	27644.07
556.16	27763.43
556.33	27435.76
556.50	27356.18
556.66	27590.24
556.83	27257.88
556.99	27992.81
557.16	27681.52
557.32	27882.80
557.49	27871.10
557.65	27594.92
557.82	27782.16
557.98	27669.81
558.15	27625.34
558.32	28292.40
558.48	27782.16
558.65	27686.20
558.81	27974.08
558.98	27775.14
559.14	27709.60
559.31	27885.14
559.47	27908.55
559.64	27983.44
559.80	27651.09
559.97	28058.34
560.13	28158.99
560.30	27826.63
560.46	28002.17
560.63	28187.07
560.79	28030.26
560.96	28044.30
561.12	27852.38
561.29	27786.84
561.45	27922.59
561.61	28210.48
561.78	28149.62
561.94	27693.22
562.11	27957.70
562.27	27714.28
562.44	28524.11
562.60	28283.03
562.77	27779.82
562.93	27981.10
563.10	28374.31
563.26	28201.11
563.42	28444.53
563.59	28821.36
563.75	28278.35
563.92	28283.03
564.08	28278.35
564.24	28079.41
564.41	27833.65
564.57	27948.34
564.74	27770.46
564.90	28701.99
565.07	28231.54
565.23	28540.49
565.39	28765.18
565.56	28683.27
565.72	28315.80
565.88	28737.10
566.05	28388.36
566.21	28325.16
566.38	28320.48
566.54	28554.54
566.70	28746.46
566.87	28559.22
567.03	28498.36
567.19	28561.56
567.36	28886.89
567.52	28514.75
567.68	28732.42
567.85	28374.31
568.01	28950.09
568.17	28374.31
568.34	28580.28
568.50	28489.00
568.66	28208.14
568.83	28521.77
568.99	28547.51
569.15	28538.15
569.32	28343.89
569.48	28364.95
569.64	28531.13
569.81	28587.30
569.97	28587.30
570.13	28435.17
570.30	28854.12
570.46	28584.96
570.62	28884.55
570.78	28657.52
570.95	28659.86
571.11	28842.42
571.27	28208.14
571.43	28589.64
571.60	28664.54
571.76	28716.03
571.92	28727.74
572.09	29111.58
572.25	28739.44
572.41	28755.82
572.57	28575.60
572.74	28699.65
572.90	28421.13
573.06	28650.50
573.22	28451.55
573.38	28704.33
573.55	28790.93
573.71	29055.41
573.87	28355.59
574.03	28804.97
574.20	28751.14
574.36	28594.32
574.52	28711.35
574.68	28360.27
574.84	28601.35
575.01	28793.27
575.17	28652.84
575.33	28659.86
575.49	28566.24
575.65	28936.04
575.82	28870.51
575.98	28847.10
576.14	28919.66
576.30	28893.91
576.46	29041.37
576.62	28540.49
576.79	28720.71
576.95	28704.33
577.11	28804.97
577.27	28856.46
577.43	29146.69
577.59	29195.84
577.75	28994.56
577.92	28521.77
578.08	28790.93
578.24	28856.46
578.40	28907.96
578.56	29165.42
578.72	28779.23
578.88	29340.96
579.04	29046.05
579.21	29125.63
579.37	29209.89
579.53	28858.81
579.69	28875.19
579.85	28947.75
580.01	28830.72
580.17	28706.67
580.33	29027.32
580.49	28893.91
580.65	29221.59
580.82	29219.25
580.98	28879.87
581.14	29259.04
581.30	29127.97
581.46	28971.15
581.62	29083.50
581.78	29193.50
581.94	28931.36
582.10	28730.08
582.26	29149.03
582.42	29347.98
582.58	29259.04
582.74	29024.98
582.90	28865.83
583.06	29127.97
583.22	29158.39
583.38	29233.29
583.54	29256.70
583.70	28886.89
583.86	29378.40
584.02	28973.49
584.18	29198.18
584.34	28959.45
584.50	29411.17
584.66	28954.77
584.82	29010.94
584.98	29296.49
585.14	29301.17
585.30	28479.64
585.46	28966.47
585.62	28912.64
585.78	28985.19
585.94	28900.94
586.10	29394.79
586.26	29404.15
586.42	29326.91
586.58	29329.25
586.74	29153.71
586.90	29008.60
587.06	29010.94
587.22	29057.75
587.38	29172.44
587.54	29064.77
587.70	29659.27
587.86	29235.63
588.02	29352.66
588.18	29364.36
588.34	29167.76
588.49	29364.36
588.65	29186.48
588.81	29242.65
588.97	29614.80
589.13	29092.86
589.29	28734.76
589.45	29490.75
589.61	29057.75
589.77	29500.11
589.93	29605.44
590.08	29727.14
590.24	29488.41
590.40	29352.66
590.56	29364.36
590.72	29163.08
590.88	29090.52
591.04	29305.85
591.20	29542.24
591.35	29638.20
591.51	29640.54
591.67	29521.18
591.83	29537.56
591.99	29413.51
