SpectraSuite Data File
++++++++++++++++++++++++++++++++++++
Date: Fri Oct 18 13:58:01 GMT-05:00 2013
User: bianchi
Dark Spectrum Present: No
Reference Spectrum Present: No
Number of Sampled Component Spectra: 1
Spectrometers: USB2+H05261
Integration Time (usec): 50000 (USB2+H05261)
Spectra Averaged: 1 (USB2+H05261)
Boxcar Smoothing: 0 (USB2+H05261)
Correct for Electrical Dark: No (USB2+H05261)
Strobe/Lamp Enabled: No (USB2+H05261)
Correct for Detector Non-linearity: No (USB2+H05261)
Correct for Stray Light: No (USB2+H05261)
Number of Pixels in Processed Spectrum: 2048
>>>>>Begin Processed Spectral Data<<<<<
365.73	0.00
365.92	0.00
366.12	0.00
366.32	0.00
366.52	0.00
366.72	0.00
366.91	0.00
367.11	0.00
367.31	0.00
367.51	0.00
367.70	0.00
367.90	0.00
368.10	0.00
368.30	0.00
368.49	0.00
368.69	0.00
368.89	0.00
369.09	0.00
369.28	0.00
369.48	0.00
369.68	0.00
369.87	0.00
370.07	0.00
370.27	0.00
370.47	0.00
370.66	49.15
370.86	175.54
371.06	49.15
371.25	297.25
371.45	170.86
371.65	149.79
371.84	63.19
372.04	114.69
372.24	86.60
372.44	147.45
372.63	205.97
372.83	93.62
373.03	175.54
373.22	201.29
373.42	236.39
373.62	187.24
373.81	93.62
374.01	276.18
374.21	170.86
374.40	128.73
374.60	262.14
374.79	245.76
374.99	168.52
375.19	187.24
375.38	203.63
375.58	234.05
375.78	220.01
375.97	201.29
376.17	187.24
376.37	196.60
376.56	287.89
376.76	203.63
376.95	271.50
377.15	252.78
377.35	287.89
377.54	315.97
377.74	269.16
377.93	266.82
378.13	311.29
378.33	327.68
378.52	278.52
378.72	276.18
378.91	220.01
379.11	264.48
379.31	248.10
379.50	313.63
379.70	344.06
379.89	339.38
380.09	290.23
380.28	285.55
380.48	273.84
380.68	227.03
380.87	297.25
381.07	313.63
381.26	344.06
381.46	346.40
381.65	322.99
381.85	327.68
382.04	362.78
382.24	283.20
382.43	269.16
382.63	341.72
382.83	290.23
383.02	365.12
383.22	383.85
383.41	397.89
383.61	383.85
383.80	451.72
384.00	388.53
384.19	299.59
384.39	411.93
384.58	332.36
384.78	358.10
384.97	423.64
385.17	414.27
385.36	482.15
385.56	402.57
385.75	355.76
385.95	407.25
386.14	379.17
386.34	320.65
386.53	433.00
386.72	353.42
386.92	327.68
387.11	425.98
387.31	437.68
387.50	355.76
387.70	472.79
387.89	402.57
388.09	465.77
388.28	533.64
388.48	400.23
388.67	379.17
388.86	496.19
389.06	465.77
389.25	390.87
389.45	505.56
389.64	428.32
389.84	447.04
390.03	538.32
390.22	449.38
390.42	465.77
390.61	442.36
390.81	531.30
391.00	503.22
391.19	531.30
391.39	482.15
391.58	503.22
391.78	496.19
391.97	470.45
392.16	435.34
392.36	507.90
392.55	538.32
392.75	517.26
392.94	610.88
393.13	535.98
393.33	531.30
393.52	603.86
393.71	545.34
393.91	484.49
394.10	486.83
394.29	692.80
394.49	596.84
394.68	613.22
394.88	650.67
395.07	622.58
395.26	601.52
395.46	543.00
395.65	678.76
395.84	582.79
396.04	770.04
396.23	655.35
396.42	606.20
396.62	690.46
396.81	571.09
397.00	535.98
397.19	650.67
397.39	634.29
397.58	634.29
397.77	645.99
397.97	800.46
398.16	730.25
398.35	702.16
398.55	641.31
398.74	725.57
398.93	681.10
399.12	713.86
399.32	713.86
399.51	669.39
399.70	765.36
399.90	741.95
400.09	744.29
400.28	767.70
400.47	774.72
400.67	807.48
400.86	795.78
401.05	748.97
401.24	814.51
401.44	866.00
401.63	823.87
401.82	795.78
402.01	744.29
402.21	774.72
402.40	858.98
402.59	812.17
402.78	807.48
402.97	856.64
403.17	744.29
403.36	833.23
403.55	908.13
403.74	826.21
403.93	898.77
404.13	976.00
404.32	910.47
404.51	917.49
404.70	842.59
404.89	905.79
405.09	924.51
405.28	973.66
405.47	875.36
405.66	973.66
405.85	1043.88
406.05	915.15
406.24	1004.09
406.43	1097.71
406.62	1071.97
406.81	1102.39
407.00	917.49
407.20	1020.47
407.39	943.24
407.58	1039.20
407.77	938.55
407.96	1001.75
408.15	1053.24
408.34	1093.03
408.54	1104.73
408.73	1039.20
408.92	1139.84
409.11	1130.48
409.30	1181.97
409.49	1076.65
409.68	1114.10
409.87	1153.88
410.07	1174.95
410.26	1151.54
410.45	1203.04
410.64	1177.29
410.83	1231.12
411.02	1078.99
411.21	1238.14
411.40	1219.42
411.59	1247.51
411.78	1181.97
411.98	1221.76
412.17	1273.25
412.36	1273.25
412.55	1287.29
412.74	1299.00
412.93	1357.51
413.12	1359.85
413.31	1308.36
413.50	1413.68
413.69	1348.15
413.88	1451.13
414.07	1458.15
414.26	1481.56
414.45	1460.49
414.64	1514.33
414.83	1540.07
415.02	1427.73
415.22	1554.12
415.41	1561.14
415.60	1516.67
415.79	1582.20
415.98	1516.67
416.17	1488.58
416.36	1591.56
416.55	1589.22
416.74	1682.85
416.93	1612.63
417.12	1720.29
417.31	1827.96
417.50	1638.38
417.69	1755.40
417.88	1755.40
418.07	1767.10
418.26	1703.91
418.45	1675.82
418.64	1769.44
418.83	1792.85
419.02	1928.60
419.21	1909.88
419.39	1809.23
419.58	1760.08
419.77	1767.10
419.96	1846.68
420.15	1966.05
420.34	1907.54
420.53	1816.26
420.72	1937.96
420.91	1940.30
421.10	1914.56
421.29	1874.77
421.48	1984.77
421.67	1961.37
421.86	1900.52
422.05	1952.01
422.24	1961.37
422.43	1973.07
422.61	1895.83
422.80	2071.37
422.99	1982.43
423.18	1991.80
423.37	2036.27
423.56	2090.10
423.75	1933.28
423.94	1982.43
424.13	1743.70
424.32	1970.73
424.50	2155.63
424.69	1968.39
424.88	2085.42
425.07	1926.26
425.26	2054.99
425.45	1956.69
425.64	2036.27
425.83	2019.88
426.01	2083.08
426.20	2090.10
426.39	2113.50
426.58	2036.27
426.77	2136.91
426.96	2101.80
427.15	1977.75
427.33	2125.21
427.52	2113.50
427.71	2253.94
427.90	2155.63
428.09	2150.95
428.28	2118.18
428.46	2197.76
428.65	2146.27
428.84	2221.17
429.03	2136.91
429.22	2162.66
429.40	2342.88
429.59	2256.28
429.78	2111.16
429.97	2106.48
430.16	2169.68
430.34	2267.98
430.53	2314.79
430.72	2230.53
430.91	2354.58
431.10	2242.23
431.28	2389.69
431.47	2363.94
431.66	2389.69
431.85	2263.30
432.03	2239.89
432.22	2448.20
432.41	2438.84
432.60	2401.39
432.79	2342.88
432.97	2349.90
433.16	2551.18
433.35	2450.54
433.54	2452.88
433.72	2427.14
433.91	2511.39
434.10	2502.03
434.28	2429.48
434.47	2541.82
434.66	2597.99
434.85	2600.34
435.03	2649.49
435.22	2691.62
435.41	2703.32
435.59	2487.99
435.78	2672.89
435.97	2656.51
436.16	2731.41
436.34	2675.23
436.53	2628.42
436.72	2787.58
436.90	2630.76
437.09	2640.12
437.28	2710.34
437.46	2853.11
437.65	2597.99
437.84	2708.00
438.02	2839.07
438.21	2761.83
438.40	2679.91
438.58	2916.31
438.77	2869.50
438.96	2874.18
439.14	2913.97
439.33	3082.49
439.52	2899.92
439.70	3112.91
439.89	3070.78
440.08	3089.51
440.26	3023.97
440.45	3087.17
440.63	3061.42
440.82	3054.40
441.01	2897.58
441.19	3229.94
441.38	3117.59
441.57	3199.51
441.75	3272.07
441.94	3276.75
442.12	3274.41
442.31	3361.01
442.50	3309.52
442.68	3251.00
442.87	3201.85
443.05	3316.54
443.24	3328.24
443.43	3370.37
443.61	3442.93
443.80	3499.10
443.98	3393.78
444.17	3281.43
444.35	3304.84
444.54	3574.00
444.73	3520.17
444.91	3363.35
445.10	3410.16
445.28	3400.80
445.47	3372.71
445.65	3456.97
445.84	3440.59
446.02	3480.38
446.21	3382.07
446.39	3386.76
446.58	3538.89
446.77	3534.21
446.95	3496.76
447.14	3379.73
447.32	3531.87
447.51	3485.06
447.69	3538.89
447.88	3660.60
448.06	3492.08
448.25	3478.04
448.43	3702.73
448.62	3456.97
448.80	3557.61
448.99	3606.77
449.17	3632.51
449.36	3545.91
449.54	3712.09
449.73	3665.28
449.91	3756.56
450.10	3761.24
450.28	3772.94
450.46	3639.53
450.65	3880.61
450.83	3831.46
451.02	3796.35
451.20	3864.22
451.39	3817.41
451.57	3747.20
451.76	3845.50
451.94	3777.62
452.13	3873.59
452.31	3922.74
452.49	3751.88
452.68	3967.21
452.86	3819.75
453.05	4044.45
453.23	3936.78
453.42	3871.25
453.60	3782.31
453.78	3985.93
453.97	4018.70
454.15	3836.14
454.34	3894.65
454.52	3981.25
454.70	4088.92
454.89	3918.06
455.07	4147.43
455.26	3929.76
455.44	4091.26
455.62	4208.28
455.81	4060.83
455.99	4145.09
456.17	4138.07
456.36	4058.49
456.54	4227.01
456.73	4121.68
456.91	4337.01
457.09	4287.86
457.28	4498.51
457.46	4252.75
457.64	4273.82
457.83	4437.66
458.01	4163.81
458.19	4334.67
458.38	4393.19
458.56	4440.00
458.74	4407.23
458.93	4320.63
459.11	4344.03
459.29	4379.14
459.48	4409.57
459.66	4461.06
459.84	4500.85
460.03	4545.32
460.21	4449.36
460.39	4622.56
460.57	4564.04
460.76	4575.75
460.94	4739.58
461.12	4552.34
461.31	4505.53
461.49	4704.48
461.67	4676.39
461.85	4793.42
462.04	4650.64
462.22	5128.11
462.40	4720.86
462.59	4676.39
462.77	4844.91
462.95	4809.80
463.13	4833.21
463.32	4847.25
463.50	4823.84
463.68	4748.95
463.86	4929.17
464.05	4905.76
464.23	4741.93
464.41	4884.70
464.59	4669.37
464.78	4971.30
464.96	4936.19
465.14	4868.31
465.32	5034.49
465.50	4961.94
465.69	5032.15
465.87	4954.91
466.05	5043.85
466.23	4901.08
466.41	4992.36
466.60	5172.58
466.78	5090.67
466.96	5088.32
467.14	5013.43
467.32	5151.52
467.51	5214.71
467.69	4908.10
467.87	5165.56
468.05	5261.52
468.23	5135.14
468.41	5020.45
468.60	5277.91
468.78	5301.31
468.96	5240.46
469.14	5380.89
469.32	5324.72
469.50	5142.16
469.69	5343.44
469.87	5357.49
470.05	5427.70
470.23	5334.08
470.41	5282.59
470.59	5446.43
470.77	5343.44
470.95	5511.96
471.14	5558.77
471.32	5497.92
471.50	5598.56
471.68	5720.27
471.86	5671.12
472.04	5654.73
472.22	5818.57
472.40	5647.71
472.58	5720.27
472.77	5750.70
472.95	5753.04
473.13	6024.54
473.31	5785.80
473.49	6017.52
473.67	5879.43
473.85	6054.97
474.03	6066.67
474.21	5809.21
474.39	5867.72
474.57	6057.31
474.75	6094.76
474.93	6202.42
475.12	6193.06
475.30	6282.00
475.48	6129.86
475.66	6132.20
475.84	6356.90
476.02	6253.91
476.20	6406.05
476.38	6347.53
476.56	6602.65
476.74	6396.68
476.92	6572.22
477.10	6459.88
477.28	6586.27
477.46	6759.47
477.64	6509.03
477.82	6719.68
478.00	6857.77
478.18	6935.01
478.36	7084.80
478.54	7197.15
478.72	7180.76
478.90	7059.06
479.08	7119.91
479.26	7190.13
479.44	7410.14
479.62	7524.82
479.80	7286.09
479.98	7346.94
480.16	7604.40
480.34	7445.24
480.52	7616.10
480.70	7688.66
480.88	7644.19
481.06	7740.15
481.24	7812.71
481.41	7815.05
481.59	8049.10
481.77	7988.25
481.95	8278.47
482.13	8006.97
482.31	8018.68
482.49	8362.73
482.67	8259.75
482.85	8329.97
483.03	8465.72
483.21	8528.91
483.39	8538.27
483.57	8444.65
483.74	8533.59
483.92	8758.28
484.10	8917.44
484.28	8805.10
484.46	8898.72
484.64	9217.03
484.82	8992.34
485.00	9151.49
485.18	9210.01
485.35	9320.01
485.53	9305.97
485.71	9355.12
485.89	9757.69
486.07	9474.49
486.25	9771.74
486.43	9736.63
486.61	9561.09
486.78	9898.13
486.96	9844.29
487.14	10340.49
487.32	10031.54
487.50	10022.17
487.68	10413.04
487.85	10527.73
488.03	10340.49
488.21	10546.45
488.39	10771.15
488.57	10714.97
488.75	10628.37
488.92	10789.87
489.10	10703.27
489.28	11012.22
489.46	11044.99
489.64	11049.67
489.81	11220.53
489.99	11342.24
490.17	11513.10
490.35	11674.59
490.53	11389.05
490.70	11494.37
490.88	11562.25
491.06	11740.13
491.24	11955.46
491.41	11910.99
491.59	12100.57
491.77	11803.32
491.95	12109.93
492.13	12133.34
492.30	12210.57
492.48	12381.43
492.66	12313.56
492.84	12435.27
493.01	12816.77
493.19	12699.75
493.37	12741.88
493.54	12793.37
493.72	13013.38
493.90	12905.71
494.08	12861.24
494.25	13310.63
494.43	12940.82
494.61	13217.01
494.79	13245.09
494.96	13387.86
495.14	13322.33
495.32	13565.74
495.49	13713.20
495.67	13673.41
495.85	13888.74
496.02	13738.94
496.20	14040.87
496.38	13944.91
496.55	13954.27
496.73	14288.97
496.91	14150.88
497.09	14546.43
497.26	14450.47
497.44	14197.69
497.62	14347.48
497.79	14726.65
497.97	14473.87
498.14	14710.27
498.32	14930.28
498.50	14853.04
498.67	15115.18
498.85	14867.08
499.03	15176.03
499.20	15129.22
499.38	15185.40
499.56	15316.47
499.73	15304.76
499.91	15264.97
500.08	15370.30
500.26	15330.51
500.44	15494.35
500.61	15365.62
500.79	15384.34
500.97	15789.25
501.14	15655.84
501.32	15562.22
501.49	15875.85
501.67	16119.27
501.84	15983.52
502.02	16039.69
502.20	15859.47
502.37	16063.10
502.55	16037.35
502.72	16248.00
502.90	16130.97
503.07	15864.15
503.25	16196.51
503.43	16489.07
503.60	16645.89
503.78	16465.67
503.95	16786.32
504.13	16589.72
504.30	16510.14
504.48	16786.32
504.65	16737.17
504.83	16912.71
505.01	17202.94
505.18	16938.46
505.36	17027.40
505.53	16898.67
505.71	16999.31
505.88	17041.44
506.06	16947.82
506.23	17273.15
506.41	17195.92
506.58	17790.41
506.76	17413.59
506.93	17572.74
507.11	17603.17
507.28	17394.86
507.46	17682.75
507.63	17851.27
507.81	17855.95
507.98	17692.11
508.16	18017.44
508.33	17872.33
508.50	17970.63
508.68	17891.06
508.85	17989.36
509.03	17970.63
509.20	18073.62
509.38	18333.42
509.55	18251.50
509.73	18515.98
509.90	18607.26
510.08	18621.30
510.25	18258.52
510.42	18600.24
510.60	18953.66
510.77	18457.46
510.95	18773.44
511.12	18558.11
511.30	18436.40
511.47	18747.69
511.64	18841.31
511.82	19056.64
511.99	18977.06
512.17	19241.54
512.34	19012.17
512.51	18979.40
512.69	19468.58
512.86	19360.91
513.04	19328.14
513.21	19367.93
513.38	19531.77
513.56	19611.35
513.73	19559.86
513.90	19494.32
514.08	19499.00
514.25	19594.96
514.43	19934.34
514.60	19903.92
514.77	19704.97
514.95	20114.56
515.12	19847.74
515.29	20002.22
515.47	20163.72
515.64	20077.12
515.81	20137.97
515.99	20240.95
516.16	20252.66
516.33	20439.90
516.51	20475.01
516.68	20472.67
516.85	20203.50
517.03	20444.58
517.20	20428.20
517.37	20435.22
517.54	20542.88
517.72	20500.75
517.89	20879.92
518.06	20758.21
518.24	20650.55
518.41	20760.55
518.58	20589.69
518.75	21228.66
518.93	21083.55
519.10	21170.15
519.27	21057.80
519.45	21137.38
519.62	21275.47
519.79	21015.67
519.96	20973.54
520.14	21549.31
520.31	21231.00
520.48	21748.26
520.65	21380.79
520.83	21481.44
521.00	21336.32
521.17	21432.29
521.34	21516.54
521.52	21827.84
521.69	21799.75
521.86	21418.24
522.03	21874.65
522.20	21876.99
522.38	22078.27
522.55	21544.63
522.72	21785.71
522.89	22097.00
523.07	22139.13
523.24	22033.80
523.41	22314.67
523.58	21888.69
523.75	22181.26
523.92	22317.01
524.10	22178.92
524.27	22562.76
524.44	22487.87
524.61	22661.07
524.78	22843.63
524.96	22398.93
525.13	22647.02
525.30	22728.94
525.47	22670.43
525.64	22661.07
525.81	22590.85
525.98	22829.59
526.16	22534.68
526.33	22960.66
526.50	22927.89
526.67	22508.93
526.84	22852.99
527.01	22881.08
527.18	23007.47
527.36	23344.50
527.53	23094.07
527.70	23391.31
527.87	23295.35
528.04	23323.44
528.21	23388.97
528.38	23147.90
528.55	23524.72
528.72	23180.67
528.89	23625.37
529.07	23335.14
529.24	23461.53
529.41	23786.86
529.58	23618.35
529.75	23578.56
529.92	23686.22
530.09	23861.76
530.26	23735.37
530.43	23943.68
530.60	23215.77
530.77	23967.09
530.94	23634.73
531.11	23779.84
531.28	23868.78
531.46	23814.95
531.63	24116.88
531.80	24098.16
531.97	24018.58
532.14	24098.16
532.31	24009.22
532.48	23896.87
532.65	24266.67
532.82	23924.96
532.99	24467.96
533.16	24088.79
533.33	24079.43
533.50	24491.37
533.67	24348.59
533.84	24320.51
534.01	24156.67
534.18	24287.74
534.35	24924.36
534.52	24240.93
534.69	24439.87
534.86	24734.78
535.03	24521.79
535.20	24842.45
535.37	24826.06
535.54	24744.14
535.71	24479.66
535.88	24922.02
536.05	24987.56
536.22	24907.98
536.38	25048.41
536.55	25041.39
536.72	25060.12
536.89	24741.80
537.06	24893.94
537.23	25350.34
537.40	25048.41
537.57	25275.45
537.74	25020.33
537.91	25511.84
538.08	25357.36
538.25	25109.27
538.42	25380.77
538.59	25448.64
538.75	25532.90
538.92	25259.06
539.09	25638.23
539.26	25542.27
539.43	25223.95
539.60	25420.56
539.77	25469.71
539.94	25813.77
540.11	25490.77
540.28	25312.89
540.44	25507.16
540.61	25652.27
540.78	25830.15
540.95	25682.70
541.12	25514.18
541.29	25530.56
541.46	25729.51
541.62	25635.89
541.79	25603.12
541.96	25263.74
542.13	25631.21
542.30	26071.23
542.47	26129.74
542.63	26199.96
542.80	26298.26
542.97	26349.75
543.14	26780.41
543.31	25923.77
543.48	26356.77
543.64	26684.45
543.81	26682.11
543.98	26621.25
544.15	26710.19
544.32	26909.14
544.48	26902.12
544.65	26532.31
544.82	26796.79
544.99	26363.79
545.16	26747.64
545.32	26808.50
545.49	26675.09
545.66	26867.01
545.83	26630.62
546.00	27388.95
546.16	26553.38
546.33	26548.70
546.50	26513.59
546.67	27040.21
546.83	26520.61
547.00	26639.98
547.17	26735.94
547.34	26906.80
547.50	27302.35
547.67	27000.42
547.84	27372.57
548.00	27290.65
548.17	27178.30
548.34	27426.40
548.51	27332.78
548.67	27700.24
548.84	27480.23
549.01	27178.30
549.18	27253.20
549.34	27335.12
549.51	27166.60
549.68	27227.45
549.84	27410.01
550.01	27803.22
550.18	27152.55
550.34	27639.39
550.51	27573.85
550.68	27419.38
550.84	27775.14
551.01	27400.65
551.18	27702.58
551.34	27449.80
551.51	27541.08
551.68	27435.76
551.84	27775.14
552.01	27938.97
552.18	27648.75
552.34	27903.87
552.51	28137.92
552.68	27866.42
552.84	28100.47
553.01	28063.02
553.18	27782.16
553.34	28079.41
553.51	27812.59
553.67	28065.36
553.84	28056.00
554.01	28149.62
554.17	28285.37
554.34	28070.04
554.51	27929.61
554.67	27981.10
554.84	28421.13
555.00	27962.38
555.17	27964.72
555.33	28201.11
555.50	28271.33
555.67	28161.33
555.83	28128.56
556.00	28294.74
556.16	28692.63
556.33	28154.30
556.50	28041.96
556.66	28500.70
556.83	28137.92
556.99	28341.55
557.16	28357.93
557.32	28634.11
557.49	28690.29
557.65	28556.88
557.82	28498.36
557.98	28400.06
558.15	28678.58
558.32	28599.01
558.48	28409.42
558.65	28760.50
558.81	28489.00
558.98	28465.60
559.14	28669.22
559.31	28910.30
559.47	28348.57
559.64	28680.92
559.80	28531.13
559.97	28945.41
560.13	28926.68
560.30	28748.80
560.46	28849.44
560.63	28746.46
560.79	28709.01
560.96	28877.53
561.12	29158.39
561.29	28959.45
561.45	28709.01
561.61	28982.85
561.78	29095.20
561.94	29039.03
562.11	29179.46
562.27	29057.75
562.44	28634.11
562.60	29149.03
562.77	29109.24
562.93	29043.71
563.10	29331.59
563.26	29385.43
563.42	28936.04
563.59	29336.27
563.75	29055.41
563.92	28936.04
564.08	29076.48
564.24	29237.97
564.41	29179.46
564.57	28961.79
564.74	29380.74
564.90	29455.64
565.07	29390.11
565.23	29759.91
565.39	29296.49
565.56	29696.72
565.72	29046.05
565.88	29324.57
566.05	29415.85
566.21	29216.91
566.38	29387.77
566.54	29572.67
566.70	29488.41
566.87	29923.75
567.03	29387.77
567.19	29596.07
567.36	29202.86
567.52	29247.33
567.68	29589.05
567.85	29563.31
568.01	29441.60
568.17	29242.65
568.34	29303.51
568.50	29352.66
568.66	29699.06
568.83	29226.27
568.99	29338.62
569.15	29319.89
569.32	29336.27
569.48	29518.84
569.64	29692.04
569.81	29490.75
569.97	29390.11
570.13	29680.33
570.30	29593.73
570.46	29670.97
570.62	29457.98
570.78	29347.98
570.95	29130.31
571.11	29734.17
571.27	29024.98
571.43	29298.83
571.60	29200.52
571.76	29572.67
571.92	29514.16
572.09	29390.11
572.25	30068.86
572.41	29663.95
572.57	29668.63
572.74	29902.68
572.90	29474.37
573.06	29532.88
573.22	29523.52
573.38	29792.68
573.55	29612.46
573.71	29989.28
573.87	29869.92
574.03	30092.27
574.20	29933.11
574.36	29488.41
574.52	29598.41
574.68	29357.34
574.84	29575.01
575.01	29869.92
575.17	30008.01
575.33	29572.67
575.49	29497.77
575.65	29930.77
575.82	29813.74
575.98	29514.16
576.14	29839.49
576.30	29909.71
576.46	29523.52
576.62	29804.38
576.79	29858.21
576.95	29673.31
577.11	29750.55
577.27	30221.00
577.43	29769.27
577.59	29486.07
577.75	29685.01
577.92	29448.62
578.08	29525.86
578.24	29830.13
578.40	30019.71
578.56	29905.02
578.72	30162.48
578.88	29755.23
579.04	30298.23
579.21	29982.26
579.37	30129.72
579.53	29645.23
579.69	29511.81
579.85	29876.94
580.01	29663.95
580.17	29851.19
580.33	30087.59
580.49	30148.44
580.65	29872.26
580.82	29839.49
580.98	30314.62
581.14	29993.97
581.30	30059.50
581.46	29771.61
581.62	29855.87
581.78	29816.08
581.94	30040.78
582.10	29769.27
582.26	30075.88
582.42	29954.18
582.58	30118.01
582.74	29949.50
582.90	29841.83
583.06	29956.52
583.22	30054.82
583.38	29766.93
583.54	30005.67
583.70	30288.87
583.86	29982.26
584.02	30094.61
584.18	29979.92
584.34	29951.84
584.50	30045.46
584.66	30169.51
584.82	29659.27
584.98	30122.69
585.14	29755.23
585.30	29881.62
585.46	30043.12
585.62	29935.45
585.78	30291.21
585.94	29752.89
586.10	29998.65
586.26	29846.51
586.42	30218.66
586.58	30010.35
586.74	29954.18
586.90	30272.49
587.06	29769.27
587.22	30054.82
587.38	29949.50
587.54	30581.44
587.70	30405.90
587.86	30696.13
588.02	30143.76
588.18	30375.47
588.34	30040.78
588.49	30038.44
588.65	29811.40
588.81	30206.95
588.97	30431.65
589.13	30267.81
589.29	30132.06
589.45	30415.26
589.61	30148.44
589.77	30309.94
589.93	30457.39
590.08	30560.37
590.24	30223.34
590.40	30604.84
590.56	30504.20
590.72	30223.34
590.88	29881.62
591.04	30183.55
591.20	30625.91
591.35	30897.41
591.51	30838.90
591.67	30616.55
591.83	30740.60
591.99	30656.34
