SpectraSuite Data File
++++++++++++++++++++++++++++++++++++
Date: Fri Oct 18 13:58:14 GMT-05:00 2013
User: bianchi
Dark Spectrum Present: No
Reference Spectrum Present: No
Number of Sampled Component Spectra: 1
Spectrometers: USB2+H05261
Integration Time (usec): 50000 (USB2+H05261)
Spectra Averaged: 1 (USB2+H05261)
Boxcar Smoothing: 0 (USB2+H05261)
Correct for Electrical Dark: No (USB2+H05261)
Strobe/Lamp Enabled: No (USB2+H05261)
Correct for Detector Non-linearity: No (USB2+H05261)
Correct for Stray Light: No (USB2+H05261)
Number of Pixels in Processed Spectrum: 2048
>>>>>Begin Processed Spectral Data<<<<<
365.73	25.75
365.92	25.75
366.12	25.75
366.32	0.00
366.52	0.00
366.72	0.00
366.91	0.00
367.11	0.00
367.31	0.00
367.51	0.00
367.70	0.00
367.90	0.00
368.10	0.00
368.30	0.00
368.49	0.00
368.69	0.00
368.89	0.00
369.09	0.00
369.28	0.00
369.48	0.00
369.68	0.00
369.87	0.00
370.07	0.00
370.27	0.00
370.47	18.72
370.66	60.85
370.86	42.13
371.06	119.37
371.25	100.64
371.45	128.73
371.65	102.98
371.84	168.52
372.04	145.11
372.24	222.35
372.44	166.18
372.63	168.52
372.83	220.01
373.03	133.41
373.22	245.76
373.42	264.48
373.62	257.46
373.81	238.73
374.01	222.35
374.21	170.86
374.40	269.16
374.60	243.42
374.79	180.22
374.99	238.73
375.19	245.76
375.38	203.63
375.58	301.93
375.78	271.50
375.97	238.73
376.17	315.97
376.37	259.80
376.56	266.82
376.76	313.63
376.95	255.12
377.15	290.23
377.35	297.25
377.54	339.38
377.74	217.67
377.93	330.02
378.13	262.14
378.33	236.39
378.52	234.05
378.72	280.86
378.91	259.80
379.11	276.18
379.31	346.40
379.50	257.46
379.70	344.06
379.89	290.23
380.09	299.59
380.28	292.57
380.48	294.91
380.68	325.33
380.87	292.57
381.07	407.25
381.26	294.91
381.46	259.80
381.65	290.23
381.85	341.72
382.04	330.02
382.24	334.70
382.43	271.50
382.63	365.12
382.83	360.44
383.02	325.33
383.22	372.15
383.41	299.59
383.61	320.65
383.80	383.85
384.00	428.32
384.19	318.31
384.39	337.04
384.58	306.61
384.78	390.87
384.97	327.68
385.17	360.44
385.36	416.62
385.56	414.27
385.75	339.38
385.95	437.68
386.14	341.72
386.34	423.64
386.53	374.49
386.72	360.44
386.92	437.68
387.11	477.47
387.31	386.19
387.50	461.09
387.70	433.00
387.89	418.96
388.09	479.81
388.28	425.98
388.48	425.98
388.67	496.19
388.86	496.19
389.06	463.43
389.25	407.25
389.45	533.64
389.64	451.72
389.84	458.74
390.03	465.77
390.22	531.30
390.42	535.98
390.61	418.96
390.81	477.47
391.00	491.51
391.19	444.70
391.39	531.30
391.58	470.45
391.78	456.40
391.97	545.34
392.16	559.39
392.36	566.41
392.55	580.45
392.75	496.19
392.94	580.45
393.13	608.54
393.33	545.34
393.52	503.22
393.71	613.22
393.91	643.65
394.10	596.84
394.29	592.16
394.49	554.71
394.68	638.97
394.88	547.69
395.07	655.35
395.26	564.07
395.46	599.18
395.65	589.82
395.84	594.50
396.04	608.54
396.23	571.09
396.42	608.54
396.62	631.94
396.81	624.92
397.00	606.20
397.19	667.05
397.39	599.18
397.58	748.97
397.77	592.16
397.97	662.37
398.16	702.16
398.35	732.59
398.55	706.84
398.74	669.39
398.93	732.59
399.12	655.35
399.32	697.48
399.51	706.84
399.70	657.69
399.90	711.52
400.09	823.87
400.28	835.57
400.47	765.36
400.67	844.93
400.86	784.08
401.05	837.91
401.24	849.61
401.44	842.59
401.63	849.61
401.82	812.17
402.01	784.08
402.21	884.72
402.40	809.83
402.59	770.04
402.78	889.40
402.97	919.83
403.17	854.30
403.36	931.53
403.55	798.12
403.74	830.89
403.93	847.27
404.13	947.92
404.32	945.58
404.51	887.06
404.70	912.81
404.89	905.79
405.09	929.19
405.28	954.94
405.47	987.71
405.66	994.73
405.85	924.51
406.05	926.85
406.24	1006.43
406.43	1015.79
406.62	1060.26
406.81	1118.78
407.00	990.05
407.20	1067.28
407.39	1043.88
407.58	1064.94
407.77	1114.10
407.96	1137.50
408.15	1121.12
408.34	1081.33
408.54	1135.16
408.73	1104.73
408.92	1102.39
409.11	1137.50
409.30	1135.16
409.49	1111.75
409.68	1156.22
409.87	1095.37
410.07	1156.22
410.26	1203.04
410.45	1184.31
410.64	1198.35
410.83	1071.97
411.02	1263.89
411.21	1245.16
411.40	1247.51
411.59	1252.19
411.78	1118.78
411.98	1266.23
412.17	1291.98
412.36	1299.00
412.55	1418.36
412.74	1453.47
412.93	1357.51
413.12	1303.68
413.31	1362.19
413.50	1291.98
413.69	1369.21
413.88	1465.18
414.07	1401.98
414.26	1411.34
414.45	1519.01
414.64	1483.90
414.83	1526.03
415.02	1544.75
415.22	1563.48
415.41	1493.26
415.60	1497.94
415.79	1521.35
415.98	1540.07
416.17	1612.63
416.36	1619.65
416.55	1624.33
416.74	1551.78
416.93	1535.39
417.12	1600.93
417.31	1753.06
417.50	1701.57
417.69	1739.02
417.88	1783.49
418.07	1682.85
418.26	1729.66
418.45	1668.80
418.64	1760.08
418.83	1804.55
419.02	1788.17
419.21	1839.66
419.39	1877.11
419.58	1790.51
419.77	1757.74
419.96	1881.79
420.15	1858.39
420.34	1795.19
420.53	1811.57
420.72	1947.33
420.91	1888.81
421.10	1984.77
421.29	1923.92
421.48	1968.39
421.67	1893.49
421.86	2010.52
422.05	1973.07
422.24	1935.62
422.43	1977.75
422.61	1963.71
422.80	2029.24
422.99	1984.77
423.18	2019.88
423.37	2012.86
423.56	1952.01
423.75	2125.21
423.94	1942.64
424.13	1872.43
424.32	1893.49
424.50	2057.33
424.69	2242.23
424.88	2099.46
425.07	1968.39
425.26	2019.88
425.45	2038.61
425.64	2015.20
425.83	1966.05
426.01	2125.21
426.20	1994.14
426.39	2097.12
426.58	2052.65
426.77	2066.69
426.96	2069.03
427.15	2019.88
427.33	2066.69
427.52	2209.47
427.71	2132.23
427.90	2183.72
428.09	2118.18
428.28	2207.13
428.46	2239.89
428.65	2143.93
428.84	2312.45
429.03	2307.77
429.22	2099.46
429.40	2129.89
429.59	2345.22
429.78	2429.48
429.97	2188.40
430.16	2253.94
430.34	2209.47
430.53	2333.51
430.72	2300.75
430.91	2282.02
431.10	2335.85
431.28	2314.79
431.47	2326.49
431.66	2553.52
431.85	2345.22
432.03	2513.74
432.22	2509.05
432.41	2457.56
432.60	2506.71
432.79	2410.75
432.97	2387.35
433.16	2375.64
433.35	2436.50
433.54	2457.56
433.72	2565.23
433.91	2504.37
434.10	2686.94
434.28	2548.84
434.47	2555.86
434.66	2562.89
434.85	2630.76
435.03	2511.39
435.22	2548.84
435.41	2679.91
435.59	2682.25
435.78	2572.25
435.97	2689.28
436.16	2658.85
436.34	2670.55
436.53	2633.10
436.72	2715.02
436.90	2693.96
437.09	2708.00
437.28	2668.21
437.46	2729.06
437.65	2719.70
437.84	2906.95
438.02	2825.03
438.21	2832.05
438.40	2792.26
438.58	2970.14
438.77	2977.16
438.96	2963.12
439.14	2993.55
439.33	2876.52
439.52	2979.50
439.70	3089.51
439.89	3096.53
440.08	3108.23
440.26	3040.36
440.45	3007.59
440.63	3082.49
440.82	3047.38
441.01	3145.68
441.19	3138.66
441.38	3274.41
441.57	3157.38
441.75	3148.02
441.94	3265.05
442.12	3253.34
442.31	3449.95
442.50	3288.45
442.68	3325.90
442.87	3272.07
443.05	3372.71
443.24	3325.90
443.43	3384.41
443.61	3384.41
443.80	3405.48
443.98	3391.44
444.17	3262.71
444.35	3321.22
444.54	3342.28
444.73	3463.99
444.91	3370.37
445.10	3463.99
445.28	3478.04
445.47	3487.40
445.65	3435.91
445.84	3478.04
446.02	3503.78
446.21	3531.87
446.39	3534.21
446.58	3576.34
446.77	3412.50
446.95	3447.61
447.14	3482.72
447.32	3527.19
447.51	3520.17
447.69	3433.57
447.88	3510.80
448.06	3602.08
448.25	3452.29
448.43	3574.00
448.62	3506.12
448.80	3665.28
448.99	3557.61
449.17	3578.68
449.36	3719.11
449.54	3648.90
449.73	3730.81
449.91	3644.21
450.10	3735.50
450.28	3845.50
450.46	3782.31
450.65	3779.97
450.83	3889.97
451.02	3833.80
451.20	3824.44
451.39	3946.14
451.57	3723.79
451.76	3878.27
451.94	3908.69
452.13	3906.35
452.31	3941.46
452.49	3885.29
452.68	3833.80
452.86	3964.87
453.05	3927.42
453.23	3955.51
453.42	3943.80
453.60	3831.46
453.78	3857.20
453.97	3880.61
454.15	3932.10
454.34	4142.75
454.52	4056.15
454.70	3939.12
454.89	3934.44
455.07	4088.92
455.26	4175.52
455.44	4135.73
455.62	4051.47
455.81	3957.85
455.99	4156.79
456.17	4072.53
456.36	4067.85
456.54	4182.54
456.73	4250.41
456.91	4393.19
457.09	4262.12
457.28	4248.07
457.46	4201.26
457.64	4390.84
457.83	4205.94
458.01	4379.14
458.19	4313.61
458.38	4507.87
458.56	4444.68
458.74	4400.21
458.93	4547.66
459.11	4362.76
459.29	4435.32
459.48	4470.42
459.66	4594.47
459.84	4753.63
460.03	4627.24
460.21	4622.56
460.39	4397.87
460.57	4423.61
460.76	4514.89
460.94	4685.75
461.12	4617.88
461.31	4655.33
461.49	4683.41
461.67	4500.85
461.85	4706.82
462.04	4718.52
462.22	5100.03
462.40	4807.46
462.59	4725.54
462.77	4751.29
462.95	4739.58
463.13	4774.69
463.32	4844.91
463.50	4800.44
463.68	4894.06
463.86	4905.76
464.05	4793.42
464.23	5008.75
464.41	4999.38
464.59	4798.10
464.78	4933.85
464.96	4877.68
465.14	4779.37
465.32	5043.85
465.50	4980.66
465.69	5102.37
465.87	5025.13
466.05	4980.66
466.23	5074.28
466.41	4992.36
466.60	5128.11
466.78	5184.29
466.96	5137.48
467.14	5046.20
467.32	5214.71
467.51	5238.12
467.69	5177.26
467.87	5193.65
468.05	5280.25
468.23	5212.37
468.41	5060.24
468.60	5282.59
468.78	5291.95
468.96	5214.71
469.14	5261.52
469.32	5507.28
469.50	5135.14
469.69	5348.12
469.87	5488.56
470.05	5369.19
470.23	5329.40
470.41	5413.66
470.59	5626.65
470.77	5416.00
470.95	5518.98
471.14	5544.73
471.32	5507.28
471.50	5638.35
471.68	5664.10
471.86	5467.49
472.04	5640.69
472.22	5809.21
472.40	5818.57
472.58	5790.49
472.77	5738.99
472.95	5774.10
473.13	5970.71
473.31	5802.19
473.49	5893.47
473.67	5706.23
473.85	5977.73
474.03	6150.93
474.21	6019.86
474.39	6101.78
474.57	6139.23
474.75	6209.44
474.93	6071.35
475.12	6211.78
475.30	6291.36
475.48	6251.57
475.66	6293.70
475.84	6415.41
476.02	6267.95
476.20	6366.26
476.38	6483.28
476.56	6438.81
476.74	6675.21
476.92	6464.56
477.10	6490.31
477.28	6778.19
477.46	6743.08
477.64	6771.17
477.82	6899.90
478.00	7131.61
478.18	7028.63
478.36	7042.67
478.54	7084.80
478.72	7089.48
478.90	7239.28
479.08	7368.01
479.26	7321.20
479.44	7208.85
479.62	7438.22
479.80	7506.10
479.98	7218.21
480.16	7531.84
480.34	7588.02
480.52	7616.10
480.70	7812.71
480.88	7686.32
481.06	7679.30
481.24	7740.15
481.41	7859.52
481.59	8060.80
481.77	7999.95
481.95	7969.52
482.13	8245.71
482.31	8280.82
482.49	8294.86
482.67	8128.68
482.85	8383.80
483.03	8599.13
483.21	8631.90
483.39	8564.02
483.57	8608.49
483.74	8809.78
483.92	8849.57
484.10	8936.17
484.28	8971.27
484.46	9151.49
484.64	9118.73
484.82	8865.95
485.00	9193.62
485.18	9397.25
485.35	9507.26
485.53	9369.16
485.71	9268.52
485.89	9841.95
486.07	9558.75
486.25	9591.52
486.43	9675.77
486.61	9762.37
486.78	9942.60
486.96	9914.51
487.14	10141.54
487.32	10068.98
487.50	10129.84
487.68	10214.10
487.85	10298.36
488.03	10567.52
488.21	10490.28
488.39	10485.60
488.57	10904.56
488.75	10899.87
488.92	11033.29
489.10	11117.54
489.28	10846.04
489.46	11211.17
489.64	11140.95
489.81	11400.75
489.99	11609.06
490.17	11337.56
490.35	11618.42
490.53	11543.52
490.70	11639.48
490.88	11522.46
491.06	11929.71
491.24	11927.37
491.41	11602.04
491.59	11880.56
491.77	12030.35
491.95	12233.98
492.13	12241.00
492.30	12463.35
492.48	12463.35
492.66	12456.33
492.84	12449.31
493.01	12566.34
493.19	12592.08
493.37	12816.77
493.54	12940.82
493.72	13034.44
493.90	12894.01
494.08	13020.40
494.25	13036.78
494.43	13261.48
494.61	13317.65
494.79	13394.89
494.96	13624.26
495.14	13390.20
495.32	13783.41
495.49	13650.00
495.67	13853.63
495.85	13516.59
496.02	13958.96
496.20	13694.47
496.38	14279.61
496.55	14204.71
496.73	14473.87
496.91	14230.46
497.09	14195.35
497.26	14497.28
497.44	14469.19
497.62	14497.28
497.79	14960.70
497.97	14600.26
498.14	14750.06
498.32	15049.64
498.50	15108.16
498.67	14972.41
498.85	15260.29
499.03	15040.28
499.20	15119.86
499.38	15094.11
499.56	15389.02
499.73	15363.28
499.91	15800.96
500.08	15714.36
500.26	15662.86
500.44	15578.61
500.61	15634.78
500.79	15543.50
500.97	15707.34
501.14	15917.98
501.32	15971.82
501.49	15693.29
501.67	15922.66
501.84	16184.80
502.02	15971.82
502.20	15964.79
502.37	16292.47
502.55	16383.75
502.72	16294.81
502.90	16435.24
503.07	16402.47
503.25	16713.77
503.43	16470.35
503.60	16615.46
503.78	16826.11
503.95	16723.13
504.13	16826.11
504.30	16762.92
504.48	16788.66
504.65	16737.17
504.83	17067.19
505.01	17469.76
505.18	17214.64
505.36	17114.00
505.53	16982.93
505.71	17179.53
505.88	17167.83
506.06	16863.56
506.23	17287.20
506.41	17528.27
506.58	17549.34
506.76	17383.16
506.93	17626.57
507.11	17516.57
507.28	17661.68
507.46	17823.18
507.63	17774.03
507.81	17954.25
507.98	17661.68
508.16	18370.86
508.33	18211.71
508.50	18017.44
508.68	18118.09
508.85	18068.94
509.03	18202.35
509.20	18394.27
509.38	18459.81
509.55	18363.84
509.73	18286.61
509.90	18420.02
510.08	18499.59
510.25	18672.79
510.42	18431.72
510.60	18768.76
510.77	18909.19
510.95	19094.09
511.12	18628.32
511.30	18438.74
511.47	18862.38
511.64	18918.55
511.82	19061.32
511.99	19108.13
512.17	19190.05
512.34	19133.88
512.51	19091.75
512.69	19569.22
512.86	19590.28
513.04	19311.76
513.21	19473.26
513.38	19456.87
513.56	19669.86
513.73	19735.40
513.90	19269.63
514.08	19442.83
514.25	19847.74
514.43	19716.67
514.60	20006.90
514.77	20147.33
514.95	20255.00
515.12	19988.18
515.29	19988.18
515.47	20180.10
515.64	20098.18
515.81	20063.07
515.99	20458.62
516.16	20610.76
516.33	19960.09
516.51	20566.29
516.68	20350.96
516.85	20627.14
517.03	20650.55
517.20	20760.55
517.37	20989.92
517.54	20863.54
517.72	20690.34
517.89	20568.63
518.06	20854.17
518.24	20830.77
518.41	20908.01
518.58	20638.84
518.75	20947.79
518.93	21074.18
519.10	21095.25
519.27	21364.41
519.45	21158.44
519.62	21153.76
519.79	20915.03
519.96	21163.12
520.14	21518.89
520.31	21504.84
520.48	21664.00
520.65	21455.69
520.83	21734.21
521.00	21350.37
521.17	21324.62
521.34	21703.79
521.52	21671.02
521.69	22089.98
521.86	21998.70
522.03	21954.22
522.20	21834.86
522.38	21855.92
522.55	21940.18
522.72	22026.78
522.89	22141.47
523.07	22265.52
523.24	22270.20
523.41	22295.94
523.58	22300.62
523.75	22455.10
523.92	22160.19
524.10	22412.97
524.27	22497.23
524.44	22527.66
524.61	22991.08
524.78	22696.17
524.96	22478.50
525.13	22682.13
525.30	22658.73
525.47	22689.15
525.64	22932.57
525.81	23068.32
525.98	22836.61
526.16	22986.40
526.33	23047.26
526.50	23168.96
526.67	22768.73
526.84	23161.94
527.01	23021.51
527.18	23009.81
527.36	23728.35
527.53	23030.87
527.70	23693.24
527.87	23042.57
528.04	23236.84
528.21	23580.90
528.38	23405.36
528.55	23241.52
528.72	23653.45
528.89	23513.02
529.07	23325.78
529.24	23709.63
529.41	23850.06
529.58	23597.28
529.75	23501.32
529.92	23714.31
530.09	23903.89
530.26	23906.23
530.43	24039.64
530.60	23655.79
530.77	23821.97
530.94	23791.55
531.11	23833.68
531.28	23702.61
531.46	23894.53
531.63	24025.60
531.80	23964.75
531.97	24276.04
532.14	24350.93
532.31	24236.25
532.48	24650.52
532.65	24297.10
532.82	23859.42
532.99	24334.55
533.16	24360.30
533.33	24339.23
533.50	24980.54
533.67	24964.15
533.84	24407.11
534.01	24283.06
534.18	24372.00
534.35	24938.41
534.52	24505.41
534.69	24570.94
534.86	24655.20
535.03	24592.01
535.20	24851.81
535.37	24631.80
535.54	24776.91
535.71	24943.09
535.88	25020.33
536.05	24900.96
536.22	25209.91
536.38	25139.69
536.55	25113.95
536.72	25226.29
536.89	25120.97
537.06	25443.96
537.23	25230.98
537.40	25205.23
537.57	25387.79
537.74	25390.13
537.91	25762.28
538.08	24926.71
538.25	25296.51
538.42	25434.60
538.59	25411.20
538.75	25378.43
538.92	25605.46
539.09	25537.59
539.26	25560.99
539.43	25413.54
539.60	25818.45
539.77	25912.07
539.94	26036.12
540.11	25785.68
540.28	25652.27
540.44	25912.07
540.61	25530.56
540.78	25504.82
540.95	26108.68
541.12	25663.97
541.29	25816.11
541.46	26031.44
541.62	25965.90
541.79	25806.75
541.96	25582.06
542.13	26033.78
542.30	26209.32
542.47	26106.34
542.63	26309.96
542.80	26295.92
542.97	26384.86
543.14	26572.10
543.31	26291.24
543.48	26515.93
543.64	26485.50
543.81	26841.26
543.98	26579.12
544.15	26920.84
544.32	26426.99
544.48	26941.91
544.65	26707.85
544.82	26443.37
544.99	26597.85
545.16	26806.16
545.32	26707.85
545.49	26948.93
545.66	27138.51
545.83	26934.88
546.00	26771.05
546.16	27033.19
546.33	26979.36
546.50	26583.80
546.67	26930.20
546.83	26874.03
547.00	26888.07
547.17	27164.26
547.34	27292.99
547.50	27292.99
547.67	27742.37
547.84	27440.44
548.00	27253.20
548.17	27489.59
548.34	27154.90
548.51	27391.29
548.67	27531.72
548.84	27440.44
549.01	27583.21
549.18	27241.50
549.34	27264.90
549.51	27384.27
549.68	27438.10
549.84	27505.98
550.01	27417.04
550.18	27674.49
550.34	27517.68
550.51	27887.48
550.68	27880.46
550.84	27393.63
551.01	27412.35
551.18	27676.83
551.34	27421.72
551.51	27484.91
551.68	27330.44
551.84	27756.41
552.01	27440.44
552.18	27744.71
552.34	27704.92
552.51	28091.11
552.68	27723.65
552.84	27686.20
553.01	27761.09
553.18	27810.25
553.34	28058.34
553.51	28044.30
553.67	28493.68
553.84	28481.98
554.01	28341.55
554.17	28299.42
554.34	27861.74
554.51	28027.92
554.67	28247.93
554.84	28486.66
555.00	28425.81
555.17	28568.58
555.33	28554.54
555.50	28460.91
555.67	28048.98
555.83	28474.96
556.00	28355.59
556.16	28575.60
556.33	28219.84
556.50	28341.55
556.66	28510.07
556.83	28484.32
556.99	28622.41
557.16	29062.43
557.32	29149.03
557.49	28713.69
557.65	28620.07
557.82	28528.79
557.98	28732.42
558.15	28959.45
558.32	28608.37
558.48	28819.02
558.65	29120.95
558.81	29039.03
558.98	28889.23
559.14	28924.34
559.31	28463.25
559.47	28568.58
559.64	28699.65
559.80	28687.95
559.97	29186.48
560.13	28959.45
560.30	29020.30
560.46	29223.93
560.63	28720.71
560.79	29511.81
560.96	29060.09
561.12	29067.11
561.29	28926.68
561.45	28940.72
561.61	29216.91
561.78	29123.29
561.94	28889.23
562.11	29369.04
562.27	29420.53
562.44	28912.64
562.60	29008.60
562.77	28767.52
562.93	29102.22
563.10	29645.23
563.26	29352.66
563.42	29465.00
563.59	29228.61
563.75	29048.39
563.92	29525.86
564.08	29151.37
564.24	28952.43
564.41	29390.11
564.57	28856.46
564.74	29200.52
564.90	29259.04
565.07	29310.53
565.23	29113.92
565.39	29270.74
565.56	29642.88
565.72	29640.54
565.88	29497.77
566.05	29530.54
566.21	29359.68
566.38	29020.30
566.54	29200.52
566.70	29692.04
566.87	29736.51
567.03	29544.58
567.19	29579.69
567.36	29790.34
567.52	29357.34
567.68	29570.33
567.85	29326.91
568.01	29729.48
568.17	29502.45
568.34	29788.00
568.50	29706.08
568.66	29769.27
568.83	30361.43
568.99	29528.20
569.15	29675.65
569.32	29752.89
569.48	29432.24
569.64	29546.92
569.81	29837.15
569.97	29841.83
570.13	29830.13
570.30	29628.84
570.46	29972.90
570.62	29855.87
570.78	29467.34
570.95	29549.26
571.11	29579.69
571.27	29383.09
571.43	29598.41
571.60	29792.68
571.76	29586.71
571.92	29617.14
572.09	29783.32
572.25	29799.70
572.41	29633.52
572.57	29738.85
572.74	30129.72
572.90	29685.01
573.06	29514.16
573.22	30103.97
573.38	29713.10
573.55	30073.54
573.71	29944.81
573.87	30125.04
574.03	30277.17
574.20	29696.72
574.36	29575.01
574.52	29820.77
574.68	30045.46
574.84	29790.34
575.01	29556.28
575.17	29441.60
575.33	29961.20
575.49	29883.96
575.65	29977.58
575.82	30092.27
575.98	30298.23
576.14	30181.21
576.30	29895.66
576.46	29762.25
576.62	30176.53
576.79	30314.62
576.95	30094.61
577.11	30408.24
577.27	30050.14
577.43	29713.10
577.59	30251.42
577.75	30323.98
577.92	29563.31
578.08	30204.61
578.24	29933.11
578.40	29713.10
578.56	30162.48
578.72	29972.90
578.88	29809.06
579.04	29954.18
579.21	29944.81
579.37	30092.27
579.53	30635.27
579.69	29890.98
579.85	30038.44
580.01	29947.15
580.17	29968.22
580.33	30026.73
580.49	29998.65
580.65	30045.46
580.82	29921.41
580.98	29855.87
581.14	30225.68
581.30	30223.34
581.46	30209.29
581.62	29720.12
581.78	29914.39
581.94	30199.93
582.10	30012.69
582.26	30033.75
582.42	30382.49
582.58	30569.74
582.74	30110.99
582.90	29998.65
583.06	30181.21
583.22	30167.16
583.38	30113.33
583.54	30073.54
583.70	29799.70
583.86	30300.58
584.02	29949.50
584.18	30569.74
584.34	30295.89
584.50	30518.25
584.66	30106.31
584.82	30342.70
584.98	30183.55
585.14	29956.52
585.30	30057.16
585.46	30433.99
585.62	30010.35
585.78	30473.78
585.94	30326.32
586.10	30029.07
586.26	30359.09
586.42	30218.66
586.58	30213.98
586.74	30129.72
586.90	30008.01
587.06	30246.74
587.22	30288.87
587.38	29783.32
587.54	30817.83
587.70	30398.88
587.86	30333.34
588.02	30347.39
588.18	30604.84
588.34	30658.68
588.49	30167.16
588.65	30286.53
588.81	29919.07
588.97	30480.80
589.13	30433.99
589.29	30164.82
589.45	30588.46
589.61	30141.42
589.77	30799.11
589.93	30490.16
590.08	30485.48
590.24	30724.21
590.40	30766.34
590.56	31007.42
590.72	30417.60
590.88	30429.30
591.04	30438.67
591.20	30651.66
591.35	30492.50
591.51	31049.55
591.67	30611.87
591.83	30822.51
