SpectraSuite Data File
++++++++++++++++++++++++++++++++++++
Date: Fri Oct 18 13:58:37 GMT-05:00 2013
User: bianchi
Dark Spectrum Present: No
Reference Spectrum Present: No
Number of Sampled Component Spectra: 1
Spectrometers: USB2+H05261
Integration Time (usec): 50000 (USB2+H05261)
Spectra Averaged: 1 (USB2+H05261)
Boxcar Smoothing: 0 (USB2+H05261)
Correct for Electrical Dark: No (USB2+H05261)
Strobe/Lamp Enabled: No (USB2+H05261)
Correct for Detector Non-linearity: No (USB2+H05261)
Correct for Stray Light: No (USB2+H05261)
Number of Pixels in Processed Spectrum: 2048
>>>>>Begin Processed Spectral Data<<<<<
365.73	0.00
365.92	0.00
366.12	0.00
366.32	0.00
366.52	0.00
366.72	0.00
366.91	0.00
367.11	0.00
367.31	0.00
367.51	0.00
367.70	0.00
367.90	0.00
368.10	0.00
368.30	0.00
368.49	0.00
368.69	0.00
368.89	0.00
369.09	0.00
369.28	0.00
369.48	0.00
369.68	0.00
369.87	0.00
370.07	0.00
370.27	0.00
370.47	0.00
370.66	86.60
370.86	110.01
371.06	102.98
371.25	229.37
371.45	126.39
371.65	110.01
371.84	152.13
372.04	159.16
372.24	201.29
372.44	238.73
372.63	201.29
372.83	238.73
373.03	180.22
373.22	170.86
373.42	173.20
373.62	234.05
373.81	170.86
374.01	203.63
374.21	198.95
374.40	198.95
374.60	362.78
374.79	276.18
374.99	266.82
375.19	262.14
375.38	229.37
375.58	229.37
375.78	273.84
375.97	308.95
376.17	262.14
376.37	262.14
376.56	243.42
376.76	238.73
376.95	210.65
377.15	301.93
377.35	257.46
377.54	273.84
377.74	184.90
377.93	252.78
378.13	208.31
378.33	231.71
378.52	201.29
378.72	332.36
378.91	266.82
379.11	332.36
379.31	248.10
379.50	217.67
379.70	290.23
379.89	346.40
380.09	248.10
380.28	367.46
380.48	369.80
380.68	297.25
380.87	311.29
381.07	381.51
381.26	248.10
381.46	304.27
381.65	327.68
381.85	334.70
382.04	266.82
382.24	287.89
382.43	355.76
382.63	383.85
382.83	250.44
383.02	425.98
383.22	381.51
383.41	318.31
383.61	341.72
383.80	353.42
384.00	367.46
384.19	400.23
384.39	322.99
384.58	425.98
384.78	379.17
384.97	308.95
385.17	334.70
385.36	318.31
385.56	421.30
385.75	348.74
385.95	374.49
386.14	381.51
386.34	442.36
386.53	330.02
386.72	407.25
386.92	428.32
387.11	463.43
387.31	484.49
387.50	411.93
387.70	376.83
387.89	428.32
388.09	388.53
388.28	348.74
388.48	447.04
388.67	411.93
388.86	454.06
389.06	437.68
389.25	463.43
389.45	477.47
389.64	456.40
389.84	458.74
390.03	484.49
390.22	451.72
390.42	482.15
390.61	470.45
390.81	498.53
391.00	566.41
391.19	510.24
391.39	545.34
391.58	589.82
391.78	477.47
391.97	550.03
392.16	512.58
392.36	610.88
392.55	587.47
392.75	547.69
392.94	475.13
393.13	519.60
393.33	531.30
393.52	585.13
393.71	702.16
393.91	657.69
394.10	552.37
394.29	535.98
394.49	601.52
394.68	538.32
394.88	564.07
395.07	531.30
395.26	557.05
395.46	585.13
395.65	582.79
395.84	674.07
396.04	695.14
396.23	627.26
396.42	503.22
396.62	601.52
396.81	575.77
397.00	723.23
397.19	662.37
397.39	638.97
397.58	615.56
397.77	650.67
397.97	730.25
398.16	718.54
398.35	720.88
398.55	688.12
398.74	690.46
398.93	774.72
399.12	741.95
399.32	624.92
399.51	786.42
399.70	753.65
399.90	753.65
400.09	786.42
400.28	777.06
400.47	823.87
400.67	858.98
400.86	784.08
401.05	802.80
401.24	767.70
401.44	798.12
401.63	870.68
401.82	870.68
402.01	816.85
402.21	835.57
402.40	851.96
402.59	816.85
402.78	774.72
402.97	765.36
403.17	828.55
403.36	835.57
403.55	926.85
403.74	924.51
403.93	926.85
404.13	833.23
404.32	1043.88
404.51	870.68
404.70	903.45
404.89	894.08
405.09	1001.75
405.28	971.32
405.47	894.08
405.66	901.11
405.85	959.62
406.05	957.28
406.24	983.02
406.43	1053.24
406.62	1048.56
406.81	1123.46
407.00	1074.31
407.20	929.19
407.39	1076.65
407.58	1128.14
407.77	1088.35
407.96	1069.62
408.15	1060.26
408.34	1011.11
408.54	1006.43
408.73	1036.86
408.92	1076.65
409.11	1109.41
409.30	1123.46
409.49	1188.99
409.68	1153.88
409.87	1142.18
410.07	1191.33
410.26	1174.95
410.45	1151.54
410.64	1104.73
410.83	1228.78
411.02	1268.57
411.21	1165.59
411.40	1275.59
411.59	1287.29
411.78	1228.78
411.98	1210.06
412.17	1329.42
412.36	1320.06
412.55	1277.93
412.74	1301.34
412.93	1273.25
413.12	1294.32
413.31	1467.52
413.50	1315.38
413.69	1394.96
413.88	1387.94
414.07	1476.88
414.26	1385.60
414.45	1526.03
414.64	1427.73
414.83	1425.39
415.02	1448.79
415.22	1490.92
415.41	1633.69
415.60	1614.97
415.79	1629.01
415.98	1523.69
416.17	1633.69
416.36	1617.31
416.55	1675.82
416.74	1650.08
416.93	1633.69
417.12	1636.03
417.31	1696.89
417.50	1769.44
417.69	1741.36
417.88	1767.10
418.07	1724.97
418.26	1612.63
418.45	1757.74
418.64	1877.11
418.83	1797.53
419.02	1743.70
419.21	1832.64
419.39	1804.55
419.58	1757.74
419.77	1832.64
419.96	1839.66
420.15	1863.07
420.34	1851.36
420.53	1881.79
420.72	1975.41
420.91	1907.54
421.10	1863.07
421.29	1928.60
421.48	1802.21
421.67	1994.14
421.86	1935.62
422.05	2017.54
422.24	2071.37
422.43	2017.54
422.61	1959.03
422.80	2066.69
422.99	2003.50
423.18	2076.06
423.37	2029.24
423.56	2029.24
423.75	2122.87
423.94	1975.41
424.13	1984.77
424.32	2010.52
424.50	2045.63
424.69	1973.07
424.88	1942.64
425.07	1994.14
425.26	1977.75
425.45	2054.99
425.64	2090.10
425.83	1994.14
426.01	2129.89
426.20	2045.63
426.39	2094.78
426.58	1980.09
426.77	2071.37
426.96	2127.55
427.15	2120.53
427.33	2054.99
427.52	2078.40
427.71	2239.89
427.90	2188.40
428.09	2211.81
428.28	2246.91
428.46	2225.85
428.65	2256.28
428.84	2289.04
429.03	2235.21
429.22	2251.60
429.40	2258.62
429.59	2204.78
429.78	2303.09
429.97	2207.13
430.16	2249.25
430.34	2305.43
430.53	2314.79
430.72	2265.64
430.91	2265.64
431.10	2338.20
431.28	2303.09
431.47	2448.20
431.66	2459.90
431.85	2321.81
432.03	2410.75
432.22	2434.16
432.41	2537.14
432.60	2403.73
432.79	2443.52
432.97	2443.52
433.16	2544.16
433.35	2445.86
433.54	2548.84
433.72	2511.39
433.91	2457.56
434.10	2576.93
434.28	2548.84
434.47	2478.63
434.66	2576.93
434.85	2677.57
435.03	2633.10
435.22	2633.10
435.41	2773.53
435.59	2663.53
435.78	2726.72
435.97	2677.57
436.16	2586.29
436.34	2710.34
436.53	2600.34
436.72	2754.81
436.90	2700.98
437.09	2743.11
437.28	2609.70
437.46	2708.00
437.65	2717.36
437.84	2745.45
438.02	2799.28
438.21	2850.77
438.40	2794.60
438.58	2857.79
438.77	3045.04
438.96	2722.04
439.14	2951.42
439.33	3035.67
439.52	2965.46
439.70	2930.35
439.89	3028.65
440.08	3112.91
440.26	3002.91
440.45	3091.85
440.63	3023.97
440.82	3105.89
441.01	3194.83
441.19	3045.04
441.38	3124.62
441.57	3131.64
441.75	3239.30
441.94	3295.47
442.12	3222.92
442.31	3335.26
442.50	3229.94
442.68	3187.81
442.87	3396.12
443.05	3358.67
443.24	3499.10
443.43	3358.67
443.61	3417.18
443.80	3536.55
443.98	3442.93
444.17	3211.22
444.35	3562.30
444.54	3510.80
444.73	3452.29
444.91	3513.14
445.10	3550.59
445.28	3471.01
445.47	3414.84
445.65	3442.93
445.84	3456.97
446.02	3534.21
446.21	3468.67
446.39	3356.33
446.58	3473.36
446.77	3555.27
446.95	3412.50
447.14	3440.59
447.32	3485.06
447.51	3520.17
447.69	3492.08
447.88	3492.08
448.06	3552.93
448.25	3414.84
448.43	3578.68
448.62	3473.36
448.80	3489.74
448.99	3583.36
449.17	3684.00
449.36	3534.21
449.54	3641.87
449.73	3747.20
449.91	3574.00
450.10	3716.77
450.28	3798.69
450.46	3709.75
450.65	3688.68
450.83	3705.07
451.02	3815.07
451.20	3751.88
451.39	3857.20
451.57	3744.86
451.76	3679.32
451.94	3667.62
452.13	3955.51
452.31	3810.39
452.49	3824.44
452.68	3803.37
452.86	3861.88
453.05	3864.22
453.23	4063.17
453.42	3922.74
453.60	3852.52
453.78	4016.36
453.97	3810.39
454.15	3901.67
454.34	3786.99
454.52	3981.25
454.70	4060.83
454.89	4117.00
455.07	4117.00
455.26	4149.77
455.44	4084.23
455.62	4119.34
455.81	4135.73
455.99	4140.41
456.17	4086.58
456.36	4166.15
456.54	4219.99
456.73	4114.66
456.91	4390.84
457.09	4390.84
457.28	4381.48
457.46	4266.80
457.64	4372.12
457.83	4395.53
458.01	4299.56
458.19	4442.34
458.38	4299.56
458.56	4486.81
458.74	4421.27
458.93	4447.02
459.11	4437.66
459.29	4505.53
459.48	4634.26
459.66	4514.89
459.84	4540.64
460.03	4702.14
460.21	4568.73
460.39	4475.10
460.57	4444.68
460.76	4594.47
460.94	4503.19
461.12	4662.35
461.31	4652.98
461.49	4568.73
461.67	4596.81
461.85	4720.86
462.04	4578.09
462.22	4821.50
462.40	4774.69
462.59	4727.88
462.77	4582.77
462.95	4648.30
463.13	4816.82
463.32	4774.69
463.50	4821.50
463.68	4873.00
463.86	4856.61
464.05	4812.14
464.23	4924.49
464.41	4929.17
464.59	4809.80
464.78	4983.00
464.96	5078.96
465.14	4861.29
465.32	4954.91
465.50	4917.47
465.69	5090.67
465.87	4968.96
466.05	4901.08
466.23	4880.02
466.41	4938.53
466.60	5167.90
466.78	5050.88
466.96	5022.79
467.14	5006.41
467.32	5165.56
467.51	5240.46
467.69	5041.51
467.87	5308.34
468.05	5172.58
468.23	5064.92
468.41	5146.84
468.60	5146.84
468.78	5195.99
468.96	5191.31
469.14	5203.01
469.32	5289.61
469.50	5207.69
469.69	5411.32
469.87	5327.06
470.05	5397.28
470.23	5455.79
470.41	5392.59
470.59	5331.74
470.77	5327.06
470.95	5518.98
471.14	5614.95
471.32	5317.70
471.50	5486.22
471.68	5617.29
471.86	5645.37
472.04	5561.11
472.22	5764.74
472.40	5579.84
472.58	5694.52
472.77	5626.65
472.95	5781.12
473.13	6024.54
473.31	5877.09
473.49	5874.74
473.67	5837.30
473.85	5893.47
474.03	5973.05
474.21	5987.09
474.39	6064.33
474.57	6120.50
474.75	6251.57
474.93	6033.90
475.12	6239.87
475.30	6026.88
475.48	6141.57
475.66	6249.23
475.84	6321.79
476.02	6448.18
476.20	6221.14
476.38	6455.20
476.56	6487.96
476.74	6764.15
476.92	6420.09
477.10	6487.96
477.28	6630.74
477.46	6745.42
477.64	6743.08
477.82	6679.89
478.00	6981.82
478.18	6890.54
478.36	7021.61
478.54	6960.75
478.72	7122.25
478.90	7133.95
479.08	7225.23
479.26	7269.70
479.44	7211.19
479.62	7279.07
479.80	7527.16
479.98	7314.17
480.16	7658.23
480.34	7335.24
480.52	7473.33
480.70	7562.27
480.88	7445.24
481.06	7644.19
481.24	7786.96
481.41	7936.76
481.59	7934.42
481.77	7943.78
481.95	7985.91
482.13	8049.10
482.31	8030.38
482.49	8369.76
482.67	8266.77
482.85	8306.56
483.03	8610.83
483.21	8500.83
483.39	8617.85
483.57	8606.15
483.74	8706.79
483.92	8858.93
484.10	8760.63
484.28	8922.12
484.46	9029.79
484.64	9212.35
484.82	8975.95
485.00	9221.71
485.18	9149.15
485.35	9324.69
485.53	9282.56
485.71	9273.20
485.89	9547.05
486.07	9582.15
486.25	9607.90
486.43	9563.43
486.61	9750.67
486.78	9771.74
486.96	10108.77
487.14	10263.25
487.32	10087.71
487.50	10092.39
487.68	10183.67
487.85	10427.09
488.03	10438.79
488.21	10539.43
488.39	10544.11
488.57	10731.36
488.75	10675.18
488.92	10883.49
489.10	10934.98
489.28	10810.93
489.46	11030.94
489.64	10972.43
489.81	11253.30
489.99	11236.91
490.17	11440.54
490.35	11595.01
490.53	11501.39
490.70	11569.27
490.88	11440.54
491.06	11922.69
491.24	11714.38
491.41	11957.80
491.59	11932.05
491.77	11899.28
491.95	11969.50
492.13	12056.10
492.30	12383.77
492.48	12379.09
492.66	12306.54
492.84	12191.85
493.01	12493.78
493.19	12423.56
493.37	12784.01
493.54	12865.92
493.72	12800.39
493.90	13135.09
494.08	13050.83
494.25	13041.46
494.43	13036.78
494.61	13317.65
494.79	13238.07
494.96	13317.65
495.14	13390.20
495.32	13668.73
495.49	13331.69
495.67	13790.44
495.85	13708.52
496.02	13722.56
496.20	13968.32
496.38	13867.67
496.55	13874.70
496.73	14417.70
496.91	14068.96
497.09	14483.24
497.26	14569.83
497.44	14087.68
497.62	14499.62
497.79	14771.12
497.97	14579.20
498.14	14677.50
498.32	14920.92
498.50	14927.94
498.67	14881.13
498.85	14815.59
499.03	14934.96
499.20	15061.35
499.38	15033.26
499.56	15627.76
499.73	15192.42
499.91	15316.47
500.08	15391.36
500.26	15391.36
500.44	15321.15
500.61	15484.98
500.79	15307.10
500.97	15527.11
501.14	15843.09
501.32	16189.49
501.49	15857.13
501.67	15791.59
501.84	16004.58
502.02	16126.29
502.20	16177.78
502.37	16130.97
502.55	16123.95
502.72	16100.55
502.90	16180.12
503.07	16250.34
503.25	16102.89
503.43	16500.78
503.60	16477.37
503.78	16547.59
503.95	16664.61
504.13	16648.23
504.30	16540.57
504.48	16362.69
504.65	16737.17
504.83	16840.15
505.01	16933.78
505.18	16847.18
505.36	17216.98
505.53	17001.65
505.71	17111.66
505.88	17263.79
506.06	17539.97
506.23	17612.53
506.41	17130.38
506.58	17378.48
506.76	17462.74
506.93	17453.37
507.11	17556.36
507.28	17579.76
507.46	17572.74
507.63	17860.63
507.81	18057.23
507.98	17902.76
508.16	17788.07
508.33	17944.89
508.50	17972.97
508.68	17907.44
508.85	18090.00
509.03	18125.11
509.20	18391.93
509.38	18249.16
509.55	18553.43
509.73	18466.83
509.90	18328.74
510.08	18310.01
510.25	18431.72
510.42	18352.14
510.60	18967.70
510.77	18970.04
510.95	18553.43
511.12	18766.42
511.30	18834.29
511.47	18757.05
511.64	18874.08
511.82	19028.56
511.99	18981.74
512.17	19143.24
512.34	18977.06
512.51	19152.60
512.69	19009.83
512.86	19283.67
513.04	19744.76
513.21	19592.62
513.38	19445.17
513.56	19405.38
513.73	19590.28
513.90	19513.05
514.08	19454.53
514.25	19487.30
514.43	20004.56
514.60	19606.67
514.77	19716.67
514.95	20044.35
515.12	19953.07
515.29	19955.41
515.47	19824.34
515.64	19744.76
515.81	19948.39
515.99	20215.21
516.16	20489.05
516.33	20144.99
516.51	20369.68
516.68	20140.31
516.85	20372.02
517.03	20507.77
517.20	20699.70
517.37	20713.74
517.54	20503.09
517.72	20482.03
517.89	20697.36
518.06	20589.69
518.24	20765.23
518.41	20861.19
518.58	20659.91
518.75	20788.64
518.93	20954.82
519.10	20716.08
519.27	20865.88
519.45	21125.68
519.62	20975.88
519.79	20695.02
519.96	21193.55
520.14	21287.17
520.31	21172.49
520.48	21153.76
520.65	21268.45
520.83	21638.25
521.00	21205.25
521.17	21207.59
521.34	21532.93
521.52	21727.19
521.69	21701.45
521.86	21991.67
522.03	21825.50
522.20	21916.78
522.38	22345.09
522.55	21942.52
522.72	21797.41
522.89	21893.37
523.07	22143.81
523.24	22183.60
523.41	21989.33
523.58	22085.30
523.75	22139.13
523.92	21977.63
524.10	22277.22
524.27	22328.71
524.44	22298.28
524.61	22714.90
524.78	22370.84
524.96	22438.72
525.13	22328.71
525.30	22857.67
525.47	22625.96
525.64	22246.79
525.81	22710.22
525.98	22899.80
526.16	23229.82
526.33	22899.80
526.50	23246.20
526.67	22735.96
526.84	22820.22
527.01	22977.04
527.18	23112.79
527.36	23089.38
527.53	23068.32
527.70	23384.29
527.87	23089.38
528.04	23442.81
528.21	23274.29
528.38	23491.96
528.55	23410.04
528.72	22991.08
528.89	23613.66
529.07	23267.27
529.24	23328.12
529.41	23468.55
529.58	23414.72
529.75	23733.03
529.92	23627.71
530.09	23686.22
530.26	23821.97
530.43	23702.61
530.60	23786.86
530.77	23854.74
530.94	24074.75
531.11	23562.17
531.28	23601.96
531.46	23763.46
531.63	23927.30
531.80	23868.78
531.97	24271.36
532.14	23983.47
532.31	24030.28
532.48	24175.39
532.65	24503.07
532.82	24084.11
532.99	24247.95
533.16	24224.54
533.33	24765.21
533.50	24528.81
533.67	24201.14
533.84	24512.43
534.01	24219.86
534.18	24184.76
534.35	24676.27
534.52	24416.47
534.69	24706.70
534.86	24765.21
535.03	24552.22
535.20	24999.26
535.37	24814.36
535.54	24702.01
535.71	24643.50
535.88	24725.42
536.05	25090.54
536.22	24952.45
536.38	24795.64
536.55	25013.31
536.72	25369.07
536.89	24968.84
537.06	25097.56
537.23	24889.26
537.40	24924.36
537.57	25209.91
537.74	25202.89
537.91	25238.00
538.08	25404.17
538.25	25109.27
538.42	25050.75
538.59	24915.00
538.75	25153.74
538.92	25383.11
539.09	25345.66
539.26	25418.22
539.43	25867.60
539.60	25916.75
539.77	25441.62
539.94	25579.71
540.11	25434.60
540.28	25678.02
540.44	25474.39
540.61	25593.76
540.78	25523.54
540.95	25830.15
541.12	25490.77
541.29	25769.30
541.46	25696.74
541.62	25778.66
541.79	25795.04
541.96	25614.82
542.13	25703.76
542.30	25965.90
542.47	25792.70
542.63	25933.14
542.80	26270.17
542.97	26242.09
543.14	26651.68
543.31	26497.20
543.48	26366.13
543.64	26064.21
543.81	26462.10
543.98	26628.27
544.15	26658.70
544.32	26705.51
544.48	27002.76
544.65	26604.87
544.82	26590.83
544.99	26115.70
545.16	26565.08
545.32	26656.36
545.49	26876.37
545.66	26714.87
545.83	26857.65
546.00	27129.15
546.16	26759.34
546.33	26677.43
546.50	26607.21
546.67	27199.37
546.83	26733.60
547.00	26951.27
547.17	26939.57
547.34	26806.16
547.50	26974.67
547.67	27302.35
547.84	27072.98
548.00	27208.73
548.17	27159.58
548.34	27002.76
548.51	27082.34
548.67	27400.65
548.84	27571.51
549.01	27449.80
549.18	27379.59
549.34	27087.02
549.51	27229.79
549.68	27044.89
549.84	27278.94
550.01	27517.68
550.18	27386.61
550.34	27613.64
550.51	27688.54
550.68	27332.78
550.84	27707.26
551.01	27489.59
551.18	27789.18
551.34	27496.61
551.51	27922.59
551.68	27665.13
551.84	27798.54
552.01	27630.02
552.18	27803.22
552.34	27920.25
552.51	27880.46
552.68	27269.58
552.84	27417.04
553.01	27819.61
553.18	27662.79
553.34	28407.08
553.51	27859.40
553.67	27604.28
553.84	28149.62
554.01	28151.96
554.17	28063.02
554.34	28201.11
554.51	27927.27
554.67	28313.46
554.84	28166.01
555.00	27967.06
555.17	28095.79
555.33	28477.30
555.50	28280.69
555.67	28383.68
555.83	28676.24
556.00	28067.70
556.16	28322.82
556.33	28322.82
556.50	28128.56
556.66	28568.58
556.83	28559.22
556.99	28774.55
557.16	28877.53
557.32	28329.84
557.49	28489.00
557.65	28390.70
557.82	28163.67
557.98	28285.37
558.15	28496.02
558.32	28591.98
558.48	28489.00
558.65	28521.77
558.81	28851.78
558.98	29163.08
559.14	28926.68
559.31	28891.57
559.47	28950.09
559.64	28519.43
559.80	28762.84
559.97	28926.68
560.13	28795.61
560.30	28889.23
560.46	28620.07
560.63	29184.14
560.79	28898.59
560.96	28706.67
561.12	28814.34
561.29	28725.39
561.45	28994.56
561.61	28982.85
561.78	29008.60
561.94	29511.81
562.11	28800.29
562.27	29008.60
562.44	29071.79
562.60	28826.04
562.77	28907.96
562.93	28790.93
563.10	29249.67
563.26	28922.00
563.42	29118.60
563.59	28903.28
563.75	29043.71
563.92	29455.64
564.08	29118.60
564.24	29064.77
564.41	29106.90
564.57	29207.55
564.74	29109.24
564.90	29270.74
565.07	29268.40
565.23	29149.03
565.39	29069.45
565.56	29556.28
565.72	29270.74
565.88	29558.63
566.05	29039.03
566.21	28947.75
566.38	29301.17
566.54	29483.73
566.70	29734.17
566.87	29717.78
567.03	29095.20
567.19	29509.47
567.36	29642.88
567.52	29362.02
567.68	29582.03
567.85	28973.49
568.01	29507.13
568.17	29425.22
568.34	29362.02
568.50	29336.27
568.66	29645.23
568.83	29476.71
568.99	29186.48
569.15	29762.25
569.32	29165.42
569.48	29582.03
569.64	29495.43
569.81	29221.59
569.97	29266.06
570.13	29771.61
570.30	29481.39
570.46	29752.89
570.62	29549.26
570.78	29500.11
570.95	29343.30
571.11	29811.40
571.27	29383.09
571.43	29511.81
571.60	29404.15
571.76	29104.56
571.92	29572.67
572.09	29907.37
572.25	29752.89
572.41	29682.67
572.57	29378.40
572.74	29916.73
572.90	29481.39
573.06	29706.08
573.22	29617.14
573.38	29614.80
573.55	29429.90
573.71	30026.73
573.87	29841.83
574.03	29450.96
574.20	29640.54
574.36	29420.53
574.52	29612.46
574.68	29596.07
574.84	29935.45
575.01	29652.25
575.17	29846.51
575.33	29851.19
575.49	30085.25
575.65	29773.95
575.82	29865.24
575.98	30036.09
576.14	29544.58
576.30	29883.96
576.46	29659.27
576.62	29589.05
576.79	29811.40
576.95	29706.08
577.11	29673.31
577.27	29757.57
577.43	30096.95
577.59	30024.39
577.75	29535.22
577.92	29979.92
578.08	29785.66
578.24	29736.51
578.40	29713.10
578.56	29975.24
578.72	30258.45
578.88	30347.39
579.04	30242.06
579.21	29586.71
579.37	29773.95
579.53	30239.72
579.69	29490.75
579.85	29839.49
580.01	29736.51
580.17	29954.18
580.33	29764.59
580.49	29635.86
580.65	29954.18
580.82	29722.46
580.98	29785.66
581.14	29823.11
581.30	30246.74
581.46	30008.01
581.62	29661.61
581.78	29682.67
581.94	29958.86
582.10	29415.85
582.26	29867.58
582.42	29989.28
582.58	29743.53
582.74	29635.86
582.90	29940.13
583.06	30129.72
583.22	30017.37
583.38	29979.92
583.54	29998.65
583.70	30054.82
583.86	29827.79
584.02	29879.28
584.18	29893.32
584.34	30272.49
584.50	30527.61
584.66	30019.71
584.82	29865.24
584.98	30015.03
585.14	29839.49
585.30	29795.02
585.46	29685.01
585.62	29979.92
585.78	29769.27
585.94	29947.15
586.10	30115.67
586.26	29656.93
586.42	30139.08
586.58	29890.98
586.74	29825.45
586.90	29977.58
587.06	30323.98
587.22	29816.08
587.38	29954.18
587.54	30342.70
587.70	30033.75
587.86	30249.08
588.02	30302.92
588.18	30185.89
588.34	30099.29
588.49	30029.07
588.65	30316.96
588.81	30054.82
588.97	29902.68
589.13	30338.02
589.29	30244.40
589.45	29883.96
589.61	30595.48
589.77	29993.97
589.93	30433.99
590.08	30616.55
590.24	30581.44
590.40	30492.50
590.56	30279.51
590.72	30183.55
590.88	30415.26
591.04	30155.46
591.20	30799.11
591.35	30520.59
591.51	30794.43
591.67	30448.03
591.83	30527.61
591.99	30431.65
