SpectraSuite Data File
++++++++++++++++++++++++++++++++++++
Date: Fri Oct 18 13:58:17 GMT-05:00 2013
User: bianchi
Dark Spectrum Present: No
Reference Spectrum Present: No
Number of Sampled Component Spectra: 1
Spectrometers: USB2+H05261
Integration Time (usec): 50000 (USB2+H05261)
Spectra Averaged: 1 (USB2+H05261)
Boxcar Smoothing: 0 (USB2+H05261)
Correct for Electrical Dark: No (USB2+H05261)
Strobe/Lamp Enabled: No (USB2+H05261)
Correct for Detector Non-linearity: No (USB2+H05261)
Correct for Stray Light: No (USB2+H05261)
Number of Pixels in Processed Spectrum: 2048
>>>>>Begin Processed Spectral Data<<<<<
365.73	0.00
365.92	0.00
366.12	0.00
366.32	0.00
366.52	0.00
366.72	0.00
366.91	0.00
367.11	0.00
367.31	0.00
367.51	0.00
367.70	0.00
367.90	0.00
368.10	0.00
368.30	0.00
368.49	0.00
368.69	0.00
368.89	0.00
369.09	0.00
369.28	0.00
369.48	0.00
369.68	0.00
369.87	0.00
370.07	0.00
370.27	0.00
370.47	0.00
370.66	56.17
370.86	72.56
371.06	112.35
371.25	170.86
371.45	72.56
371.65	159.16
371.84	161.50
372.04	88.94
372.24	131.07
372.44	166.18
372.63	131.07
372.83	287.89
373.03	196.60
373.22	205.97
373.42	156.82
373.62	245.76
373.81	243.42
374.01	227.03
374.21	234.05
374.40	208.31
374.60	248.10
374.79	194.26
374.99	252.78
375.19	337.04
375.38	198.95
375.58	283.20
375.78	128.73
375.97	271.50
376.17	372.15
376.37	292.57
376.56	287.89
376.76	304.27
376.95	259.80
377.15	227.03
377.35	245.76
377.54	320.65
377.74	262.14
377.93	280.86
378.13	241.08
378.33	339.38
378.52	273.84
378.72	332.36
378.91	313.63
379.11	248.10
379.31	273.84
379.50	259.80
379.70	294.91
379.89	273.84
380.09	330.02
380.28	376.83
380.48	292.57
380.68	362.78
380.87	283.20
381.07	334.70
381.26	287.89
381.46	315.97
381.65	285.55
381.85	315.97
382.04	334.70
382.24	400.23
382.43	306.61
382.63	313.63
382.83	348.74
383.02	388.53
383.22	437.68
383.41	351.08
383.61	337.04
383.80	348.74
384.00	400.23
384.19	358.10
384.39	358.10
384.58	346.40
384.78	409.59
384.97	400.23
385.17	372.15
385.36	372.15
385.56	388.53
385.75	379.17
385.95	351.08
386.14	447.04
386.34	395.55
386.53	463.43
386.72	381.51
386.92	428.32
387.11	430.66
387.31	449.38
387.50	444.70
387.70	451.72
387.89	390.87
388.09	416.62
388.28	440.02
388.48	477.47
388.67	461.09
388.86	444.70
389.06	423.64
389.25	498.53
389.45	547.69
389.64	519.60
389.84	512.58
390.03	538.32
390.22	463.43
390.42	498.53
390.61	451.72
390.81	484.49
391.00	498.53
391.19	475.13
391.39	470.45
391.58	519.60
391.78	496.19
391.97	442.36
392.16	533.64
392.36	538.32
392.55	657.69
392.75	533.64
392.94	479.81
393.13	411.93
393.33	585.13
393.52	517.26
393.71	580.45
393.91	557.05
394.10	482.15
394.29	580.45
394.49	538.32
394.68	622.58
394.88	594.50
395.07	564.07
395.26	643.65
395.46	713.86
395.65	669.39
395.84	657.69
396.04	748.97
396.23	660.03
396.42	599.18
396.62	643.65
396.81	634.29
397.00	660.03
397.19	667.05
397.39	688.12
397.58	535.98
397.77	683.44
397.97	667.05
398.16	664.71
398.35	767.70
398.55	727.91
398.74	730.25
398.93	734.93
399.12	620.24
399.32	753.65
399.51	723.23
399.70	697.48
399.90	732.59
400.09	725.57
400.28	826.21
400.47	823.87
400.67	793.44
400.86	671.73
401.05	753.65
401.24	758.33
401.44	781.74
401.63	823.87
401.82	837.91
402.01	746.63
402.21	800.46
402.40	882.38
402.59	856.64
402.78	877.70
402.97	940.90
403.17	929.19
403.36	833.23
403.55	800.46
403.74	889.40
403.93	891.74
404.13	957.28
404.32	933.87
404.51	950.26
404.70	929.19
404.89	917.49
405.09	880.04
405.28	978.34
405.47	938.55
405.66	1043.88
405.85	1050.90
406.05	994.73
406.24	945.58
406.43	997.07
406.62	1008.77
406.81	1093.03
407.00	952.60
407.20	1060.26
407.39	1086.01
407.58	1041.54
407.77	1111.75
407.96	1088.35
408.15	1109.41
408.34	1046.22
408.54	1050.90
408.73	1109.41
408.92	1125.80
409.11	1179.63
409.30	1053.24
409.49	1064.94
409.68	1076.65
409.87	1179.63
410.07	1261.55
410.26	1188.99
410.45	1259.21
410.64	1219.42
410.83	1146.86
411.02	1163.25
411.21	1130.48
411.40	1217.08
411.59	1345.81
411.78	1268.57
411.98	1275.59
412.17	1301.34
412.36	1299.00
412.55	1350.49
412.74	1296.66
412.93	1380.92
413.12	1238.14
413.31	1345.81
413.50	1331.76
413.69	1380.92
413.88	1390.28
414.07	1465.18
414.26	1406.66
414.45	1383.26
414.64	1399.64
414.83	1472.20
415.02	1413.68
415.22	1504.96
415.41	1589.22
415.60	1521.35
415.79	1540.07
415.98	1626.67
416.17	1589.22
416.36	1575.18
416.55	1565.82
416.74	1617.31
416.93	1629.01
417.12	1624.33
417.31	1760.08
417.50	1741.36
417.69	1743.70
417.88	1776.47
418.07	1741.36
418.26	1724.97
418.45	1818.60
418.64	1797.53
418.83	1736.68
419.02	1776.47
419.21	1715.61
419.39	1760.08
419.58	1788.17
419.77	1750.72
419.96	1804.55
420.15	1827.96
420.34	1790.51
420.53	1816.26
420.72	1970.73
420.91	1872.43
421.10	1884.13
421.29	2047.97
421.48	1973.07
421.67	2033.93
421.86	1928.60
422.05	1982.43
422.24	2008.18
422.43	2015.20
422.61	1980.09
422.80	1937.96
422.99	1998.82
423.18	2031.58
423.37	2022.22
423.56	1989.46
423.75	1895.83
423.94	2001.16
424.13	1935.62
424.32	1982.43
424.50	1935.62
424.69	2015.20
424.88	2036.27
425.07	1870.09
425.26	2015.20
425.45	1980.09
425.64	2045.63
425.83	1994.14
426.01	2080.74
426.20	2017.54
426.39	2017.54
426.58	1970.73
426.77	2033.93
426.96	2157.97
427.15	2033.93
427.33	2146.27
427.52	2139.25
427.71	2127.55
427.90	2188.40
428.09	2207.13
428.28	2174.36
428.46	2101.80
428.65	2143.93
428.84	2279.68
429.03	2239.89
429.22	2193.08
429.40	2221.17
429.59	2228.19
429.78	2136.91
429.97	2148.61
430.16	2190.74
430.34	2251.60
430.53	2272.66
430.72	2314.79
430.91	2277.34
431.10	2277.34
431.28	2392.03
431.47	2415.43
431.66	2417.77
431.85	2448.20
432.03	2434.16
432.22	2387.35
432.41	2434.16
432.60	2396.71
432.79	2473.95
432.97	2429.48
433.16	2516.08
433.35	2511.39
433.54	2466.92
433.72	2576.93
433.91	2548.84
434.10	2588.63
434.28	2483.31
434.47	2478.63
434.66	2590.97
434.85	2487.99
435.03	2579.27
435.22	2553.52
435.41	2808.64
435.59	2670.55
435.78	2623.74
435.97	2607.36
436.16	2696.30
436.34	2705.66
436.53	2644.81
436.72	2712.68
436.90	2630.76
437.09	2761.83
437.28	2593.31
437.46	2855.45
437.65	2663.53
437.84	2705.66
438.02	2818.00
438.21	2796.94
438.40	2743.11
438.58	2876.52
438.77	2902.26
438.96	2874.18
439.14	2937.37
439.33	3028.65
439.52	3021.63
439.70	3045.04
439.89	2984.18
440.08	2986.52
440.26	2920.99
440.45	3073.12
440.63	3087.17
440.82	3124.62
441.01	3119.93
441.19	3124.62
441.38	3229.94
441.57	3260.37
441.75	3206.53
441.94	3255.69
442.12	3232.28
442.31	3349.31
442.50	3297.81
442.68	3173.77
442.87	3279.09
443.05	3379.73
443.24	3403.14
443.43	3389.10
443.61	3239.30
443.80	3410.16
443.98	3403.14
444.17	3206.53
444.35	3391.44
444.54	3421.86
444.73	3447.61
444.91	3412.50
445.10	3475.70
445.28	3564.64
445.47	3332.92
445.65	3419.52
445.84	3471.01
446.02	3620.81
446.21	3590.38
446.39	3524.85
446.58	3492.08
446.77	3433.57
446.95	3372.71
447.14	3517.83
447.32	3501.44
447.51	3487.40
447.69	3524.85
447.88	3618.47
448.06	3377.39
448.25	3487.40
448.43	3581.02
448.62	3389.10
448.80	3482.72
448.99	3506.12
449.17	3609.11
449.36	3494.42
449.54	3721.45
449.73	3754.22
449.91	3576.34
450.10	3627.83
450.28	3833.80
450.46	3765.92
450.65	3756.56
450.83	3777.62
451.02	3581.02
451.20	3705.07
451.39	3866.56
451.57	3939.12
451.76	3728.47
451.94	3681.66
452.13	3758.90
452.31	3873.59
452.49	3662.94
452.68	3843.16
452.86	3901.67
453.05	3969.55
453.23	3990.61
453.42	3927.42
453.60	3873.59
453.78	3990.61
453.97	3997.64
454.15	3817.41
454.34	4051.47
454.52	3981.25
454.70	3967.21
454.89	4023.38
455.07	4084.23
455.26	3997.64
455.44	4231.69
455.62	4042.11
455.81	4168.49
455.99	4114.66
456.17	4091.26
456.36	4072.53
456.54	4191.90
456.73	4245.73
456.91	4215.30
457.09	4503.19
457.28	4400.21
457.46	4236.37
457.64	4311.27
457.83	4402.55
458.01	4402.55
458.19	4465.74
458.38	4454.04
458.56	4482.13
458.74	4332.33
458.93	4358.08
459.11	4407.23
459.29	4454.04
459.48	4428.29
459.66	4404.89
459.84	4545.32
460.03	4397.87
460.21	4662.35
460.39	4505.53
460.57	4510.21
460.76	4561.70
460.94	4664.69
461.12	4711.50
461.31	4704.48
461.49	4505.53
461.67	4442.34
461.85	4716.18
462.04	4645.96
462.22	4959.60
462.40	4788.74
462.59	4732.56
462.77	4828.53
462.95	4760.65
463.13	4887.04
463.32	4748.95
463.50	4774.69
463.68	4798.10
463.86	4865.97
464.05	4802.78
464.23	4814.48
464.41	4912.78
464.59	4840.23
464.78	5001.72
464.96	4973.64
465.14	4931.51
465.32	4968.96
465.50	5008.75
465.69	5090.67
465.87	5064.92
466.05	5034.49
466.23	5167.90
466.41	4999.38
466.60	5221.74
466.78	5041.51
466.96	4896.40
467.14	5210.03
467.32	5020.45
467.51	5261.52
467.69	4978.32
467.87	5151.52
468.05	5170.24
468.23	5006.41
468.41	4954.91
468.60	5210.03
468.78	5322.38
468.96	5125.77
469.14	5228.76
469.32	5254.50
469.50	5177.26
469.69	5408.98
469.87	5462.81
470.05	5427.70
470.23	5481.53
470.41	5294.29
470.59	5682.82
470.77	5336.42
470.95	5439.40
471.14	5577.50
471.32	5453.45
471.50	5650.05
471.68	5661.76
471.86	5706.23
472.04	5554.09
472.22	5919.21
472.40	5650.05
472.58	5996.45
472.77	5741.33
472.95	5762.40
473.13	6047.94
473.31	5851.34
473.49	5980.07
473.67	5916.87
473.85	6003.47
474.03	5975.39
474.21	6083.05
474.39	6059.65
474.57	6115.82
474.75	6047.94
474.93	6183.70
475.12	6202.42
475.30	6303.06
475.48	6251.57
475.66	6193.06
475.84	6305.40
476.02	6375.62
476.20	6321.79
476.38	6445.84
476.56	6661.16
476.74	6569.88
476.92	6525.41
477.10	6413.07
477.28	6661.16
477.46	6654.14
477.64	6679.89
477.82	6768.83
478.00	6998.20
478.18	6974.80
478.36	6937.35
478.54	7054.37
478.72	7103.53
478.90	7260.34
479.08	7255.66
479.26	7148.00
479.44	7267.36
479.62	7393.75
479.80	7487.37
479.98	7499.08
480.16	7534.18
480.34	7461.63
480.52	7508.44
480.70	7562.27
480.88	7555.25
481.06	7705.04
481.24	7875.90
481.41	7882.92
481.59	7854.84
481.77	8049.10
481.95	8226.98
482.13	7939.10
482.31	8116.98
482.49	8102.93
482.67	8028.04
482.85	8329.97
483.03	8425.93
483.21	8203.58
483.39	8463.38
483.57	8683.39
483.74	8636.58
483.92	8828.50
484.10	8711.47
484.28	8985.32
484.46	9027.45
484.64	9270.86
484.82	8926.80
485.00	9104.68
485.18	9224.05
485.35	9352.78
485.53	9305.97
485.71	9437.04
485.89	9668.75
486.07	9530.66
486.25	9640.67
486.43	9715.56
486.61	9771.74
486.78	9865.36
486.96	9884.08
487.14	10071.33
487.32	10101.75
487.50	10059.62
487.68	10347.51
487.85	10415.38
488.03	10743.06
488.21	10626.03
488.39	10649.44
488.57	10721.99
488.75	10553.48
488.92	10754.76
489.10	10663.48
489.28	10911.58
489.46	11222.87
489.64	11218.19
489.81	11220.53
489.99	11243.93
490.17	11438.20
490.35	11480.33
490.53	11372.66
490.70	11597.35
490.88	11520.12
491.06	11576.29
491.24	11941.41
491.41	11910.99
491.59	12248.02
491.77	12159.08
491.95	12030.35
492.13	12159.08
492.30	12470.37
492.48	12388.46
492.66	12226.96
492.84	12554.63
493.01	12475.06
493.19	12652.94
493.37	12681.02
493.54	12842.52
493.72	12798.05
493.90	12751.24
494.08	13006.36
494.25	13114.02
494.43	13177.22
494.61	13254.45
494.79	13226.37
494.96	13195.94
495.14	13275.52
495.32	13221.69
495.49	13516.59
495.67	13699.16
495.85	13867.67
496.02	13755.33
496.20	13799.80
496.38	14040.87
496.55	13809.16
496.73	14319.40
496.91	14338.12
497.09	14185.99
497.26	14354.51
497.44	14015.13
497.62	14108.75
497.79	14551.11
497.97	14492.60
498.14	14438.76
498.32	14775.80
498.50	14712.61
498.67	15061.35
498.85	14890.49
499.03	14551.11
499.20	15073.05
499.38	15126.88
499.56	15084.75
499.73	15225.18
499.91	15234.55
500.08	15761.17
500.26	15126.88
500.44	15489.67
500.61	15620.74
500.79	15332.85
500.97	15377.32
501.14	16039.69
501.32	15903.94
501.49	15653.50
501.67	15733.08
501.84	15859.47
502.02	15939.05
502.20	15910.96
502.37	16063.10
502.55	16360.34
502.72	16084.16
502.90	16217.57
503.07	16203.53
503.25	16510.14
503.43	16332.26
503.60	16428.22
503.78	16627.17
503.95	16432.90
504.13	16765.26
504.30	16800.37
504.48	16411.84
504.65	16875.26
504.83	16884.62
505.01	16947.82
505.18	17170.17
505.36	17336.35
505.53	16905.69
505.71	16980.59
505.88	17209.96
506.06	16912.71
506.23	17359.75
506.41	17418.27
506.58	17376.14
506.76	17591.47
506.93	17514.23
507.11	17312.94
507.28	17507.21
507.46	17458.06
507.63	17451.03
507.81	18045.53
507.98	17841.90
508.16	17589.13
508.33	17809.14
508.50	17886.37
508.68	18085.32
508.85	18019.78
509.03	18246.82
509.20	18061.91
509.38	18546.40
509.55	18171.92
509.73	18401.29
509.90	18408.31
510.08	18160.22
510.25	18429.38
510.42	18391.93
510.60	18679.82
510.77	18583.85
510.95	18843.65
511.12	18415.34
511.30	18658.75
511.47	18906.85
511.64	18801.52
511.82	19037.92
511.99	19080.05
512.17	19133.88
512.34	19325.80
512.51	18934.93
512.69	19136.22
512.86	19337.51
513.04	19433.47
513.21	19606.67
513.38	19452.19
513.56	19407.72
513.73	19335.17
513.90	19534.11
514.08	19632.41
514.25	19831.36
514.43	19695.61
514.60	19737.74
514.77	19604.33
514.95	20013.92
515.12	19761.14
515.29	19609.01
515.47	20070.09
515.64	20238.61
515.81	20264.36
515.99	20320.53
516.16	20212.87
516.33	20383.73
516.51	20250.32
516.68	19901.58
516.85	20250.32
517.03	20374.36
517.20	20425.86
517.37	20247.97
517.54	20526.50
517.72	20615.44
517.89	20622.46
518.06	20636.50
518.24	20636.50
518.41	20994.61
518.58	20652.89
518.75	20730.12
518.93	21139.72
519.10	20959.50
519.27	21326.96
519.45	20755.87
519.62	21167.80
519.79	20961.84
519.96	21200.57
520.14	21163.12
520.31	20856.51
520.48	21245.04
520.65	21472.07
520.83	21172.49
521.00	21406.54
521.17	21198.23
521.34	21387.82
521.52	21504.84
521.69	21600.80
521.86	22054.87
522.03	21986.99
522.20	21743.58
522.38	21975.29
522.55	21642.93
522.72	22031.46
522.89	21891.03
523.07	22356.80
523.24	21958.91
523.41	22403.61
523.58	21902.73
523.75	22139.13
523.92	22073.59
524.10	22237.43
524.27	22230.41
524.44	22253.81
524.61	22471.48
524.78	22534.68
524.96	22632.98
525.13	22363.82
525.30	22642.34
525.47	22897.46
525.64	22794.48
525.81	22902.14
525.98	22881.08
526.16	22745.33
526.33	22817.88
526.50	23075.34
526.67	22679.79
526.84	22841.29
527.01	22642.34
527.18	23030.87
527.36	22916.19
527.53	23047.26
527.70	23468.55
527.87	23101.09
528.04	23700.26
528.21	23028.53
528.38	23091.73
528.55	23604.30
528.72	23388.97
528.89	23194.71
529.07	23190.03
529.24	23339.82
529.41	23632.39
529.58	23328.12
529.75	23360.89
529.92	23688.56
530.09	23447.49
530.26	23796.23
530.43	23840.70
530.60	23491.96
530.77	23845.38
530.94	23747.08
531.11	23557.49
531.28	23740.05
531.46	24004.53
531.63	23592.60
531.80	24161.35
531.97	24046.66
532.14	24159.01
532.31	24350.93
532.48	24280.72
532.65	24271.36
532.82	24297.10
532.99	24350.93
533.16	24107.52
533.33	24114.54
533.50	24467.96
533.67	24149.65
533.84	24215.18
534.01	24519.45
534.18	24264.33
534.35	24758.19
534.52	24622.44
534.69	24753.51
534.86	24767.55
535.03	24650.52
535.20	24781.59
535.37	24987.56
535.54	24547.54
535.71	24819.04
535.88	24521.79
536.05	24849.47
536.22	24606.05
536.38	25488.43
536.55	24952.45
536.72	25099.90
536.89	24985.22
537.06	24709.04
537.23	25333.96
537.40	24933.73
537.57	25156.08
537.74	25338.64
537.91	25333.96
538.08	25151.40
538.25	25090.54
538.42	25242.68
538.59	25560.99
538.75	25441.62
538.92	25294.17
539.09	25404.17
539.26	25280.13
539.43	25542.27
539.60	25467.37
539.77	25687.38
539.94	25685.04
540.11	25846.54
540.28	25476.73
540.44	25792.70
540.61	25675.68
540.78	25383.11
540.95	25820.79
541.12	25401.83
541.29	25783.34
541.46	25675.68
541.62	25757.60
541.79	25898.03
541.96	25593.76
542.13	25727.17
542.30	26214.00
542.47	26125.06
542.63	25902.71
542.80	26333.37
542.97	26525.29
543.14	26548.70
543.31	26155.49
543.48	26426.99
543.64	26445.71
543.81	26335.71
543.98	26658.70
544.15	26831.90
544.32	26871.69
544.48	26843.60
544.65	26511.25
544.82	26831.90
544.99	26665.72
545.16	26707.85
545.32	26249.11
545.49	27122.13
545.66	26955.95
545.83	27096.38
546.00	26843.60
546.16	26806.16
546.33	26705.51
546.50	26363.79
546.67	26857.65
546.83	26609.55
547.00	27049.57
547.17	27096.38
547.34	27140.85
547.50	27276.60
547.67	27182.98
547.84	26869.35
548.00	27185.32
548.17	27110.43
548.34	27175.96
548.51	27211.07
548.67	27414.69
548.84	27173.62
549.01	27166.60
549.18	27190.00
549.34	27007.44
549.51	27337.46
549.68	26958.29
549.84	27044.89
550.01	27360.86
550.18	27140.85
550.34	27300.01
550.51	27311.71
550.68	27704.92
550.84	27414.69
551.01	27688.54
551.18	27292.99
551.34	27641.73
551.51	27307.03
551.68	27641.73
551.84	27908.55
552.01	27845.35
552.18	28018.55
552.34	27756.41
552.51	27494.27
552.68	27796.20
552.84	28058.34
553.01	28048.98
553.18	28236.22
553.34	28166.01
553.51	28238.56
553.67	27812.59
553.84	28044.30
554.01	27838.33
554.17	27889.82
554.34	28102.81
554.51	28072.39
554.67	28173.03
554.84	27992.81
555.00	28168.35
555.17	28229.20
555.33	28006.85
555.50	27931.95
555.67	28496.02
555.83	28133.24
556.00	28156.64
556.16	28589.64
556.33	28336.87
556.50	28114.52
556.66	28486.66
556.83	28238.56
556.99	28407.08
557.16	28594.32
557.32	28629.43
557.49	28786.25
557.65	28203.46
557.82	28575.60
557.98	28402.40
558.15	28753.48
558.32	28542.83
558.48	28936.04
558.65	28709.01
558.81	28662.20
558.98	28762.84
559.14	28664.54
559.31	28596.67
559.47	28538.15
559.64	28563.90
559.80	28701.99
559.97	28687.95
560.13	28790.93
560.30	29378.40
560.46	28701.99
560.63	29027.32
560.79	28819.02
560.96	28591.98
561.12	28601.35
561.29	28776.89
561.45	29146.69
561.61	28676.24
561.78	29191.16
561.94	28851.78
562.11	29500.11
562.27	29046.05
562.44	28938.38
562.60	28957.11
562.77	28418.78
562.93	28957.11
563.10	29050.73
563.26	29078.82
563.42	29343.30
563.59	29443.94
563.75	28919.66
563.92	29165.42
564.08	29343.30
564.24	28826.04
564.41	29207.55
564.57	28816.68
564.74	29624.16
564.90	29053.07
565.07	28940.72
565.23	29221.59
565.39	28952.43
565.56	29605.44
565.72	28762.84
565.88	29481.39
566.05	28919.66
566.21	29158.39
566.38	28959.45
566.54	29376.06
566.70	29394.79
566.87	29598.41
567.03	29649.91
567.19	29450.96
567.36	29371.38
567.52	29184.14
567.68	29551.60
567.85	29118.60
568.01	29401.81
568.17	29244.99
568.34	29731.83
568.50	29635.86
568.66	29312.87
568.83	29460.32
568.99	29488.41
569.15	29289.46
569.32	29301.17
569.48	29104.56
569.64	29635.86
569.81	29727.14
569.97	29427.56
570.13	29352.66
570.30	29263.72
570.46	29385.43
570.62	29244.99
570.78	29516.50
570.95	29502.45
571.11	29722.46
571.27	29142.01
571.43	29411.17
571.60	29490.75
571.76	29902.68
571.92	29638.20
572.09	29806.72
572.25	29773.95
572.41	29560.97
572.57	29579.69
572.74	29949.50
572.90	29345.64
573.06	29694.38
573.22	29799.70
573.38	29802.04
573.55	29752.89
573.71	30181.21
573.87	29663.95
574.03	29556.28
574.20	29724.80
574.36	29542.24
574.52	29010.94
574.68	29322.23
574.84	29839.49
575.01	30043.12
575.17	29851.19
575.33	29757.57
575.49	29413.51
575.65	29565.65
575.82	30003.33
575.98	29773.95
576.14	30122.69
576.30	29731.83
576.46	29329.25
576.62	29710.76
576.79	29769.27
576.95	29448.62
577.11	29886.30
577.27	29954.18
577.43	29685.01
577.59	29900.34
577.75	29579.69
577.92	29528.20
578.08	29706.08
578.24	29748.21
578.40	30029.07
578.56	29832.47
578.72	29729.48
578.88	29783.32
579.04	30291.21
579.21	29907.37
579.37	29860.55
579.53	29907.37
579.69	29303.51
579.85	29860.55
580.01	30103.97
580.17	29577.35
580.33	29708.42
580.49	29984.60
580.65	30134.40
580.82	29809.06
580.98	30101.63
581.14	30099.29
581.30	29827.79
581.46	29839.49
581.62	29788.00
581.78	29603.10
581.94	30036.09
582.10	29858.21
582.26	29717.78
582.42	30029.07
582.58	29701.40
582.74	30118.01
582.90	30012.69
583.06	30426.96
583.22	30223.34
583.38	30082.91
583.54	29532.88
583.70	30010.35
583.86	30059.50
584.02	30050.14
584.18	29984.60
584.34	30150.78
584.50	30188.23
584.66	30036.09
584.82	29766.93
584.98	30122.69
585.14	29968.22
585.30	29797.36
585.46	29949.50
585.62	30043.12
585.78	30052.48
585.94	29806.72
586.10	30113.33
586.26	30169.51
586.42	30370.79
586.58	30174.19
586.74	30113.33
586.90	29795.02
587.06	29771.61
587.22	29991.62
587.38	30040.78
587.54	30412.92
587.70	30462.07
587.86	30143.76
588.02	30211.64
588.18	30429.30
588.34	29940.13
588.49	30087.59
588.65	29858.21
588.81	29935.45
588.97	29951.84
589.13	30087.59
589.29	29970.56
589.45	30251.42
589.61	30312.28
589.77	30438.67
589.93	30305.26
590.08	30518.25
590.24	30279.51
590.40	30691.44
590.56	30455.05
590.72	30265.47
590.88	30260.79
591.04	29809.06
591.20	30403.56
591.35	30426.96
591.51	30806.13
591.67	30843.58
591.83	30433.99
591.99	30574.42
