SpectraSuite Data File
++++++++++++++++++++++++++++++++++++
Date: Fri Oct 18 13:58:04 GMT-05:00 2013
User: bianchi
Dark Spectrum Present: No
Reference Spectrum Present: No
Number of Sampled Component Spectra: 1
Spectrometers: USB2+H05261
Integration Time (usec): 50000 (USB2+H05261)
Spectra Averaged: 1 (USB2+H05261)
Boxcar Smoothing: 0 (USB2+H05261)
Correct for Electrical Dark: No (USB2+H05261)
Strobe/Lamp Enabled: No (USB2+H05261)
Correct for Detector Non-linearity: No (USB2+H05261)
Correct for Stray Light: No (USB2+H05261)
Number of Pixels in Processed Spectrum: 2048
>>>>>Begin Processed Spectral Data<<<<<
365.73	0.00
365.92	0.00
366.12	0.00
366.32	0.00
366.52	0.00
366.72	0.00
366.91	0.00
367.11	0.00
367.31	0.00
367.51	0.00
367.70	0.00
367.90	0.00
368.10	0.00
368.30	0.00
368.49	0.00
368.69	0.00
368.89	0.00
369.09	0.00
369.28	0.00
369.48	0.00
369.68	0.00
369.87	0.00
370.07	0.00
370.27	0.00
370.47	0.00
370.66	112.35
370.86	166.18
371.06	159.16
371.25	166.18
371.45	98.30
371.65	124.05
371.84	196.60
372.04	189.58
372.24	173.20
372.44	133.41
372.63	182.56
372.83	238.73
373.03	168.52
373.22	191.92
373.42	112.35
373.62	191.92
373.81	227.03
374.01	308.95
374.21	264.48
374.40	168.52
374.60	234.05
374.79	271.50
374.99	285.55
375.19	198.95
375.38	229.37
375.58	257.46
375.78	217.67
375.97	308.95
376.17	315.97
376.37	266.82
376.56	325.33
376.76	306.61
376.95	266.82
377.15	278.52
377.35	294.91
377.54	208.31
377.74	243.42
377.93	273.84
378.13	322.99
378.33	388.53
378.52	257.46
378.72	339.38
378.91	278.52
379.11	318.31
379.31	273.84
379.50	264.48
379.70	306.61
379.89	311.29
380.09	287.89
380.28	339.38
380.48	290.23
380.68	243.42
380.87	299.59
381.07	304.27
381.26	294.91
381.46	369.80
381.65	327.68
381.85	367.46
382.04	304.27
382.24	318.31
382.43	330.02
382.63	339.38
382.83	257.46
383.02	353.42
383.22	362.78
383.41	346.40
383.61	390.87
383.80	395.55
384.00	369.80
384.19	327.68
384.39	367.46
384.58	313.63
384.78	348.74
384.97	339.38
385.17	318.31
385.36	351.08
385.56	425.98
385.75	444.70
385.95	360.44
386.14	365.12
386.34	337.04
386.53	358.10
386.72	402.57
386.92	442.36
387.11	402.57
387.31	402.57
387.50	369.80
387.70	418.96
387.89	440.02
388.09	397.89
388.28	468.11
388.48	395.55
388.67	489.17
388.86	430.66
389.06	547.69
389.25	564.07
389.45	540.66
389.64	395.55
389.84	447.04
390.03	603.86
390.22	559.39
390.42	526.62
390.61	507.90
390.81	552.37
391.00	463.43
391.19	528.96
391.39	521.94
391.58	545.34
391.78	552.37
391.97	568.75
392.16	531.30
392.36	606.20
392.55	538.32
392.75	634.29
392.94	564.07
393.13	578.11
393.33	561.73
393.52	521.94
393.71	498.53
393.91	575.77
394.10	543.00
394.29	526.62
394.49	606.20
394.68	580.45
394.88	531.30
395.07	601.52
395.26	631.94
395.46	575.77
395.65	641.31
395.84	638.97
396.04	741.95
396.23	631.94
396.42	706.84
396.62	716.20
396.81	697.48
397.00	634.29
397.19	645.99
397.39	711.52
397.58	727.91
397.77	711.52
397.97	641.31
398.16	662.37
398.35	676.41
398.55	634.29
398.74	685.78
398.93	746.63
399.12	779.40
399.32	746.63
399.51	706.84
399.70	718.54
399.90	737.27
400.09	819.19
400.28	812.17
400.47	763.01
400.67	791.10
400.86	802.80
401.05	772.38
401.24	816.85
401.44	774.72
401.63	828.55
401.82	770.04
402.01	777.06
402.21	805.14
402.40	816.85
402.59	751.31
402.78	882.38
402.97	770.04
403.17	880.04
403.36	898.77
403.55	858.98
403.74	938.55
403.93	1062.60
404.13	929.19
404.32	898.77
404.51	917.49
404.70	999.41
404.89	858.98
405.09	1093.03
405.28	894.08
405.47	992.39
405.66	877.70
405.85	985.37
406.05	889.40
406.24	891.74
406.43	978.34
406.62	1055.58
406.81	1057.92
407.00	1076.65
407.20	1032.18
407.39	1036.86
407.58	1076.65
407.77	1057.92
407.96	1046.22
408.15	1114.10
408.34	966.64
408.54	1076.65
408.73	1102.39
408.92	1123.46
409.11	1165.59
409.30	1086.01
409.49	1114.10
409.68	1191.33
409.87	1163.25
410.07	1158.57
410.26	1191.33
410.45	1149.20
410.64	1226.44
410.83	1167.93
411.02	1151.54
411.21	1299.00
411.40	1238.14
411.59	1324.74
411.78	1252.19
411.98	1273.25
412.17	1287.29
412.36	1245.16
412.55	1352.83
412.74	1467.52
412.93	1369.21
413.12	1334.11
413.31	1465.18
413.50	1409.00
413.69	1345.81
413.88	1612.63
414.07	1476.88
414.26	1467.52
414.45	1448.79
414.64	1453.47
414.83	1453.47
415.02	1584.54
415.22	1612.63
415.41	1526.03
415.60	1678.16
415.79	1572.84
415.98	1600.93
416.17	1675.82
416.36	1696.89
416.55	1633.69
416.74	1586.88
416.93	1629.01
417.12	1657.10
417.31	1743.70
417.50	1661.78
417.69	1713.27
417.88	1724.97
418.07	1722.63
418.26	1699.23
418.45	1816.26
418.64	1863.07
418.83	1748.38
419.02	1741.36
419.21	1916.90
419.39	1874.77
419.58	1769.44
419.77	1830.30
419.96	1905.20
420.15	1912.22
420.34	1996.48
420.53	1973.07
420.72	1956.69
420.91	1928.60
421.10	2026.90
421.29	1989.46
421.48	1858.39
421.67	1968.39
421.86	2062.01
422.05	2008.18
422.24	1902.86
422.43	1963.71
422.61	1914.56
422.80	1968.39
422.99	2078.40
423.18	2045.63
423.37	2155.63
423.56	2059.67
423.75	1937.96
423.94	2062.01
424.13	1944.99
424.32	2076.06
424.50	2052.65
424.69	2022.22
424.88	2162.66
425.07	2043.29
425.26	2069.03
425.45	2057.33
425.64	1975.41
425.83	2050.31
426.01	2010.52
426.20	2157.97
426.39	2132.23
426.58	2092.44
426.77	2083.08
426.96	2120.53
427.15	2118.18
427.33	2113.50
427.52	2136.91
427.71	2157.97
427.90	2197.76
428.09	2125.21
428.28	2186.06
428.46	2122.87
428.65	2214.15
428.84	2317.13
429.03	2251.60
429.22	2150.95
429.40	2251.60
429.59	2293.72
429.78	2223.51
429.97	2076.06
430.16	2218.83
430.34	2263.30
430.53	2328.83
430.72	2333.51
430.91	2377.98
431.10	2359.26
431.28	2340.54
431.47	2342.88
431.66	2485.65
431.85	2406.07
432.03	2436.50
432.22	2497.35
432.41	2513.74
432.60	2469.27
432.79	2473.95
432.97	2497.35
433.16	2574.59
433.35	2438.84
433.54	2581.61
433.72	2525.44
433.91	2551.18
434.10	2506.71
434.28	2558.21
434.47	2548.84
434.66	2546.50
434.85	2569.91
435.03	2696.30
435.22	2600.34
435.41	2649.49
435.59	2609.70
435.78	2635.44
435.97	2696.30
436.16	2663.53
436.34	2651.83
436.53	2834.39
436.72	2752.47
436.90	2637.78
437.09	2752.47
437.28	2736.09
437.46	2785.24
437.65	2740.77
437.84	2803.96
438.02	2810.98
438.21	2796.94
438.40	2839.07
438.58	2836.73
438.77	2977.16
438.96	2857.79
439.14	2825.03
439.33	2977.16
439.52	3038.02
439.70	3091.85
439.89	3089.51
440.08	3059.08
440.26	2946.73
440.45	3047.38
440.63	3229.94
440.82	3150.36
441.01	3286.11
441.19	3087.17
441.38	3234.62
441.57	3302.50
441.75	3258.03
441.94	3328.24
442.12	3272.07
442.31	3447.61
442.50	3201.85
442.68	3335.26
442.87	3368.03
443.05	3449.95
443.24	3492.08
443.43	3459.31
443.61	3391.44
443.80	3513.14
443.98	3311.86
444.17	3227.60
444.35	3496.76
444.54	3461.65
444.73	3424.20
444.91	3536.55
445.10	3485.06
445.28	3459.31
445.47	3480.38
445.65	3452.29
445.84	3501.44
446.02	3555.27
446.21	3531.87
446.39	3459.31
446.58	3625.49
446.77	3550.59
446.95	3499.10
447.14	3510.80
447.32	3480.38
447.51	3583.36
447.69	3585.70
447.88	3604.42
448.06	3555.27
448.25	3506.12
448.43	3531.87
448.62	3590.38
448.80	3653.58
448.99	3637.19
449.17	3630.17
449.36	3599.74
449.54	3754.22
449.73	3728.47
449.91	3705.07
450.10	3688.68
450.28	3913.38
450.46	3719.11
450.65	3936.78
450.83	3981.25
451.02	3845.50
451.20	4060.83
451.39	4023.38
451.57	3833.80
451.76	3833.80
451.94	3819.75
452.13	3878.27
452.31	3950.82
452.49	3801.03
452.68	3927.42
452.86	3953.16
453.05	3915.72
453.23	4016.36
453.42	3908.69
453.60	3922.74
453.78	3943.80
453.97	4007.00
454.15	3974.23
454.34	3915.72
454.52	4102.96
454.70	3913.38
454.89	4072.53
455.07	3997.64
455.26	4074.87
455.44	4044.45
455.62	4142.75
455.81	4060.83
455.99	4154.45
456.17	4255.09
456.36	4215.30
456.54	4255.09
456.73	4243.39
456.91	4266.80
457.09	4290.20
457.28	4414.25
457.46	4388.50
457.64	4540.64
457.83	4496.17
458.01	4259.78
458.19	4388.50
458.38	4315.95
458.56	4414.25
458.74	4573.41
458.93	4421.27
459.11	4540.64
459.29	4276.16
459.48	4552.34
459.66	4365.10
459.84	4528.94
460.03	4737.24
460.21	4678.73
460.39	4582.77
460.57	4617.88
460.76	4762.99
460.94	4683.41
461.12	4606.17
461.31	4730.22
461.49	4793.42
461.67	4575.75
461.85	4891.72
462.04	4652.98
462.22	5184.29
462.40	4863.63
462.59	4901.08
462.77	4807.46
462.95	4751.29
463.13	4863.63
463.32	4889.38
463.50	5006.41
463.68	4975.98
463.86	4950.23
464.05	4903.42
464.23	4926.83
464.41	5170.24
464.59	4816.82
464.78	5153.86
464.96	5004.07
465.14	4924.49
465.32	5142.16
465.50	5163.22
465.69	5125.77
465.87	5085.98
466.05	5100.03
466.23	5022.79
466.41	5207.69
466.60	5163.22
466.78	5093.01
466.96	5001.72
467.14	5132.79
467.32	5118.75
467.51	5224.08
467.69	4980.66
467.87	5128.11
468.05	5226.42
468.23	5270.89
468.41	5224.08
468.60	5364.51
468.78	5394.93
468.96	5261.52
469.14	5336.42
469.32	5504.94
469.50	5322.38
469.69	5289.61
469.87	5537.71
470.05	5296.63
470.23	5416.00
470.41	5619.63
470.59	5467.49
470.77	5392.59
470.95	5671.12
471.14	5603.24
471.32	5467.49
471.50	5731.97
471.68	5790.49
471.86	5619.63
472.04	5675.80
472.22	5771.76
472.40	5701.54
472.58	5879.43
472.77	5654.73
472.95	5867.72
473.13	6036.24
473.31	5921.56
473.49	6050.28
473.67	5856.02
473.85	6097.10
474.03	6094.76
474.21	6054.97
474.39	6045.60
474.57	6277.32
474.75	6246.89
474.93	6314.77
475.12	6157.95
475.30	6164.97
475.48	6349.87
475.66	6359.24
475.84	6553.50
476.02	6319.45
476.20	6380.30
476.38	6689.25
476.56	6633.08
476.74	6764.15
476.92	6600.31
477.10	6410.73
477.28	6707.98
477.46	6703.29
477.64	6661.16
477.82	6937.35
478.00	7133.95
478.18	7133.95
478.36	7068.42
478.54	7155.02
478.72	7122.25
478.90	7318.86
479.08	7293.11
479.26	7377.37
479.44	7566.95
479.62	7431.20
479.80	7585.68
479.98	7531.84
480.16	7588.02
480.34	7627.81
480.52	7728.45
480.70	7719.09
480.88	7665.25
481.06	7829.09
481.24	7887.61
481.41	7948.46
481.59	8145.06
481.77	8095.91
481.95	8154.43
482.13	8196.56
482.31	8046.76
482.49	8376.78
482.67	8332.31
482.85	8409.54
483.03	8397.84
483.21	8678.71
483.39	8760.63
483.57	8606.15
483.74	8753.60
483.92	8889.35
484.10	8961.91
484.28	9118.73
484.46	9109.36
484.64	9425.34
484.82	9181.92
485.00	9397.25
485.18	9439.38
485.35	9474.49
485.53	9703.86
485.71	9713.22
485.89	9678.12
486.07	9823.23
486.25	9469.81
486.43	9809.19
486.61	9893.44
486.78	10104.09
486.96	10092.39
487.14	10272.61
487.32	10139.20
487.50	10452.83
487.68	10525.39
487.85	10413.04
488.03	10705.61
488.21	10656.46
488.39	10766.46
488.57	10738.38
488.75	10902.22
488.92	11171.38
489.10	11234.57
489.28	11323.51
489.46	11197.12
489.64	11215.85
489.81	11655.87
489.99	11445.22
490.17	11564.59
490.35	11541.18
490.53	11590.33
490.70	11728.42
490.88	11712.04
491.06	11903.96
491.24	12039.72
491.41	12159.08
491.59	11936.73
491.77	12116.95
491.95	12372.07
492.13	12341.64
492.30	12524.21
492.48	12585.06
492.66	12348.67
492.84	12657.62
493.01	12545.27
493.19	12856.56
493.37	13226.37
493.54	12985.29
493.72	13114.02
493.90	13247.43
494.08	13032.10
494.25	13167.85
494.43	13160.83
494.61	13603.19
494.79	13638.30
494.96	13582.13
495.14	13650.00
495.32	13589.15
495.49	13980.02
495.67	14176.62
495.85	13757.67
496.02	14246.84
496.20	13958.96
496.38	13919.17
496.55	14251.52
496.73	14410.68
496.91	14466.85
497.09	14476.21
497.26	14595.58
497.44	14698.56
497.62	14626.01
497.79	14846.02
497.97	14803.89
498.14	14752.40
498.32	15129.22
498.50	15171.35
498.67	15026.24
498.85	15183.06
499.03	14965.39
499.20	15166.67
499.38	15169.01
499.56	15515.41
499.73	15529.45
499.91	15454.56
500.08	15786.91
500.26	15845.43
500.44	15728.40
500.61	15840.75
500.79	16074.80
500.97	16313.53
501.14	15826.70
501.32	16152.04
501.49	16100.55
501.67	16067.78
501.84	16191.83
502.02	16217.57
502.20	16238.64
502.37	16685.68
502.55	16400.13
502.72	16437.58
502.90	16287.79
503.07	16409.50
503.25	16526.52
503.43	16690.36
503.60	16886.97
503.78	16783.98
503.95	16912.71
504.13	16683.34
504.30	16929.09
504.48	16999.31
504.65	17013.35
504.83	17209.96
505.01	17263.79
505.18	17179.53
505.36	17603.17
505.53	17366.78
505.71	17706.15
505.88	17067.19
506.06	17324.65
506.23	17692.11
506.41	17507.21
506.58	17790.41
506.76	17820.84
506.93	17584.44
507.11	17551.68
507.28	18003.40
507.46	18029.15
507.63	18111.07
507.81	18438.74
507.98	18094.68
508.16	18122.77
508.33	18207.03
508.50	18050.21
508.68	18366.18
508.85	18450.44
509.03	18361.50
509.20	18492.57
509.38	18743.01
509.55	18560.45
509.73	18703.22
509.90	18333.42
510.08	18574.49
510.25	18644.71
510.42	18897.49
510.60	18735.99
510.77	19084.73
510.95	19178.35
511.12	18785.14
511.30	18848.33
511.47	19166.65
511.64	18904.51
511.82	19220.48
511.99	19353.89
512.17	19339.85
512.34	19374.95
512.51	19613.69
512.69	19466.24
512.86	19866.47
513.04	19782.21
513.21	19822.00
513.38	19735.40
513.56	20091.16
513.73	19644.12
513.90	19751.78
514.08	19908.60
514.25	20135.63
514.43	20133.29
514.60	20386.07
514.77	20133.29
514.95	20231.59
515.12	20168.40
515.29	20203.50
515.47	20484.37
515.64	20575.65
515.81	20493.73
515.99	20496.07
516.16	20795.66
516.33	20627.14
516.51	20910.35
516.68	20872.90
516.85	20659.91
517.03	20638.84
517.20	21022.69
517.37	20774.60
517.54	21165.46
517.72	21001.63
517.89	21088.23
518.06	20908.01
518.24	20772.25
518.41	21137.38
518.58	21032.05
518.75	21174.83
518.93	21319.94
519.10	21542.29
519.27	21591.44
519.45	21099.93
519.62	21439.31
519.79	21291.85
519.96	21474.42
520.14	21401.86
520.31	21603.14
520.48	21612.51
520.65	21535.27
520.83	21912.10
521.00	21752.94
521.17	21373.77
521.34	21909.75
521.52	21603.14
521.69	21797.41
521.86	22104.02
522.03	22141.47
522.20	21846.56
522.38	22522.98
522.55	21830.18
522.72	22218.71
522.89	22338.07
523.07	22485.53
523.24	22464.46
523.41	22869.37
523.58	22295.94
523.75	22263.18
523.92	22553.40
524.10	22457.44
524.27	22537.02
524.44	22632.98
524.61	22831.93
524.78	22553.40
524.96	22623.62
525.13	22640.00
525.30	23147.90
525.47	23080.02
525.64	22946.61
525.81	23381.95
525.98	23269.61
526.16	23506.00
526.33	22986.40
526.50	23330.46
526.67	23019.17
526.84	23433.44
527.01	23374.93
527.18	23285.99
527.36	23417.06
527.53	23805.59
527.70	23543.45
527.87	23721.33
528.04	23349.18
528.21	23307.05
528.38	23608.98
528.55	23716.65
528.72	23620.69
528.89	23812.61
529.07	23449.83
529.24	23768.14
529.41	23604.30
529.58	23562.17
529.75	23847.72
529.92	23843.04
530.09	24065.39
530.26	23889.85
530.43	24245.61
530.60	24140.29
530.77	24093.47
530.94	24091.13
531.11	24559.24
531.28	24107.52
531.46	24072.41
531.63	24662.22
531.80	24592.01
531.97	24423.49
532.14	24519.45
532.31	24430.51
532.48	24334.55
532.65	24891.60
532.82	24596.69
532.99	24905.64
533.16	24671.59
533.33	24446.90
533.50	25067.14
533.67	24606.05
533.84	24753.51
534.01	24680.95
534.18	24645.84
534.35	25116.29
534.52	24767.55
534.69	25127.99
534.86	24673.93
535.03	24865.85
535.20	24755.85
535.37	25261.40
535.54	25280.13
535.71	25186.50
535.88	25214.59
536.05	25359.70
536.22	25317.57
536.38	25841.85
536.55	25560.99
536.72	25839.51
536.89	25364.39
537.06	25324.60
537.23	25832.49
537.40	25729.51
537.57	25663.97
537.74	25713.13
537.91	25607.80
538.08	25862.92
538.25	25539.93
538.42	25778.66
538.59	25951.86
538.75	25783.34
538.92	25500.14
539.09	25476.73
539.26	25671.00
539.43	25752.91
539.60	25968.24
539.77	25940.16
539.94	25944.84
540.11	25916.75
540.28	25970.58
540.44	26298.26
540.61	25703.76
540.78	25816.11
540.95	26052.50
541.12	26279.54
541.29	26426.99
541.46	26307.62
541.62	26307.62
541.79	26293.58
541.96	26068.89
542.13	25860.58
542.30	26319.32
542.47	26672.74
542.63	26525.29
542.80	26745.30
542.97	26991.06
543.14	26969.99
543.31	26602.53
543.48	26691.47
543.64	26747.64
543.81	26888.07
543.98	27208.73
544.15	27220.43
544.32	27124.47
544.48	27222.77
544.65	26955.95
544.82	26876.37
544.99	26782.75
545.16	27042.55
545.32	26682.11
545.49	27049.57
545.66	27185.32
545.83	27012.12
546.00	27611.30
546.16	27349.16
546.33	27012.12
546.50	27206.39
546.67	27517.68
546.83	27014.46
547.00	27543.42
547.17	27412.35
547.34	27360.86
547.50	27187.66
547.67	27527.04
547.84	27498.95
548.00	27814.93
548.17	27660.45
548.34	27524.70
548.51	27812.59
548.67	27791.52
548.84	28180.05
549.01	27704.92
549.18	27967.06
549.34	27999.83
549.51	27651.09
549.68	27325.75
549.84	27974.08
550.01	27950.68
550.18	27950.68
550.34	27786.84
550.51	27978.76
550.68	28526.45
550.84	28002.17
551.01	27772.80
551.18	27964.72
551.34	27835.99
551.51	28098.13
551.68	28091.11
551.84	27817.27
552.01	28044.30
552.18	28175.37
552.34	28027.92
552.51	28662.20
552.68	28051.32
552.84	28566.24
553.01	28294.74
553.18	28610.71
553.34	28479.64
553.51	28367.29
553.67	28519.43
553.84	28891.57
554.01	28608.37
554.17	28655.18
554.34	28528.79
554.51	28634.11
554.67	28732.42
554.84	28481.98
555.00	28673.90
555.17	28325.16
555.33	28594.32
555.50	28456.23
555.67	28739.44
555.83	28924.34
556.00	28514.75
556.16	28802.63
556.33	29001.58
556.50	28826.04
556.66	29195.84
556.83	28931.36
556.99	28893.91
557.16	29441.60
557.32	29127.97
557.49	28861.15
557.65	29097.54
557.82	28861.15
557.98	28898.59
558.15	28716.03
558.32	28954.77
558.48	29188.82
558.65	29418.19
558.81	29048.39
558.98	29392.45
559.14	29329.25
559.31	29081.16
559.47	29200.52
559.64	29324.57
559.80	29062.43
559.97	29411.17
560.13	28987.53
560.30	29340.96
560.46	29682.67
560.63	29324.57
560.79	29364.36
560.96	29516.50
561.12	29214.57
561.29	29076.48
561.45	29490.75
561.61	29411.17
561.78	29701.40
561.94	29965.88
562.11	29567.99
562.27	29886.30
562.44	29509.47
562.60	29261.38
562.77	29598.41
562.93	29324.57
563.10	30085.25
563.26	29764.59
563.42	29764.59
563.59	29738.85
563.75	29539.90
563.92	29493.09
564.08	29935.45
564.24	29654.59
564.41	29427.56
564.57	29289.46
564.74	29617.14
564.90	29951.84
565.07	30279.51
565.23	29771.61
565.39	29490.75
565.56	29514.16
565.72	29696.72
565.88	29766.93
566.05	29628.84
566.21	29825.45
566.38	29652.25
566.54	29755.23
566.70	30071.20
566.87	30096.95
567.03	29797.36
567.19	30368.45
567.36	30155.46
567.52	29902.68
567.68	30132.06
567.85	29923.75
568.01	29947.15
568.17	30068.86
568.34	29968.22
568.50	30181.21
568.66	30307.60
568.83	30295.89
568.99	30005.67
569.15	29780.98
569.32	29881.62
569.48	29811.40
569.64	30096.95
569.81	30281.85
569.97	29530.54
570.13	30302.92
570.30	29991.62
570.46	30455.05
570.62	30221.00
570.78	30132.06
570.95	29898.00
571.11	29783.32
571.27	29572.67
571.43	29792.68
571.60	30319.30
571.76	30134.40
571.92	30010.35
572.09	30270.15
572.25	30230.36
572.41	30323.98
572.57	30333.34
572.74	30118.01
572.90	30431.65
573.06	30174.19
573.22	30270.15
573.38	30450.37
573.55	30071.20
573.71	30265.47
573.87	30455.05
574.03	30038.44
574.20	30359.09
574.36	30291.21
574.52	30174.19
574.68	30265.47
574.84	30059.50
575.01	30368.45
575.17	30377.81
575.33	30221.00
575.49	30206.95
575.65	30361.43
575.82	30761.66
575.98	30157.80
576.14	30150.78
576.30	30253.76
576.46	30363.77
576.62	30403.56
576.79	30457.39
576.95	30036.09
577.11	30335.68
577.27	30448.03
577.43	30443.35
577.59	30464.41
577.75	30349.73
577.92	30106.31
578.08	30312.28
578.24	30204.61
578.40	30361.43
578.56	30543.99
578.72	30696.13
578.88	30520.59
579.04	30733.57
579.21	30106.31
579.37	30066.52
579.53	30466.75
579.69	30436.33
579.85	30462.07
580.01	30321.64
580.17	30073.54
580.33	30244.40
580.49	30270.15
580.65	30693.79
580.82	30579.10
580.98	30469.09
581.14	30424.62
581.30	30588.46
581.46	30614.21
581.62	30462.07
581.78	30478.46
581.94	30429.30
582.10	30513.56
582.26	30490.16
582.42	30553.35
582.58	30532.29
582.74	30799.11
582.90	30480.80
583.06	30794.43
583.22	30249.08
583.38	30555.69
583.54	30616.55
583.70	30817.83
583.86	30642.29
584.02	30433.99
584.18	30529.95
584.34	30445.69
584.50	30775.70
584.66	30567.40
584.82	30387.18
584.98	30689.10
585.14	30452.71
585.30	30274.83
585.46	30480.80
585.62	30567.40
585.78	30712.51
585.94	30452.71
586.10	31145.51
586.26	30522.93
586.42	30796.77
586.58	30684.42
586.74	30670.38
586.90	30838.90
587.06	30279.51
587.22	30866.98
587.38	30192.91
587.54	31161.89
587.70	30787.41
587.86	30642.29
588.02	30899.75
588.18	31353.82
588.34	30958.27
588.49	30609.53
588.65	30548.67
588.81	30656.34
588.97	30749.96
589.13	30352.07
589.29	30679.74
589.45	30558.03
589.61	31384.24
589.77	30958.27
589.93	30986.35
590.08	31079.97
590.24	30813.15
590.40	31068.27
590.56	31388.92
590.72	30621.23
590.88	30646.97
591.04	30749.96
591.20	31386.58
591.35	31199.34
591.51	31248.49
591.67	31442.76
591.83	31269.56
591.99	31281.26
