SpectraSuite Data File
++++++++++++++++++++++++++++++++++++
Date: Fri Oct 18 13:58:11 GMT-05:00 2013
User: bianchi
Dark Spectrum Present: No
Reference Spectrum Present: No
Number of Sampled Component Spectra: 1
Spectrometers: USB2+H05261
Integration Time (usec): 50000 (USB2+H05261)
Spectra Averaged: 1 (USB2+H05261)
Boxcar Smoothing: 0 (USB2+H05261)
Correct for Electrical Dark: No (USB2+H05261)
Strobe/Lamp Enabled: No (USB2+H05261)
Correct for Detector Non-linearity: No (USB2+H05261)
Correct for Stray Light: No (USB2+H05261)
Number of Pixels in Processed Spectrum: 2048
>>>>>Begin Processed Spectral Data<<<<<
365.73	0.00
365.92	0.00
366.12	0.00
366.32	0.00
366.52	0.00
366.72	0.00
366.91	0.00
367.11	0.00
367.31	0.00
367.51	0.00
367.70	0.00
367.90	0.00
368.10	0.00
368.30	0.00
368.49	0.00
368.69	0.00
368.89	0.00
369.09	0.00
369.28	0.00
369.48	0.00
369.68	0.00
369.87	0.00
370.07	0.00
370.27	0.00
370.47	0.00
370.66	88.94
370.86	119.37
371.06	121.71
371.25	205.97
371.45	220.01
371.65	105.32
371.84	131.07
372.04	102.98
372.24	191.92
372.44	168.52
372.63	236.39
372.83	203.63
373.03	180.22
373.22	264.48
373.42	238.73
373.62	262.14
373.81	262.14
374.01	264.48
374.21	231.71
374.40	236.39
374.60	229.37
374.79	334.70
374.99	156.82
375.19	322.99
375.38	276.18
375.58	313.63
375.78	245.76
375.97	299.59
376.17	322.99
376.37	271.50
376.56	297.25
376.76	227.03
376.95	304.27
377.15	259.80
377.35	308.95
377.54	330.02
377.74	276.18
377.93	250.44
378.13	266.82
378.33	374.49
378.52	365.12
378.72	236.39
378.91	283.20
379.11	315.97
379.31	276.18
379.50	294.91
379.70	322.99
379.89	344.06
380.09	294.91
380.28	318.31
380.48	269.16
380.68	365.12
380.87	318.31
381.07	330.02
381.26	395.55
381.46	292.57
381.65	348.74
381.85	353.42
382.04	332.36
382.24	379.17
382.43	365.12
382.63	290.23
382.83	348.74
383.02	393.21
383.22	337.04
383.41	264.48
383.61	304.27
383.80	315.97
384.00	404.91
384.19	360.44
384.39	358.10
384.58	351.08
384.78	381.51
384.97	404.91
385.17	421.30
385.36	341.72
385.56	472.79
385.75	315.97
385.95	376.83
386.14	395.55
386.34	404.91
386.53	372.15
386.72	421.30
386.92	461.09
387.11	456.40
387.31	400.23
387.50	414.27
387.70	395.55
387.89	430.66
388.09	479.81
388.28	505.56
388.48	482.15
388.67	400.23
388.86	533.64
389.06	484.49
389.25	512.58
389.45	503.22
389.64	568.75
389.84	578.11
390.03	475.13
390.22	538.32
390.42	479.81
390.61	414.27
390.81	510.24
391.00	524.28
391.19	533.64
391.39	519.60
391.58	514.92
391.78	559.39
391.97	468.11
392.16	524.28
392.36	585.13
392.55	578.11
392.75	592.16
392.94	564.07
393.13	627.26
393.33	521.94
393.52	505.56
393.71	587.47
393.91	592.16
394.10	559.39
394.29	547.69
394.49	690.46
394.68	575.77
394.88	641.31
395.07	695.14
395.26	596.84
395.46	585.13
395.65	599.18
395.84	662.37
396.04	648.33
396.23	685.78
396.42	664.71
396.62	692.80
396.81	683.44
397.00	692.80
397.19	737.27
397.39	690.46
397.58	807.48
397.77	723.23
397.97	622.58
398.16	711.52
398.35	734.93
398.55	842.59
398.74	734.93
398.93	732.59
399.12	777.06
399.32	751.31
399.51	739.61
399.70	777.06
399.90	753.65
400.09	751.31
400.28	774.72
400.47	753.65
400.67	737.27
400.86	704.50
401.05	849.61
401.24	809.83
401.44	732.59
401.63	784.08
401.82	840.25
402.01	795.78
402.21	840.25
402.40	884.72
402.59	873.02
402.78	755.99
402.97	819.19
403.17	898.77
403.36	943.24
403.55	891.74
403.74	882.38
403.93	866.00
404.13	1001.75
404.32	924.51
404.51	901.11
404.70	945.58
404.89	987.71
405.09	978.34
405.28	961.96
405.47	961.96
405.66	987.71
405.85	945.58
406.05	997.07
406.24	1046.22
406.43	919.83
406.62	1025.15
406.81	1076.65
407.00	945.58
407.20	1093.03
407.39	1067.28
407.58	1102.39
407.77	1111.75
407.96	1116.44
408.15	1121.12
408.34	1170.27
408.54	1221.76
408.73	1118.78
408.92	1081.33
409.11	1104.73
409.30	1139.84
409.49	1146.86
409.68	1210.06
409.87	1158.57
410.07	1226.44
410.26	1205.38
410.45	1280.27
410.64	1270.91
410.83	1245.16
411.02	1144.52
411.21	1221.76
411.40	1277.93
411.59	1315.38
411.78	1259.21
411.98	1275.59
412.17	1324.74
412.36	1387.94
412.55	1352.83
412.74	1343.47
412.93	1371.55
413.12	1320.06
413.31	1448.79
413.50	1401.98
413.69	1479.22
413.88	1453.47
414.07	1455.81
414.26	1432.41
414.45	1420.71
414.64	1455.81
414.83	1528.37
415.02	1533.05
415.22	1617.31
415.41	1603.27
415.60	1521.35
415.79	1633.69
415.98	1619.65
416.17	1551.78
416.36	1640.72
416.55	1572.84
416.74	1703.91
416.93	1511.99
417.12	1607.95
417.31	1860.73
417.50	1795.19
417.69	1746.04
417.88	1837.32
418.07	1703.91
418.26	1694.55
418.45	1853.70
418.64	1797.53
418.83	1863.07
419.02	1837.32
419.21	1881.79
419.39	1944.99
419.58	1914.56
419.77	1844.34
419.96	1827.96
420.15	1795.19
420.34	1870.09
420.53	1947.33
420.72	1975.41
420.91	1900.52
421.10	1933.28
421.29	2073.71
421.48	1884.13
421.67	1998.82
421.86	2078.40
422.05	2043.29
422.24	2022.22
422.43	2010.52
422.61	2033.93
422.80	1994.14
422.99	2078.40
423.18	1930.94
423.37	2022.22
423.56	2122.87
423.75	2066.69
423.94	1963.71
424.13	1933.28
424.32	2026.90
424.50	2111.16
424.69	2122.87
424.88	2083.08
425.07	2001.16
425.26	1987.11
425.45	1940.30
425.64	2148.61
425.83	1994.14
426.01	2064.35
426.20	2167.34
426.39	2064.35
426.58	2104.14
426.77	2094.78
426.96	2181.38
427.15	2181.38
427.33	2186.06
427.52	2017.54
427.71	2127.55
427.90	2230.53
428.09	2195.42
428.28	2200.10
428.46	2148.61
428.65	2225.85
428.84	2317.13
429.03	2415.43
429.22	2235.21
429.40	2326.49
429.59	2312.45
429.78	2265.64
429.97	2181.38
430.16	2235.21
430.34	2251.60
430.53	2363.94
430.72	2476.29
430.91	2279.68
431.10	2436.50
431.28	2387.35
431.47	2324.15
431.66	2525.44
431.85	2469.27
432.03	2490.33
432.22	2640.12
432.41	2443.52
432.60	2483.31
432.79	2480.97
432.97	2513.74
433.16	2518.42
433.35	2551.18
433.54	2579.27
433.72	2579.27
433.91	2476.29
434.10	2497.35
434.28	2429.48
434.47	2572.25
434.66	2637.78
434.85	2773.53
435.03	2537.14
435.22	2520.76
435.41	2605.02
435.59	2621.40
435.78	2593.31
435.97	2609.70
436.16	2700.98
436.34	2712.68
436.53	2736.09
436.72	2864.82
436.90	2665.87
437.09	2839.07
437.28	2780.56
437.46	2773.53
437.65	2876.52
437.84	2775.88
438.02	2785.24
438.21	2911.63
438.40	2712.68
438.58	2881.20
438.77	2939.71
438.96	2972.48
439.14	2925.67
439.33	2993.55
439.52	3136.32
439.70	3009.93
439.89	3148.02
440.08	3075.46
440.26	3133.98
440.45	3042.70
440.63	3101.21
440.82	3157.38
441.01	3213.56
441.19	3265.05
441.38	3295.47
441.57	3243.98
441.75	3344.63
441.94	3274.41
442.12	3304.84
442.31	3323.56
442.50	3517.83
442.68	3419.52
442.87	3349.31
443.05	3246.32
443.24	3452.29
443.43	3492.08
443.61	3566.98
443.80	3674.64
443.98	3454.63
444.17	3218.24
444.35	3466.33
444.54	3433.57
444.73	3597.40
444.91	3555.27
445.10	3625.49
445.28	3501.44
445.47	3499.10
445.65	3604.42
445.84	3520.17
446.02	3536.55
446.21	3370.37
446.39	3522.51
446.58	3599.74
446.77	3623.15
446.95	3571.66
447.14	3552.93
447.32	3585.70
447.51	3527.19
447.69	3606.77
447.88	3688.68
448.06	3578.68
448.25	3562.30
448.43	3660.60
448.62	3606.77
448.80	3707.41
448.99	3772.94
449.17	3679.32
449.36	3555.27
449.54	3810.39
449.73	3749.54
449.91	3847.84
450.10	3852.52
450.28	3770.60
450.46	3754.22
450.65	3824.44
450.83	3714.43
451.02	3889.97
451.20	3810.39
451.39	4081.89
451.57	3791.67
451.76	3887.63
451.94	3688.68
452.13	3878.27
452.31	3817.41
452.49	3812.73
452.68	3950.82
452.86	3936.78
453.05	3946.14
453.23	3960.19
453.42	3974.23
453.60	3922.74
453.78	4046.79
453.97	4004.66
454.15	3988.27
454.34	3999.98
454.52	4091.26
454.70	4016.36
454.89	4081.89
455.07	4086.58
455.26	4039.76
455.44	4212.96
455.62	4175.52
455.81	4210.62
455.99	4189.56
456.17	4224.67
456.36	4227.01
456.54	4374.46
456.73	4358.08
456.91	4360.42
457.09	4386.16
457.28	4418.93
457.46	4304.25
457.64	4449.36
457.83	4461.06
458.01	4489.15
458.19	4505.53
458.38	4393.19
458.56	4486.81
458.74	4437.66
458.93	4601.49
459.11	4582.77
459.29	4573.41
459.48	4727.88
459.66	4533.62
459.84	4528.94
460.03	4699.80
460.21	4573.41
460.39	4533.62
460.57	4592.13
460.76	4685.75
460.94	4697.46
461.12	4667.03
461.31	4755.97
461.49	4777.03
461.67	4725.54
461.85	4870.65
462.04	4770.01
462.22	5125.77
462.40	4891.72
462.59	4858.95
462.77	4807.46
462.95	5034.49
463.13	4826.18
463.32	4842.57
463.50	4835.55
463.68	4915.12
463.86	4854.27
464.05	4812.14
464.23	4983.00
464.41	5177.26
464.59	4821.50
464.78	5125.77
464.96	5174.92
465.14	4931.51
465.32	4922.15
465.50	5048.54
465.69	5039.17
465.87	5093.01
466.05	5006.41
466.23	5083.64
466.41	5107.05
466.60	5181.95
466.78	5083.64
466.96	5170.24
467.14	5116.41
467.32	5111.73
467.51	5317.70
467.69	5142.16
467.87	5296.63
468.05	5582.18
468.23	5352.81
468.41	5252.16
468.60	5273.23
468.78	5423.02
468.96	5460.47
469.14	5394.93
469.32	5371.53
469.50	5418.34
469.69	5558.77
469.87	5430.04
470.05	5547.07
470.23	5441.75
470.41	5542.39
470.59	5568.13
470.77	5729.63
470.95	5748.36
471.14	5640.69
471.32	5577.50
471.50	5757.72
471.68	5734.31
471.86	5647.71
472.04	5650.05
472.22	5846.66
472.40	5825.59
472.58	5961.34
472.77	5900.49
472.95	5961.34
473.13	6090.07
473.31	6087.73
473.49	5954.32
473.67	5989.43
473.85	6076.03
474.03	6148.59
474.21	5998.79
474.39	6293.70
474.57	6249.23
474.75	6424.77
474.93	6340.51
475.12	6256.25
475.30	6373.28
475.48	6256.25
475.66	6384.98
475.84	6368.60
476.02	6553.50
476.20	6443.49
476.38	6607.33
476.56	6698.61
476.74	6890.54
476.92	6579.25
477.10	6822.66
477.28	6764.15
477.46	6834.36
477.64	7019.27
477.82	6932.67
478.00	6920.96
478.18	7030.97
478.36	7215.87
478.54	7358.64
478.72	7178.42
478.90	7201.83
479.08	7239.28
479.26	7229.91
479.44	7494.40
479.62	7676.96
479.80	7393.75
479.98	7623.12
480.16	7824.41
480.34	7770.58
480.52	7779.94
480.70	7805.69
480.88	7803.35
481.06	7868.88
481.24	8021.02
481.41	8121.66
481.59	8084.21
481.77	8219.96
481.95	8341.67
482.13	8336.99
482.31	8313.58
482.49	8379.12
482.67	8454.02
482.85	8650.62
483.03	8559.34
483.21	8746.58
483.39	8784.03
483.57	8767.65
483.74	8938.51
483.92	8879.99
484.10	8875.31
484.28	9064.89
484.46	9207.67
484.64	9289.59
484.82	9184.26
485.00	9488.53
485.18	9593.86
485.35	9348.10
485.53	9434.70
485.71	9516.62
485.89	9956.64
486.07	9717.90
486.25	9753.01
486.43	9856.00
486.61	10029.20
486.78	10083.03
486.96	10031.54
487.14	10291.34
487.32	10314.74
487.50	10436.45
487.68	10579.22
487.85	10534.75
488.03	10532.41
488.21	10771.15
488.39	10726.68
488.57	10874.13
488.75	10911.58
488.92	11393.73
489.10	11119.89
489.28	11227.55
489.46	11318.83
489.64	11281.38
489.81	11379.68
489.99	11555.22
490.17	11508.41
490.35	11653.53
490.53	11639.48
490.70	11880.56
490.88	11798.64
491.06	12063.12
491.24	11885.24
491.41	12140.36
491.59	12201.21
491.77	12198.87
491.95	12458.67
492.13	12540.59
492.30	12362.71
492.48	12655.28
492.66	12908.05
492.84	12877.63
493.01	12681.02
493.19	12903.37
493.37	13050.83
493.54	12915.08
493.72	13273.18
493.90	13118.70
494.08	13156.15
494.25	13404.25
494.43	13280.20
494.61	13572.77
494.79	13577.45
494.96	13528.30
495.14	13465.10
495.32	13879.38
495.49	13837.25
495.67	14139.18
495.85	14221.10
496.02	14307.69
496.20	14141.52
496.38	14384.93
496.55	14106.41
496.73	14544.09
496.91	14672.82
497.09	14527.71
497.26	14796.87
497.44	14562.81
497.62	14588.56
497.79	15000.49
497.97	14916.23
498.14	15005.17
498.32	14949.00
498.50	15115.18
498.67	15529.45
498.85	15276.68
499.03	15382.00
499.20	15473.28
499.38	15482.64
499.56	15550.52
499.73	15812.66
499.91	15880.53
500.08	16006.92
500.26	15611.37
500.44	15817.34
500.61	15833.72
500.79	15896.92
500.97	15939.05
501.14	16060.76
501.32	16166.08
501.49	16292.47
501.67	16233.96
501.84	16444.60
502.02	16360.34
502.20	16306.51
502.37	16624.83
502.55	16636.53
502.72	16606.10
502.90	16524.18
503.07	16802.71
503.25	16823.77
503.43	16360.34
503.60	17085.91
503.78	17090.59
503.95	17172.51
504.13	16959.52
504.30	16903.35
504.48	16861.22
504.65	17013.35
504.83	17355.07
505.01	17497.84
505.18	17387.84
505.36	17563.38
505.53	17481.46
505.71	17596.15
505.88	17366.78
506.06	17315.28
506.23	17453.37
506.41	17642.96
506.58	17907.44
506.76	17865.31
506.93	17893.40
507.11	17788.07
507.28	18258.52
507.46	17673.39
507.63	18223.41
507.81	18104.04
507.98	18338.10
508.16	18469.17
508.33	18153.20
508.50	18640.03
508.68	18331.08
508.85	18831.95
509.03	18295.97
509.20	18771.10
509.38	18965.36
509.55	18881.10
509.73	18747.69
509.90	18789.82
510.08	18728.97
510.25	18948.98
510.42	18738.33
510.60	19222.82
510.77	19154.94
510.95	19208.78
511.12	19089.41
511.30	18965.36
511.47	19545.81
511.64	19145.58
511.82	19723.69
511.99	19419.42
512.17	19440.49
512.34	19728.38
512.51	19688.59
512.69	19641.78
512.86	19641.78
513.04	20079.46
513.21	19711.99
513.38	19955.41
513.56	19974.13
513.73	19786.89
513.90	20025.62
514.08	20243.29
514.25	20133.29
514.43	20194.14
514.60	20098.18
514.77	20175.42
514.95	20170.74
515.12	20130.95
515.29	20390.75
515.47	20397.77
515.64	20779.28
515.81	20620.12
515.99	20638.84
516.16	20645.87
516.33	20695.02
516.51	21041.42
516.68	20711.40
516.85	20662.25
517.03	21247.38
517.20	20893.96
517.37	21008.65
517.54	20996.95
517.72	20940.77
517.89	21050.78
518.06	21083.55
518.24	21404.20
518.41	21057.80
518.58	21338.66
518.75	21413.56
518.93	21736.56
519.10	21593.78
519.27	21469.73
519.45	21432.29
519.62	21738.90
519.79	21324.62
519.96	21591.44
520.14	21869.97
520.31	21671.02
520.48	22134.45
520.65	21788.05
520.83	22047.85
521.00	21970.61
521.17	21736.56
521.34	21975.29
521.52	22342.75
521.69	22139.13
521.86	22288.92
522.03	22221.05
522.20	22682.13
522.38	21996.35
522.55	22450.42
522.72	22757.03
522.89	22207.00
523.07	22618.94
523.24	22635.32
523.41	22668.09
523.58	23058.96
523.75	22916.19
523.92	22752.35
524.10	22754.69
524.27	23094.07
524.44	23351.52
524.61	23143.22
524.78	22878.74
524.96	23154.92
525.13	23232.16
525.30	23028.53
525.47	23019.17
525.64	23438.12
525.81	23475.57
525.98	23531.75
526.16	23447.49
526.33	23173.64
526.50	23344.50
526.67	23655.79
526.84	23527.06
527.01	23311.74
527.18	23974.11
527.36	23482.59
527.53	23599.62
527.70	24114.54
527.87	23838.36
528.04	23667.50
528.21	23875.80
528.38	24093.47
528.55	23821.97
528.72	23885.17
528.89	24198.80
529.07	24020.92
529.24	23873.46
529.41	24236.25
529.58	24219.86
529.75	23931.98
529.92	24283.06
530.09	24217.52
530.26	24088.79
530.43	24393.06
530.60	24437.53
530.77	24280.72
530.94	24781.59
531.11	24367.32
531.28	24177.73
531.46	24704.35
531.63	24683.29
531.80	24727.76
531.97	24936.07
532.14	25125.65
532.31	24847.13
532.48	24905.64
532.65	24694.99
532.82	24861.17
532.99	24872.87
533.16	24657.54
533.33	24924.36
533.50	25415.88
533.67	25291.83
533.84	24919.68
534.01	24987.56
534.18	25046.07
534.35	25296.51
534.52	25099.90
534.69	25476.73
534.86	25502.48
535.03	25254.38
535.20	25223.95
535.37	25329.28
535.54	25266.08
535.71	25050.75
535.88	25350.34
536.05	25254.38
536.22	25668.66
536.38	25703.76
536.55	25795.04
536.72	25748.23
536.89	25469.71
537.06	25483.75
537.23	25771.64
537.40	25546.95
537.57	25912.07
537.74	26223.36
537.91	25898.03
538.08	26157.83
538.25	25935.48
538.42	25839.51
538.59	26040.80
538.75	26506.57
538.92	26003.35
539.09	26529.97
539.26	26235.06
539.43	26321.66
539.60	25991.65
539.77	26185.91
539.94	26562.74
540.11	26008.03
540.28	26302.94
540.44	26394.22
540.61	26078.25
540.78	26654.02
540.95	26279.54
541.12	26214.00
541.29	26459.76
541.46	26363.79
541.62	26431.67
541.79	26403.58
541.96	26134.42
542.13	26675.09
542.30	26480.82
542.47	26600.19
542.63	26518.27
542.80	26881.05
542.97	26920.84
543.14	26932.54
543.31	27026.17
543.48	26789.77
543.64	27318.73
543.81	27145.53
543.98	27152.55
544.15	27180.64
544.32	27056.59
544.48	27384.27
544.65	27056.59
544.82	27414.69
544.99	27040.21
545.16	27276.60
545.32	27206.39
545.49	27410.01
545.66	27442.78
545.83	27328.10
546.00	27819.61
546.16	27356.18
546.33	27278.94
546.50	27459.16
546.67	27793.86
546.83	27108.08
547.00	27655.77
547.17	27660.45
547.34	27548.11
547.50	27988.13
547.67	28079.41
547.84	27917.91
548.00	27784.50
548.17	27924.93
548.34	27702.58
548.51	27756.41
548.67	28121.54
548.84	28180.05
549.01	27810.25
549.18	27910.89
549.34	27962.38
549.51	28011.53
549.68	27915.57
549.84	28032.60
550.01	27924.93
550.18	27751.73
550.34	28219.84
550.51	28542.83
550.68	28219.84
550.84	28114.52
551.01	28133.24
551.18	27934.29
551.34	28079.41
551.51	28474.96
551.68	28184.73
551.84	28465.60
552.01	28212.82
552.18	28699.65
552.34	28444.53
552.51	28577.94
552.68	28587.30
552.84	28683.27
553.01	28545.17
553.18	28479.64
553.34	28889.23
553.51	28561.56
553.67	28580.28
553.84	28760.50
554.01	28809.65
554.17	28638.80
554.34	28779.23
554.51	28622.41
554.67	28797.95
554.84	28727.74
555.00	28840.08
555.17	28978.17
555.33	29106.90
555.50	28994.56
555.67	29057.75
555.83	28561.56
556.00	28720.71
556.16	29120.95
556.33	28706.67
556.50	29041.37
556.66	29095.20
556.83	28957.11
556.99	29558.63
557.16	29252.02
557.32	29244.99
557.49	29355.00
557.65	29081.16
557.82	29237.97
557.98	29261.38
558.15	29296.49
558.32	29584.37
558.48	29188.82
558.65	29677.99
558.81	29415.85
558.98	29296.49
559.14	29301.17
559.31	29467.34
559.47	29486.07
559.64	29694.38
559.80	29521.18
559.97	29745.87
560.13	29607.78
560.30	29619.48
560.46	29422.87
560.63	29509.47
560.79	29692.04
560.96	29792.68
561.12	29378.40
561.29	29518.84
561.45	29560.97
561.61	29783.32
561.78	29759.91
561.94	29734.17
562.11	29862.90
562.27	29780.98
562.44	29256.70
562.60	29755.23
562.77	29666.29
562.93	29481.39
563.10	29893.32
563.26	29514.16
563.42	30174.19
563.59	29900.34
563.75	30024.39
563.92	29764.59
564.08	29628.84
564.24	29813.74
564.41	30237.38
564.57	30024.39
564.74	30075.88
564.90	30190.57
565.07	30398.88
565.23	29937.79
565.39	29310.53
565.56	30424.62
565.72	30029.07
565.88	30314.62
566.05	29944.81
566.21	30061.84
566.38	30066.52
566.54	30480.80
566.70	30026.73
566.87	30338.02
567.03	30316.96
567.19	30403.56
567.36	30312.28
567.52	30190.57
567.68	30345.05
567.85	30106.31
568.01	30122.69
568.17	30157.80
568.34	30260.79
568.50	30632.93
568.66	30192.91
568.83	30094.61
568.99	30349.73
569.15	30118.01
569.32	30225.68
569.48	30118.01
569.64	30448.03
569.81	30567.40
569.97	30258.45
570.13	30658.68
570.30	30466.75
570.46	30394.20
570.62	30466.75
570.78	30361.43
570.95	30125.04
571.11	30508.88
571.27	30167.16
571.43	30213.98
571.60	30263.13
571.76	30352.07
571.92	30628.25
572.09	30436.33
572.25	30703.15
572.41	30448.03
572.57	30817.83
572.74	30728.89
572.90	29977.58
573.06	30649.32
573.22	30654.00
573.38	30387.18
573.55	30623.57
573.71	30836.56
573.87	30515.90
574.03	30560.37
574.20	30724.21
574.36	29982.26
574.52	30148.44
574.68	30574.42
574.84	30813.15
575.01	30436.33
575.17	30658.68
575.33	30597.82
575.49	30583.78
575.65	30637.61
575.82	30511.22
575.98	30284.19
576.14	30768.68
576.30	30958.27
576.46	30443.35
576.62	30661.02
576.79	30595.48
576.95	30490.16
577.11	30646.97
577.27	30810.81
577.43	30403.56
577.59	30569.74
577.75	30892.73
577.92	30700.81
578.08	30115.67
578.24	30700.81
578.40	30338.02
578.56	30555.69
578.72	30644.63
578.88	30960.61
579.04	31152.53
579.21	30281.85
579.37	31012.10
579.53	30911.46
579.69	30448.03
579.85	30405.90
580.01	30394.20
580.17	30628.25
580.33	30501.86
580.49	30862.30
580.65	30862.30
580.82	31000.40
580.98	30820.17
581.14	30639.95
581.30	31257.85
581.46	30764.00
581.62	30459.73
581.78	30553.35
581.94	30607.19
582.10	30403.56
582.26	31033.16
582.42	30522.93
582.58	30967.63
582.74	30665.70
582.90	30918.48
583.06	31000.40
583.22	30815.49
583.38	30621.23
583.54	30651.66
583.70	30761.66
583.86	31028.48
584.02	30796.77
584.18	31138.49
584.34	30740.60
584.50	31047.21
584.66	31129.12
584.82	30859.96
584.98	30864.64
585.14	31218.07
585.30	30651.66
585.46	31000.40
585.62	30848.26
585.78	31094.02
585.94	30649.32
586.10	30787.41
586.26	30965.29
586.42	31091.68
586.58	31248.49
586.74	30658.68
586.90	30724.21
587.06	30850.60
587.22	31115.08
587.38	30813.15
587.54	31187.64
587.70	31426.37
587.86	30906.77
588.02	30644.63
588.18	31498.93
588.34	31005.08
588.49	30979.33
588.65	30848.26
588.81	31227.43
588.97	31189.98
589.13	30866.98
589.29	31136.15
589.45	31253.17
589.61	31438.08
589.77	31248.49
589.93	31241.47
590.08	31154.87
590.24	31449.78
590.40	31505.95
590.56	31178.28
590.72	30934.86
590.88	30995.71
591.04	30902.09
591.20	31566.81
591.35	31559.78
591.51	31307.01
591.67	31189.98
591.83	31723.62
