SpectraSuite Data File
++++++++++++++++++++++++++++++++++++
Date: Fri Oct 18 13:58:27 GMT-05:00 2013
User: bianchi
Dark Spectrum Present: No
Reference Spectrum Present: No
Number of Sampled Component Spectra: 1
Spectrometers: USB2+H05261
Integration Time (usec): 50000 (USB2+H05261)
Spectra Averaged: 1 (USB2+H05261)
Boxcar Smoothing: 0 (USB2+H05261)
Correct for Electrical Dark: No (USB2+H05261)
Strobe/Lamp Enabled: No (USB2+H05261)
Correct for Detector Non-linearity: No (USB2+H05261)
Correct for Stray Light: No (USB2+H05261)
Number of Pixels in Processed Spectrum: 2048
>>>>>Begin Processed Spectral Data<<<<<
365.73	0.00
365.92	0.00
366.12	0.00
366.32	0.00
366.52	0.00
366.72	0.00
366.91	0.00
367.11	0.00
367.31	0.00
367.51	0.00
367.70	0.00
367.90	0.00
368.10	0.00
368.30	0.00
368.49	0.00
368.69	0.00
368.89	0.00
369.09	0.00
369.28	0.00
369.48	0.00
369.68	0.00
369.87	0.00
370.07	0.00
370.27	0.00
370.47	0.00
370.66	149.79
370.86	67.88
371.06	173.20
371.25	182.56
371.45	201.29
371.65	131.07
371.84	187.24
372.04	140.43
372.24	194.26
372.44	220.01
372.63	217.67
372.83	191.92
373.03	208.31
373.22	245.76
373.42	170.86
373.62	154.48
373.81	322.99
374.01	117.03
374.21	215.33
374.40	243.42
374.60	196.60
374.79	217.67
374.99	250.44
375.19	252.78
375.38	285.55
375.58	175.54
375.78	224.69
375.97	315.97
376.17	271.50
376.37	238.73
376.56	297.25
376.76	355.76
376.95	205.97
377.15	215.33
377.35	287.89
377.54	318.31
377.74	236.39
377.93	264.48
378.13	229.37
378.33	245.76
378.52	175.54
378.72	276.18
378.91	320.65
379.11	217.67
379.31	266.82
379.50	297.25
379.70	308.95
379.89	248.10
380.09	271.50
380.28	236.39
380.48	276.18
380.68	330.02
380.87	269.16
381.07	292.57
381.26	311.29
381.46	351.08
381.65	341.72
381.85	271.50
382.04	318.31
382.24	367.46
382.43	362.78
382.63	313.63
382.83	271.50
383.02	304.27
383.22	397.89
383.41	383.85
383.61	280.86
383.80	372.15
384.00	421.30
384.19	313.63
384.39	351.08
384.58	339.38
384.78	351.08
384.97	435.34
385.17	327.68
385.36	355.76
385.56	402.57
385.75	287.89
385.95	386.19
386.14	409.59
386.34	367.46
386.53	367.46
386.72	332.36
386.92	362.78
387.11	451.72
387.31	447.04
387.50	475.13
387.70	388.53
387.89	330.02
388.09	386.19
388.28	390.87
388.48	444.70
388.67	430.66
388.86	440.02
389.06	374.49
389.25	374.49
389.45	517.26
389.64	395.55
389.84	475.13
390.03	435.34
390.22	461.09
390.42	491.51
390.61	484.49
390.81	472.79
391.00	465.77
391.19	437.68
391.39	468.11
391.58	517.26
391.78	465.77
391.97	517.26
392.16	454.06
392.36	554.71
392.55	472.79
392.75	496.19
392.94	559.39
393.13	491.51
393.33	507.90
393.52	540.66
393.71	594.50
393.91	578.11
394.10	559.39
394.29	519.60
394.49	500.87
394.68	592.16
394.88	496.19
395.07	641.31
395.26	648.33
395.46	622.58
395.65	645.99
395.84	662.37
396.04	645.99
396.23	608.54
396.42	592.16
396.62	592.16
396.81	589.82
397.00	575.77
397.19	610.88
397.39	568.75
397.58	678.76
397.77	510.24
397.97	617.90
398.16	690.46
398.35	648.33
398.55	657.69
398.74	699.82
398.93	688.12
399.12	760.67
399.32	641.31
399.51	702.16
399.70	774.72
399.90	770.04
400.09	725.57
400.28	784.08
400.47	802.80
400.67	842.59
400.86	720.88
401.05	828.55
401.24	786.42
401.44	882.38
401.63	830.89
401.82	774.72
402.01	828.55
402.21	858.98
402.40	786.42
402.59	847.27
402.78	821.53
402.97	816.85
403.17	823.87
403.36	823.87
403.55	823.87
403.74	830.89
403.93	858.98
404.13	933.87
404.32	837.91
404.51	910.47
404.70	889.40
404.89	917.49
405.09	901.11
405.28	891.74
405.47	910.47
405.66	926.85
405.85	901.11
406.05	971.32
406.24	968.98
406.43	1036.86
406.62	1046.22
406.81	1018.13
407.00	1008.77
407.20	966.64
407.39	912.81
407.58	1018.13
407.77	1041.54
407.96	1027.50
408.15	1100.05
408.34	1048.56
408.54	990.05
408.73	1053.24
408.92	1118.78
409.11	1123.46
409.30	1109.41
409.49	1090.69
409.68	1200.69
409.87	1118.78
410.07	1188.99
410.26	1160.91
410.45	1146.86
410.64	1144.52
410.83	1219.42
411.02	1240.48
411.21	1214.74
411.40	1174.95
411.59	1245.16
411.78	1231.12
411.98	1191.33
412.17	1355.17
412.36	1188.99
412.55	1296.66
412.74	1432.41
412.93	1362.19
413.12	1310.70
413.31	1329.42
413.50	1331.76
413.69	1455.81
413.88	1490.92
414.07	1432.41
414.26	1401.98
414.45	1371.55
414.64	1369.21
414.83	1434.75
415.02	1493.26
415.22	1572.84
415.41	1565.82
415.60	1638.38
415.79	1551.78
415.98	1467.52
416.17	1570.50
416.36	1645.40
416.55	1636.03
416.74	1673.48
416.93	1593.90
417.12	1741.36
417.31	1640.72
417.50	1544.75
417.69	1729.66
417.88	1626.67
418.07	1689.87
418.26	1710.93
418.45	1764.76
418.64	1839.66
418.83	1701.57
419.02	1746.04
419.21	1813.92
419.39	1872.43
419.58	1746.04
419.77	1872.43
419.96	1746.04
420.15	1799.87
420.34	1865.41
420.53	1893.49
420.72	1858.39
420.91	1870.09
421.10	1863.07
421.29	1909.88
421.48	1851.36
421.67	1912.22
421.86	1888.81
422.05	2031.58
422.24	2008.18
422.43	1952.01
422.61	1907.54
422.80	2036.27
422.99	2022.22
423.18	1996.48
423.37	1991.80
423.56	2073.71
423.75	1956.69
423.94	1832.64
424.13	1804.55
424.32	1902.86
424.50	2019.88
424.69	2054.99
424.88	2008.18
425.07	2026.90
425.26	1912.22
425.45	1980.09
425.64	2017.54
425.83	1940.30
426.01	2001.16
426.20	2064.35
426.39	1982.43
426.58	1944.99
426.77	2024.56
426.96	1991.80
427.15	1987.11
427.33	2097.12
427.52	2071.37
427.71	2071.37
427.90	2141.59
428.09	2111.16
428.28	2069.03
428.46	2253.94
428.65	2134.57
428.84	2181.38
429.03	2207.13
429.22	1973.07
429.40	2176.70
429.59	2176.70
429.78	2099.46
429.97	2169.68
430.16	2279.68
430.34	2263.30
430.53	2466.92
430.72	2347.56
430.91	2267.98
431.10	2239.89
431.28	2319.47
431.47	2424.80
431.66	2345.22
431.85	2317.13
432.03	2363.94
432.22	2368.62
432.41	2462.24
432.60	2452.88
432.79	2455.22
432.97	2462.24
433.16	2518.42
433.35	2317.13
433.54	2551.18
433.72	2562.89
433.91	2459.90
434.10	2495.01
434.28	2385.01
434.47	2523.10
434.66	2427.14
434.85	2422.45
435.03	2574.59
435.22	2621.40
435.41	2626.08
435.59	2612.04
435.78	2642.46
435.97	2567.57
436.16	2686.94
436.34	2572.25
436.53	2590.97
436.72	2710.34
436.90	2693.96
437.09	2590.97
437.28	2640.12
437.46	2593.31
437.65	2686.94
437.84	2700.98
438.02	2822.69
438.21	2715.02
438.40	2649.49
438.58	2820.35
438.77	2906.95
438.96	2843.75
439.14	2860.13
439.33	2904.60
439.52	2878.86
439.70	3038.02
439.89	2963.12
440.08	3021.63
440.26	3042.70
440.45	3094.19
440.63	2979.50
440.82	3028.65
441.01	3009.93
441.19	3075.46
441.38	3204.19
441.57	3176.11
441.75	3185.47
441.94	3171.43
442.12	3197.17
442.31	3400.80
442.50	3145.68
442.68	3218.24
442.87	3274.41
443.05	3314.20
443.24	3342.28
443.43	3424.20
443.61	3236.96
443.80	3456.97
443.98	3248.66
444.17	3159.72
444.35	3396.12
444.54	3435.91
444.73	3361.01
444.91	3276.75
445.10	3419.52
445.28	3368.03
445.47	3379.73
445.65	3384.41
445.84	3520.17
446.02	3456.97
446.21	3311.86
446.39	3386.76
446.58	3471.01
446.77	3372.71
446.95	3368.03
447.14	3447.61
447.32	3569.32
447.51	3382.07
447.69	3461.65
447.88	3534.21
448.06	3431.23
448.25	3449.95
448.43	3559.95
448.62	3358.67
448.80	3510.80
448.99	3634.85
449.17	3559.95
449.36	3569.32
449.54	3503.78
449.73	3765.92
449.91	3698.05
450.10	3735.50
450.28	3721.45
450.46	3719.11
450.65	3669.96
450.83	3716.77
451.02	3723.79
451.20	3770.60
451.39	3801.03
451.57	3740.18
451.76	3606.77
451.94	3695.71
452.13	3847.84
452.31	3735.50
452.49	3751.88
452.68	3836.14
452.86	3782.31
453.05	3894.65
453.23	3882.95
453.42	3859.54
453.60	3765.92
453.78	3791.67
453.97	3875.93
454.15	3927.42
454.34	3763.58
454.52	3976.57
454.70	3964.87
454.89	3889.97
455.07	3819.75
455.26	3911.04
455.44	4102.96
455.62	3964.87
455.81	3941.46
455.99	3960.19
456.17	3978.91
456.36	4152.11
456.54	4194.24
456.73	4189.56
456.91	4222.33
457.09	4264.46
457.28	4285.52
457.46	4337.01
457.64	4292.54
457.83	4287.86
458.01	4255.09
458.19	4257.43
458.38	4175.52
458.56	4374.46
458.74	4257.43
458.93	4294.88
459.11	4397.87
459.29	4290.20
459.48	4477.44
459.66	4292.54
459.84	4458.72
460.03	4592.13
460.21	4514.89
460.39	4559.36
460.57	4496.17
460.76	4493.83
460.94	4800.44
461.12	4533.62
461.31	4423.61
461.49	4641.28
461.67	4500.85
461.85	4599.15
462.04	4638.94
462.22	4826.18
462.40	4645.96
462.59	4592.13
462.77	4702.14
462.95	4709.16
463.13	4744.27
463.32	4594.47
463.50	4624.90
463.68	4681.07
463.86	4699.80
464.05	4627.24
464.23	4690.43
464.41	4753.63
464.59	4683.41
464.78	4908.10
464.96	4971.30
465.14	4922.15
465.32	4924.49
465.50	5090.67
465.69	4882.36
465.87	4908.10
466.05	5004.07
466.23	4828.53
466.41	4938.53
466.60	5153.86
466.78	5081.30
466.96	4873.00
467.14	4987.68
467.32	4966.62
467.51	5004.07
467.69	4943.21
467.87	5085.98
468.05	4985.34
468.23	5001.72
468.41	5001.72
468.60	5224.08
468.78	5107.05
468.96	5004.07
469.14	5245.14
469.32	5249.82
469.50	5116.41
469.69	5287.27
469.87	5277.91
470.05	5437.06
470.23	5399.62
470.41	5247.48
470.59	5476.85
470.77	5359.83
470.95	5282.59
471.14	5638.35
471.32	5474.51
471.50	5556.43
471.68	5575.16
471.86	5734.31
472.04	5610.26
472.22	5741.33
472.40	5469.83
472.58	5680.48
472.77	5593.88
472.95	5598.56
473.13	5877.09
473.31	5771.76
473.49	5710.91
473.67	5570.48
473.85	5802.19
474.03	5982.41
474.21	5870.06
474.39	5991.77
474.57	5966.03
474.75	5926.24
474.93	6090.07
475.12	6015.18
475.30	6012.84
475.48	6033.90
475.66	6143.91
475.84	6115.82
476.02	6274.98
476.20	6359.24
476.38	6258.59
476.56	6387.32
476.74	6616.69
476.92	6347.53
477.10	6427.11
477.28	6534.78
477.46	6574.56
477.64	6604.99
477.82	6691.59
478.00	6754.79
478.18	6829.68
478.36	6839.05
478.54	6869.47
478.72	6848.41
478.90	7087.14
479.08	7148.00
479.26	7124.59
479.44	7157.36
479.62	7316.51
479.80	7316.51
479.98	7171.40
480.16	7426.52
480.34	7393.75
480.52	7452.27
480.70	7627.81
480.88	7461.63
481.06	7651.21
481.24	7616.10
481.41	7588.02
481.59	7695.68
481.77	7742.49
481.95	7939.10
482.13	7985.91
482.31	8035.06
482.49	8376.78
482.67	8128.68
482.85	8383.80
483.03	8187.19
483.21	8430.61
483.39	8454.02
483.57	8362.73
483.74	8545.30
483.92	8437.63
484.10	8606.15
484.28	8798.07
484.46	8830.84
484.64	9060.21
484.82	8631.90
485.00	8809.78
485.18	9186.60
485.35	9212.35
485.53	9188.94
485.71	9259.16
485.89	9605.56
486.07	9397.25
486.25	9432.36
486.43	9647.69
486.61	9542.36
486.78	9575.13
486.96	9633.64
487.14	9748.33
487.32	9795.14
487.50	9888.76
487.68	9902.81
487.85	10146.22
488.03	10148.56
488.21	10286.65
488.39	10399.00
488.57	10417.72
488.75	10576.88
488.92	10562.84
489.10	10651.78
489.28	10726.68
489.46	10932.64
489.64	10841.36
489.81	11293.08
489.99	10895.19
490.17	11145.63
490.35	11414.79
490.53	11316.49
490.70	11269.68
490.88	11417.13
491.06	11452.24
491.24	11520.12
491.41	11492.03
491.59	11616.08
491.77	11550.54
491.95	12091.21
492.13	11967.16
492.30	12116.95
492.48	12177.81
492.66	12035.03
492.84	12257.39
493.01	12187.17
493.19	12238.66
493.37	12423.56
493.54	12730.17
493.72	12720.81
493.90	12851.88
494.08	12877.63
494.25	12844.86
494.43	12910.40
494.61	13156.15
494.79	13055.51
494.96	13172.54
495.14	13319.99
495.32	13252.11
495.49	13378.50
495.67	13289.56
495.85	13420.63
496.02	13544.68
496.20	13638.30
496.38	13544.68
496.55	13914.48
496.73	14223.44
496.91	13923.85
497.09	14129.81
497.26	14075.98
497.44	14071.30
497.62	14232.80
497.79	14459.83
497.97	14539.41
498.14	14462.17
498.32	14665.80
498.50	14523.02
498.67	14581.54
498.85	14609.62
499.03	14911.55
499.20	14689.20
499.38	14794.53
499.56	14810.91
499.73	14799.21
499.91	15082.41
500.08	15133.90
500.26	15040.28
500.44	15360.94
500.61	14927.94
500.79	15232.21
500.97	15503.71
501.14	15653.50
501.32	15587.97
501.49	15489.67
501.67	15634.78
501.84	15662.86
502.02	15822.02
502.20	16023.31
502.37	15878.19
502.55	15957.77
502.72	16105.23
502.90	15983.52
503.07	15824.36
503.25	15892.24
503.43	16091.18
503.60	16070.12
503.78	16035.01
503.95	16336.94
504.13	16276.09
504.30	16580.36
504.48	16561.63
504.65	16360.34
504.83	16582.70
505.01	16702.06
505.18	16816.75
505.36	16575.67
505.53	16671.64
505.71	16992.29
505.88	16847.18
506.06	16695.04
506.23	16849.52
506.41	16978.25
506.58	17008.67
506.76	17331.67
506.93	17139.74
507.11	17048.46
507.28	17245.07
507.46	17022.72
507.63	17268.47
507.81	17448.69
507.98	17277.83
508.16	17446.35
508.33	17334.01
508.50	17584.44
508.68	17525.93
508.85	17781.05
509.03	17619.55
509.20	17877.01
509.38	18099.36
509.55	17940.21
509.73	18272.56
509.90	17912.12
510.08	17937.87
510.25	18256.18
510.42	18326.39
510.60	18302.99
510.77	18333.42
510.95	18693.86
511.12	18471.51
511.30	18281.92
511.47	18501.93
511.64	18735.99
511.82	18604.92
511.99	18567.47
512.17	18970.04
512.34	18759.39
512.51	18850.67
512.69	18930.25
512.86	18878.76
513.04	19176.01
513.21	18913.87
513.38	18855.36
513.56	19164.31
513.73	19075.37
513.90	19028.56
514.08	19047.28
514.25	19412.40
514.43	19405.38
514.60	19438.15
514.77	19510.71
514.95	19396.02
515.12	19316.44
515.29	19550.49
515.47	19370.27
515.64	19789.23
515.81	19985.83
515.99	19903.92
516.16	19896.89
516.33	19957.75
516.51	19985.83
516.68	19751.78
516.85	20006.90
517.03	20182.44
517.20	20032.65
517.37	20154.35
517.54	20114.56
517.72	20343.94
517.89	20065.41
518.06	19971.79
518.24	20428.20
518.41	20304.15
518.58	20498.41
518.75	20662.25
518.93	20596.71
519.10	20718.42
519.27	20769.91
519.45	20720.76
519.62	20669.27
519.79	20575.65
519.96	20741.83
520.14	21053.12
520.31	21062.48
520.48	20905.66
520.65	20802.68
520.83	21371.43
521.00	20589.69
521.17	21081.21
521.34	20961.84
521.52	21228.66
521.69	21170.15
521.86	21493.14
522.03	21163.12
522.20	21458.03
522.38	21612.51
522.55	21474.42
522.72	21558.67
522.89	21488.46
523.07	21792.73
523.24	21757.62
523.41	21947.20
523.58	21682.72
523.75	22057.21
523.92	21774.00
524.10	21867.63
524.27	21961.25
524.44	22211.68
524.61	22167.21
524.78	21881.67
524.96	22111.04
525.13	22436.38
525.30	22015.08
525.47	21902.73
525.64	22146.15
525.81	22492.55
525.98	22256.15
526.16	22356.80
526.33	22338.07
526.50	22609.58
526.67	22260.84
526.84	22565.10
527.01	22436.38
527.18	22752.35
527.36	23019.17
527.53	22338.07
527.70	23000.44
527.87	22785.12
528.04	22700.86
528.21	23019.17
528.38	22733.62
528.55	23164.28
528.72	22817.88
528.89	22993.42
529.07	23323.44
529.24	22703.20
529.41	22869.37
529.58	22916.19
529.75	22920.87
529.92	22944.27
530.09	23133.86
530.26	23112.79
530.43	23400.68
530.60	23257.90
530.77	23449.83
530.94	23445.15
531.11	23218.11
531.28	23285.99
531.46	23337.48
531.63	23606.64
531.80	23777.50
531.97	23735.37
532.14	23681.54
532.31	23630.05
532.48	23534.09
532.65	23583.24
532.82	23833.68
532.99	23360.89
533.16	23707.29
533.33	23690.90
533.50	24065.39
533.67	23838.36
533.84	23866.44
534.01	23943.68
534.18	23789.20
534.35	24208.16
534.52	23992.83
534.69	23864.10
534.86	24592.01
535.03	23922.62
535.20	24290.08
535.37	24350.93
535.54	24142.63
535.71	23941.34
535.88	24163.69
536.05	24240.93
536.22	24615.41
536.38	24589.67
536.55	24451.58
536.72	24549.88
536.89	24828.40
537.06	24416.47
537.23	24704.35
537.40	24535.84
537.57	24540.52
537.74	24430.51
537.91	24945.43
538.08	24924.36
538.25	24776.91
538.42	24596.69
538.59	24805.00
538.75	24875.21
538.92	24912.66
539.09	25006.28
539.26	25235.66
539.43	24964.15
539.60	25247.36
539.77	25043.73
539.94	25193.53
540.11	25156.08
540.28	25067.14
540.44	25064.80
540.61	24877.55
540.78	25125.65
540.95	25289.49
541.12	25181.82
541.29	25144.38
541.46	25116.29
541.62	25235.66
541.79	24900.96
541.96	25191.19
542.13	25383.11
542.30	25633.55
542.47	25656.95
542.63	25338.64
542.80	25666.31
542.97	25766.96
543.14	25834.83
543.31	25589.08
543.48	25813.77
543.64	26061.87
543.81	25965.90
543.98	25970.58
544.15	25865.26
544.32	26005.69
544.48	26445.71
544.65	26078.25
544.82	25902.71
544.99	25933.14
545.16	25806.75
545.32	25837.17
545.49	26522.95
545.66	26113.36
545.83	26635.30
546.00	26867.01
546.16	25949.52
546.33	26185.91
546.50	25993.99
546.67	26588.49
546.83	26134.42
547.00	26565.08
547.17	26593.17
547.34	26565.08
547.50	26700.83
547.67	26661.04
547.84	26686.79
548.00	26719.56
548.17	26649.34
548.34	26155.49
548.51	26703.17
548.67	26958.29
548.84	26745.30
549.01	26639.98
549.18	26483.16
549.34	26621.25
549.51	26548.70
549.68	26712.53
549.84	26831.90
550.01	26340.39
550.18	26672.74
550.34	26953.61
550.51	27077.66
550.68	27161.92
550.84	27182.98
551.01	26911.48
551.18	27363.20
551.34	27211.07
551.51	26693.81
551.68	27234.47
551.84	27164.26
552.01	27426.40
552.18	27386.61
552.34	27000.42
552.51	26981.70
552.68	27035.53
552.84	27510.66
553.01	27608.96
553.18	27199.37
553.34	27405.33
553.51	27388.95
553.67	27452.14
553.84	27388.95
554.01	27484.91
554.17	27676.83
554.34	27318.73
554.51	27393.63
554.67	27524.70
554.84	27412.35
555.00	27637.05
555.17	27672.15
555.33	27075.32
555.50	27604.28
555.67	27435.76
555.83	27763.43
556.00	27452.14
556.16	27878.12
556.33	27693.22
556.50	27587.89
556.66	27901.53
556.83	27819.61
556.99	27838.33
557.16	28137.92
557.32	28140.26
557.49	27737.69
557.65	27711.94
557.82	28184.73
557.98	27615.98
558.15	27782.16
558.32	27716.62
558.48	28173.03
558.65	28247.93
558.81	28491.34
558.98	28027.92
559.14	27751.73
559.31	27814.93
559.47	27878.12
559.64	28177.71
559.80	27831.31
559.97	28294.74
560.13	28268.99
560.30	28121.54
560.46	28400.06
560.63	28402.40
560.79	27969.40
560.96	28203.46
561.12	28304.10
561.29	28095.79
561.45	28149.62
561.61	28170.69
561.78	28116.86
561.94	28376.66
562.11	28701.99
562.27	28210.48
562.44	28540.49
562.60	28390.70
562.77	28144.94
562.93	28428.15
563.10	28308.78
563.26	28474.96
563.42	28575.60
563.59	28479.64
563.75	28158.99
563.92	28599.01
564.08	28491.34
564.24	28381.34
564.41	28147.28
564.57	28849.44
564.74	28446.87
564.90	28699.65
565.07	28685.61
565.23	28484.32
565.39	28879.87
565.56	28680.92
565.72	28451.55
565.88	28540.49
566.05	28538.15
566.21	28128.56
566.38	28943.06
566.54	28528.79
566.70	28917.32
566.87	28926.68
567.03	29027.32
567.19	28992.22
567.36	28893.91
567.52	28730.08
567.68	28769.86
567.85	28898.59
568.01	28657.52
568.17	29137.33
568.34	29020.30
568.50	28847.10
568.66	28833.06
568.83	28783.91
568.99	28863.49
569.15	29041.37
569.32	28833.06
569.48	28891.57
569.64	29024.98
569.81	29027.32
569.97	28479.64
570.13	28645.82
570.30	28716.03
570.46	28755.82
570.62	28975.83
570.78	28783.91
570.95	28657.52
571.11	28446.87
571.27	28638.80
571.43	28666.88
571.60	28781.57
571.76	28868.17
571.92	29020.30
572.09	29034.35
572.25	29116.26
572.41	29284.78
572.57	29069.45
572.74	29125.63
572.90	28896.25
573.06	28863.49
573.22	29125.63
573.38	28828.38
573.55	28865.83
573.71	28973.49
573.87	29352.66
574.03	28720.71
574.20	28933.70
574.36	28914.98
574.52	29340.96
574.68	28884.55
574.84	28842.42
575.01	28973.49
575.17	29535.22
575.33	29043.71
575.49	28774.55
575.65	28996.90
575.82	28938.38
575.98	29233.29
576.14	29092.86
576.30	29057.75
576.46	28877.53
576.62	29076.48
576.79	29125.63
576.95	28992.22
577.11	29186.48
577.27	29261.38
577.43	29186.48
577.59	29301.17
577.75	29003.92
577.92	28781.57
578.08	29277.76
578.24	29186.48
578.40	29102.22
578.56	29317.55
578.72	29039.03
578.88	29156.05
579.04	29523.52
579.21	29340.96
579.37	29137.33
579.53	29153.71
579.69	29209.89
579.85	28643.48
580.01	28924.34
580.17	28580.28
580.33	28999.24
580.49	29649.91
580.65	29254.36
580.82	29357.34
580.98	29280.10
581.14	29064.77
581.30	29163.08
581.46	29090.52
581.62	29106.90
581.78	28807.31
581.94	29263.72
582.10	29493.09
582.26	29165.42
582.42	29067.11
582.58	29486.07
582.74	29502.45
582.90	29558.63
583.06	28954.77
583.22	29060.09
583.38	29200.52
583.54	29275.42
583.70	29294.14
583.86	29069.45
584.02	29198.18
584.18	29472.03
584.34	29230.95
584.50	29457.98
584.66	29277.76
584.82	29130.31
584.98	29366.70
585.14	29359.68
585.30	29507.13
585.46	29404.15
585.62	29212.23
585.78	29696.72
585.94	29067.11
586.10	29090.52
586.26	29261.38
586.42	29919.07
586.58	29455.64
586.74	29567.99
586.90	29003.92
587.06	29233.29
587.22	29209.89
587.38	29329.25
587.54	29661.61
587.70	29483.73
587.86	29956.52
588.02	29731.83
588.18	29495.43
588.34	29603.10
588.49	29516.50
588.65	29345.64
588.81	29376.06
588.97	29333.93
589.13	29261.38
589.29	29242.65
589.45	29326.91
589.61	30043.12
589.77	29792.68
589.93	29603.10
590.08	29888.64
590.24	29481.39
590.40	29898.00
590.56	29879.28
590.72	29694.38
590.88	29111.58
591.04	29275.42
591.20	30085.25
591.35	29710.76
591.51	30085.25
591.67	29488.41
591.83	29706.08
591.99	29539.90
