SpectraSuite Data File
++++++++++++++++++++++++++++++++++++
Date: Fri Oct 18 13:57:58 GMT-05:00 2013
User: bianchi
Dark Spectrum Present: No
Reference Spectrum Present: No
Number of Sampled Component Spectra: 1
Spectrometers: USB2+H05261
Integration Time (usec): 50000 (USB2+H05261)
Spectra Averaged: 1 (USB2+H05261)
Boxcar Smoothing: 0 (USB2+H05261)
Correct for Electrical Dark: No (USB2+H05261)
Strobe/Lamp Enabled: No (USB2+H05261)
Correct for Detector Non-linearity: No (USB2+H05261)
Correct for Stray Light: No (USB2+H05261)
Number of Pixels in Processed Spectrum: 2048
>>>>>Begin Processed Spectral Data<<<<<
365.73	0.00
365.92	0.00
366.12	0.00
366.32	0.00
366.52	0.00
366.72	0.00
366.91	0.00
367.11	0.00
367.31	0.00
367.51	0.00
367.70	0.00
367.90	0.00
368.10	0.00
368.30	0.00
368.49	0.00
368.69	0.00
368.89	0.00
369.09	0.00
369.28	0.00
369.48	0.00
369.68	0.00
369.87	0.00
370.07	0.00
370.27	0.00
370.47	0.00
370.66	35.11
370.86	95.96
371.06	133.41
371.25	175.54
371.45	110.01
371.65	259.80
371.84	203.63
372.04	203.63
372.24	168.52
372.44	182.56
372.63	205.97
372.83	182.56
373.03	187.24
373.22	187.24
373.42	133.41
373.62	220.01
373.81	173.20
374.01	259.80
374.21	266.82
374.40	220.01
374.60	250.44
374.79	264.48
374.99	255.12
375.19	250.44
375.38	205.97
375.58	285.55
375.78	297.25
375.97	243.42
376.17	318.31
376.37	250.44
376.56	351.08
376.76	236.39
376.95	294.91
377.15	278.52
377.35	227.03
377.54	320.65
377.74	285.55
377.93	224.69
378.13	294.91
378.33	250.44
378.52	276.18
378.72	285.55
378.91	273.84
379.11	283.20
379.31	222.35
379.50	220.01
379.70	287.89
379.89	299.59
380.09	320.65
380.28	229.37
380.48	372.15
380.68	304.27
380.87	348.74
381.07	332.36
381.26	311.29
381.46	255.12
381.65	369.80
381.85	311.29
382.04	315.97
382.24	306.61
382.43	339.38
382.63	400.23
382.83	330.02
383.02	414.27
383.22	390.87
383.41	348.74
383.61	311.29
383.80	374.49
384.00	402.57
384.19	334.70
384.39	379.17
384.58	393.21
384.78	407.25
384.97	425.98
385.17	301.93
385.36	273.84
385.56	416.62
385.75	388.53
385.95	400.23
386.14	421.30
386.34	404.91
386.53	397.89
386.72	407.25
386.92	479.81
387.11	472.79
387.31	465.77
387.50	365.12
387.70	489.17
387.89	468.11
388.09	456.40
388.28	526.62
388.48	507.90
388.67	449.38
388.86	442.36
389.06	479.81
389.25	503.22
389.45	503.22
389.64	486.83
389.84	470.45
390.03	447.04
390.22	465.77
390.42	552.37
390.61	486.83
390.81	468.11
391.00	500.87
391.19	575.77
391.39	543.00
391.58	521.94
391.78	550.03
391.97	587.47
392.16	475.13
392.36	557.05
392.55	484.49
392.75	566.41
392.94	568.75
393.13	571.09
393.33	547.69
393.52	557.05
393.71	528.96
393.91	561.73
394.10	587.47
394.29	557.05
394.49	676.41
394.68	631.94
394.88	631.94
395.07	641.31
395.26	685.78
395.46	615.56
395.65	732.59
395.84	643.65
396.04	716.20
396.23	650.67
396.42	627.26
396.62	681.10
396.81	671.73
397.00	683.44
397.19	725.57
397.39	629.60
397.58	674.07
397.77	685.78
397.97	702.16
398.16	711.52
398.35	638.97
398.55	655.35
398.74	655.35
398.93	828.55
399.12	777.06
399.32	671.73
399.51	709.18
399.70	704.50
399.90	744.29
400.09	685.78
400.28	842.59
400.47	788.76
400.67	758.33
400.86	793.44
401.05	744.29
401.24	816.85
401.44	690.46
401.63	770.04
401.82	821.53
402.01	746.63
402.21	814.51
402.40	772.38
402.59	718.54
402.78	887.06
402.97	795.78
403.17	922.17
403.36	936.21
403.55	919.83
403.74	894.08
403.93	917.49
404.13	910.47
404.32	943.24
404.51	847.27
404.70	877.70
404.89	898.77
405.09	971.32
405.28	959.62
405.47	983.02
405.66	929.19
405.85	1060.26
406.05	999.41
406.24	978.34
406.43	1013.45
406.62	1004.09
406.81	1062.60
407.00	1093.03
407.20	1039.20
407.39	1041.54
407.58	1107.07
407.77	1212.40
407.96	1032.18
408.15	1064.94
408.34	1083.67
408.54	1100.05
408.73	1107.07
408.92	1125.80
409.11	1242.82
409.30	1097.71
409.49	1207.72
409.68	1203.04
409.87	1198.35
410.07	1149.20
410.26	1188.99
410.45	1231.12
410.64	1191.33
410.83	1214.74
411.02	1167.93
411.21	1296.66
411.40	1287.29
411.59	1270.91
411.78	1338.79
411.98	1324.74
412.17	1371.55
412.36	1366.87
412.55	1366.87
412.74	1406.66
412.93	1364.53
413.12	1334.11
413.31	1441.77
413.50	1441.77
413.69	1334.11
413.88	1413.68
414.07	1411.34
414.26	1432.41
414.45	1472.20
414.64	1413.68
414.83	1554.12
415.02	1617.31
415.22	1535.39
415.41	1467.52
415.60	1652.42
415.79	1647.74
415.98	1643.06
416.17	1680.50
416.36	1668.80
416.55	1603.27
416.74	1720.29
416.93	1708.59
417.12	1696.89
417.31	1767.10
417.50	1764.76
417.69	1710.93
417.88	1851.36
418.07	1879.45
418.26	1727.32
418.45	1762.42
418.64	1942.64
418.83	1844.34
419.02	1937.96
419.21	1806.89
419.39	1905.20
419.58	1867.75
419.77	1863.07
419.96	1795.19
420.15	1785.83
420.34	1881.79
420.53	1947.33
420.72	2029.24
420.91	2036.27
421.10	2071.37
421.29	2008.18
421.48	1930.94
421.67	2001.16
421.86	1933.28
422.05	2045.63
422.24	1940.30
422.43	2115.84
422.61	2104.14
422.80	2162.66
422.99	2122.87
423.18	1975.41
423.37	2118.18
423.56	1998.82
423.75	2036.27
423.94	2003.50
424.13	1987.11
424.32	1952.01
424.50	2165.00
424.69	2200.10
424.88	2125.21
425.07	2024.56
425.26	2047.97
425.45	2064.35
425.64	2108.82
425.83	2033.93
426.01	2239.89
426.20	2043.29
426.39	2017.54
426.58	2038.61
426.77	2010.52
426.96	2157.97
427.15	2200.10
427.33	2087.76
427.52	2085.42
427.71	2141.59
427.90	2181.38
428.09	2249.25
428.28	2188.40
428.46	2373.30
428.65	2279.68
428.84	2377.98
429.03	2370.96
429.22	2265.64
429.40	2232.87
429.59	2443.52
429.78	2209.47
429.97	2165.00
430.16	2296.07
430.34	2265.64
430.53	2275.00
430.72	2338.20
430.91	2396.71
431.10	2235.21
431.28	2359.26
431.47	2403.73
431.66	2473.95
431.85	2340.54
432.03	2558.21
432.22	2530.12
432.41	2518.42
432.60	2413.09
432.79	2576.93
432.97	2555.86
433.16	2511.39
433.35	2476.29
433.54	2513.74
433.72	2537.14
433.91	2452.88
434.10	2469.27
434.28	2525.44
434.47	2630.76
434.66	2754.81
434.85	2654.17
435.03	2581.61
435.22	2558.21
435.41	2799.28
435.59	2607.36
435.78	2670.55
435.97	2637.78
436.16	2766.51
436.34	2782.90
436.53	2719.70
436.72	2871.84
436.90	2743.11
437.09	2839.07
437.28	2761.83
437.46	2729.06
437.65	2736.09
437.84	2825.03
438.02	2789.92
438.21	2860.13
438.40	2815.66
438.58	2944.39
438.77	2885.88
438.96	2946.73
439.14	2920.99
439.33	3021.63
439.52	2874.18
439.70	2981.84
439.89	3045.04
440.08	3136.32
440.26	3150.36
440.45	3070.78
440.63	3129.30
440.82	3145.68
441.01	3159.72
441.19	3321.22
441.38	3293.13
441.57	3162.06
441.75	3316.54
441.94	3391.44
442.12	3375.05
442.31	3375.05
442.50	3262.71
442.68	3375.05
442.87	3391.44
443.05	3358.67
443.24	3424.20
443.43	3290.79
443.61	3627.83
443.80	3463.99
443.98	3377.39
444.17	3274.41
444.35	3431.23
444.54	3555.27
444.73	3501.44
444.91	3478.04
445.10	3538.89
445.28	3576.34
445.47	3368.03
445.65	3475.70
445.84	3508.46
446.02	3655.92
446.21	3478.04
446.39	3527.19
446.58	3637.19
446.77	3583.36
446.95	3595.06
447.14	3667.62
447.32	3707.41
447.51	3506.12
447.69	3543.57
447.88	3702.73
448.06	3566.98
448.25	3480.38
448.43	3644.21
448.62	3527.19
448.80	3651.24
448.99	3632.51
449.17	3691.02
449.36	3618.47
449.54	3735.50
449.73	3730.81
449.91	3866.56
450.10	3726.13
450.28	3728.47
450.46	3742.52
450.65	3768.26
450.83	3843.16
451.02	3775.28
451.20	3925.08
451.39	3911.04
451.57	3985.93
451.76	3798.69
451.94	3899.33
452.13	3913.38
452.31	3833.80
452.49	3953.16
452.68	3875.93
452.86	4002.32
453.05	4035.08
453.23	3957.85
453.42	3962.53
453.60	3915.72
453.78	3936.78
453.97	3964.87
454.15	3997.64
454.34	3997.64
454.52	4079.55
454.70	4046.79
454.89	4142.75
455.07	4046.79
455.26	4170.83
455.44	4269.14
455.62	4205.94
455.81	4105.30
455.99	4112.32
456.17	4163.81
456.36	4299.56
456.54	4149.77
456.73	4313.61
456.91	4400.21
457.09	4435.32
457.28	4320.63
457.46	4280.84
457.64	4454.04
457.83	4500.85
458.01	4374.46
458.19	4451.70
458.38	4404.89
458.56	4554.68
458.74	4477.44
458.93	4636.60
459.11	4648.30
459.29	4585.11
459.48	4692.77
459.66	4610.86
459.84	4683.41
460.03	4634.26
460.21	4652.98
460.39	4748.95
460.57	4596.81
460.76	4627.24
460.94	4685.75
461.12	4634.26
461.31	4587.45
461.49	4667.03
461.67	4657.67
461.85	4889.38
462.04	4784.06
462.22	5071.94
462.40	4849.59
462.59	4723.20
462.77	4746.61
462.95	4950.23
463.13	4837.89
463.32	4821.50
463.50	4868.31
463.68	4903.42
463.86	4894.06
464.05	4877.68
464.23	4961.94
464.41	4990.02
464.59	4915.12
464.78	5118.75
464.96	4964.28
465.14	4957.25
465.32	5130.45
465.50	5107.05
465.69	5247.48
465.87	4947.89
466.05	4985.34
466.23	5076.62
466.41	5219.39
466.60	5317.70
466.78	5149.18
466.96	5163.22
467.14	5135.14
467.32	5259.18
467.51	5284.93
467.69	5219.39
467.87	5310.68
468.05	5207.69
468.23	5226.42
468.41	5135.14
468.60	5329.40
468.78	5249.82
468.96	5137.48
469.14	5357.49
469.32	5352.81
469.50	5167.90
469.69	5486.22
469.87	5579.84
470.05	5708.57
470.23	5544.73
470.41	5509.62
470.59	5577.50
470.77	5614.95
470.95	5483.88
471.14	5769.42
471.32	5636.01
471.50	5643.03
471.68	5643.03
471.86	5806.87
472.04	5844.32
472.22	5991.77
472.40	5624.31
472.58	5942.62
472.77	5834.96
472.95	5937.94
473.13	6120.50
473.31	5905.17
473.49	5806.87
473.67	5867.72
473.85	6118.16
474.03	6167.31
474.21	6183.70
474.39	6317.11
474.57	6235.19
474.75	6314.77
474.93	6239.87
475.12	6253.91
475.30	6303.06
475.48	6356.90
475.66	6429.45
475.84	6289.02
476.02	6457.54
476.20	6387.32
476.38	6726.70
476.56	6705.63
476.74	6806.28
476.92	6766.49
477.10	6689.25
477.28	6911.60
477.46	6661.16
477.64	6829.68
477.82	7016.93
478.00	7098.84
478.18	7089.48
478.36	7016.93
478.54	7169.06
478.72	7105.87
478.90	7262.68
479.08	7197.15
479.26	7494.40
479.44	7370.35
479.62	7480.35
479.80	7424.18
479.98	7281.41
480.16	7550.57
480.34	7674.62
480.52	7854.84
480.70	7779.94
480.88	7833.77
481.06	7896.97
481.24	7873.56
481.41	7831.43
481.59	8011.65
481.77	8416.57
481.95	8313.58
482.13	8425.93
482.31	8432.95
482.49	8388.48
482.67	8592.11
482.85	8739.56
483.03	8542.96
483.21	8601.47
483.39	8659.98
483.57	8730.20
483.74	8924.46
483.92	8805.10
484.10	8807.44
484.28	9238.09
484.46	9249.80
484.64	9364.48
484.82	9315.33
485.00	9359.80
485.18	9640.67
485.35	9762.37
485.53	9369.16
485.71	9720.24
485.89	9624.28
486.07	9785.78
486.25	9811.53
486.43	9914.51
486.61	9937.91
486.78	10087.71
486.96	10169.63
487.14	10335.81
487.32	10391.98
487.50	10347.51
487.68	10525.39
487.85	10778.17
488.03	10817.96
488.21	10909.24
488.39	10796.89
488.57	10771.15
488.75	10871.79
488.92	11215.85
489.10	11239.25
489.28	11267.34
489.46	11452.24
489.64	11253.30
489.81	11571.61
489.99	11459.26
490.17	11679.27
490.35	11726.08
490.53	11817.36
490.70	11967.16
490.88	11735.45
491.06	11875.88
491.24	12072.48
491.41	12023.33
491.59	12149.72
491.77	12449.31
491.95	12486.76
492.13	12477.40
492.30	12697.41
492.48	12549.95
492.66	12643.57
492.84	12723.15
493.01	12774.64
493.19	12989.97
493.37	13013.38
493.54	13125.72
493.72	13254.45
493.90	13055.51
494.08	13336.37
494.25	13493.19
494.43	13434.68
494.61	13654.69
494.79	13682.77
494.96	13687.45
495.14	13631.28
495.32	13837.25
495.49	13954.27
495.67	14099.39
495.85	13914.48
496.02	14326.42
496.20	14239.82
496.38	14548.77
496.55	14415.36
496.73	14707.93
496.91	14525.36
497.09	14562.81
497.26	14771.12
497.44	14558.13
497.62	14785.16
497.79	14937.30
497.97	14820.27
498.14	15037.94
498.32	15023.90
498.50	15232.21
498.67	15136.24
498.85	15279.02
499.03	15276.68
499.20	15349.23
499.38	15391.36
499.56	15674.57
499.73	15557.54
499.91	15492.01
500.08	15587.97
500.26	15630.10
500.44	15777.55
500.61	15580.95
500.79	15941.39
500.97	16002.24
501.14	16243.32
501.32	16205.87
501.49	16182.46
501.67	16020.97
501.84	16259.70
502.02	16343.96
502.20	16704.40
502.37	16641.21
502.55	16751.21
502.72	16428.22
502.90	16421.20
503.07	16903.35
503.25	16655.25
503.43	16875.26
503.60	16821.43
503.78	16835.47
503.95	17050.80
504.13	17001.65
504.30	16872.92
504.48	16987.61
504.65	17083.57
504.83	17500.19
505.01	17352.73
505.18	17341.03
505.36	17530.61
505.53	17511.89
505.71	17516.57
505.88	17558.70
506.06	17322.30
506.23	17834.88
506.41	17685.09
506.58	17528.27
506.76	17692.11
506.93	17738.92
507.11	17928.50
507.28	17928.50
507.46	18171.92
507.63	18373.21
507.81	18420.02
507.98	18141.49
508.16	18204.69
508.33	18288.95
508.50	18380.23
508.68	18141.49
508.85	18740.67
509.03	18410.65
509.20	18452.78
509.38	18618.96
509.55	18974.72
509.73	19140.90
509.90	18824.93
510.08	18885.78
510.25	18869.40
510.42	19183.03
510.60	19288.35
510.77	19201.76
510.95	19372.61
511.12	18754.71
511.30	18937.27
511.47	19580.92
511.64	19510.71
511.82	19365.59
511.99	19747.10
512.17	19562.20
512.34	19573.90
512.51	19360.91
512.69	19552.84
512.86	19742.42
513.04	19955.41
513.21	19871.15
513.38	20027.96
513.56	20046.69
513.73	19873.49
513.90	19903.92
514.08	19983.49
514.25	20163.72
514.43	20049.03
514.60	20130.95
514.77	20161.37
514.95	20304.15
515.12	20428.20
515.29	20095.84
515.47	20414.15
515.64	20767.57
515.81	20343.94
515.99	20641.18
516.16	21041.42
516.33	20772.25
516.51	20573.31
516.68	20727.78
516.85	20414.15
517.03	20950.14
517.20	21003.97
517.37	21036.74
517.54	21132.70
517.72	21125.68
517.89	20872.90
518.06	20996.95
518.24	21081.21
518.41	21090.57
518.58	21088.23
518.75	21736.56
518.93	21511.86
519.10	21591.44
519.27	21312.92
519.45	21238.02
519.62	21415.90
519.79	21736.56
519.96	21591.44
520.14	21603.14
520.31	21902.73
520.48	21888.69
520.65	21575.06
520.83	22040.82
521.00	21986.99
521.17	22064.23
521.34	22260.84
521.52	22204.66
521.69	21954.22
521.86	22293.60
522.03	22300.62
522.20	22419.99
522.38	22424.67
522.55	22501.91
522.72	22368.50
522.89	22574.47
523.07	22930.23
523.24	22934.91
523.41	22600.21
523.58	22445.74
523.75	22684.47
523.92	22466.80
524.10	22827.24
524.27	22710.22
524.44	23262.58
524.61	23073.00
524.78	22925.55
524.96	23033.21
525.13	23012.15
525.30	23122.15
525.47	23264.92
525.64	23058.96
525.81	23201.73
525.98	23718.99
526.16	23407.70
526.33	23459.19
526.50	23508.34
526.67	23227.48
526.84	23491.96
527.01	23295.35
527.18	23349.18
527.36	23854.74
527.53	24109.86
527.70	23941.34
527.87	24016.24
528.04	23714.31
528.21	23690.90
528.38	23814.95
528.55	23812.61
528.72	23686.22
528.89	23885.17
529.07	24252.63
529.24	24070.07
529.41	24463.28
529.58	24088.79
529.75	23831.33
529.92	24067.73
530.09	24510.09
530.26	24418.81
530.43	24039.64
530.60	24428.17
530.77	24238.59
530.94	24559.24
531.11	24301.78
531.28	24369.66
531.46	24643.50
531.63	24343.91
531.80	24439.87
531.97	24648.18
532.14	24505.41
532.31	24760.53
532.48	24821.38
532.65	24741.80
532.82	24388.38
532.99	24680.95
533.16	24570.94
533.33	25146.72
533.50	24868.19
533.67	25078.84
533.84	24669.25
534.01	24882.24
534.18	25163.10
534.35	25362.04
534.52	25048.41
534.69	25109.27
534.86	25598.44
535.03	25263.74
535.20	25270.76
535.37	25060.12
535.54	25474.39
535.71	25366.73
535.88	25312.89
536.05	25261.40
536.22	25465.03
536.38	25872.28
536.55	25986.97
536.72	25537.59
536.89	25640.57
537.06	25785.68
537.23	25781.00
537.40	25591.42
537.57	25542.27
537.74	25504.82
537.91	26122.72
538.08	26047.82
538.25	25699.08
538.42	25940.16
538.59	26218.68
538.75	25832.49
538.92	26134.42
539.09	26068.89
539.26	25891.01
539.43	26176.55
539.60	26342.73
539.77	26162.51
539.94	26155.49
540.11	25914.41
540.28	26167.19
540.44	26235.06
540.61	26040.80
540.78	26139.10
540.95	26263.15
541.12	26445.71
541.29	26274.85
541.46	26625.93
541.62	26281.88
541.79	26656.36
541.96	26092.29
542.13	26305.28
542.30	26497.20
542.47	26228.04
542.63	27084.68
542.80	26876.37
542.97	27140.85
543.14	26993.40
543.31	26689.13
543.48	27096.38
543.64	27058.93
543.81	27021.48
543.98	27578.53
544.15	27351.50
544.32	27164.26
544.48	27604.28
544.65	26792.11
544.82	27084.68
544.99	27133.83
545.16	27351.50
545.32	27262.56
545.49	27431.08
545.66	27491.93
545.83	27674.49
546.00	27798.54
546.16	27634.71
546.33	27119.79
546.50	27243.84
546.67	27199.37
546.83	27377.25
547.00	27576.19
547.17	27356.18
547.34	27831.31
547.50	27786.84
547.67	27580.87
547.84	28023.23
548.00	27627.68
548.17	27990.47
548.34	28144.94
548.51	27868.76
548.67	28060.68
548.84	28149.62
549.01	28383.68
549.18	27740.03
549.34	28102.81
549.51	27828.97
549.68	27992.81
549.84	27995.15
550.01	27992.81
550.18	27843.01
550.34	28390.70
550.51	28243.24
550.68	28552.20
550.84	28037.28
551.01	28257.29
551.18	28187.07
551.34	27845.35
551.51	28371.97
551.68	28283.03
551.84	28149.62
552.01	28491.34
552.18	28526.45
552.34	28648.16
552.51	28526.45
552.68	28257.29
552.84	28615.39
553.01	28460.91
553.18	28505.38
553.34	28666.88
553.51	28470.28
553.67	28840.08
553.84	29205.20
554.01	29139.67
554.17	28641.14
554.34	28889.23
554.51	28821.36
554.67	28694.97
554.84	28734.76
555.00	28891.57
555.17	28599.01
555.33	29085.84
555.50	28910.30
555.67	29165.42
555.83	28725.39
556.00	29200.52
556.16	29048.39
556.33	28776.89
556.50	28545.17
556.66	29200.52
556.83	28961.79
556.99	29097.54
557.16	29481.39
557.32	29378.40
557.49	29050.73
557.65	29060.09
557.82	29226.27
557.98	29207.55
558.15	29465.00
558.32	29617.14
558.48	29577.35
558.65	29832.47
558.81	29317.55
558.98	29376.06
559.14	29326.91
559.31	29195.84
559.47	29282.44
559.64	29532.88
559.80	29193.50
559.97	29479.05
560.13	29378.40
560.30	29383.09
560.46	29670.97
560.63	29317.55
560.79	29486.07
560.96	29776.30
561.12	29273.08
561.29	29706.08
561.45	29476.71
561.61	29764.59
561.78	29631.18
561.94	29820.77
562.11	29797.36
562.27	29748.21
562.44	29783.32
562.60	29504.79
562.77	29551.60
562.93	29556.28
563.10	30010.35
563.26	29685.01
563.42	29979.92
563.59	29996.31
563.75	29696.72
563.92	29954.18
564.08	29874.60
564.24	29972.90
564.41	29472.03
564.57	29848.85
564.74	30115.67
564.90	29750.55
565.07	30045.46
565.23	30024.39
565.39	29818.42
565.56	29809.06
565.72	29933.11
565.88	30057.16
566.05	30040.78
566.21	29860.55
566.38	30096.95
566.54	30089.93
566.70	30265.47
566.87	30433.99
567.03	30511.22
567.19	30506.54
567.36	30178.87
567.52	30307.60
567.68	30342.70
567.85	29825.45
568.01	30485.48
568.17	30106.31
568.34	30015.03
568.50	30354.41
568.66	30302.92
568.83	30382.49
568.99	30436.33
569.15	30211.64
569.32	30206.95
569.48	30038.44
569.64	30450.37
569.81	30349.73
569.97	30017.37
570.13	30569.74
570.30	30178.87
570.46	30251.42
570.62	30410.58
570.78	30536.97
570.95	29776.30
571.11	30391.86
571.27	30000.99
571.43	30333.34
571.60	30457.39
571.76	30033.75
571.92	30616.55
572.09	30480.80
572.25	30272.49
572.41	30305.26
572.57	30366.11
572.74	30305.26
572.90	30354.41
573.06	29860.55
573.22	30260.79
573.38	30424.62
573.55	30352.07
573.71	30794.43
573.87	30412.92
574.03	30431.65
574.20	30352.07
574.36	30462.07
574.52	30389.52
574.68	30529.95
574.84	30373.13
575.01	30574.42
575.17	30527.61
575.33	30150.78
575.49	30373.13
575.65	30363.77
575.82	30740.60
575.98	30405.90
576.14	30953.58
576.30	30775.70
576.46	30286.53
576.62	30349.73
576.79	30768.68
576.95	30497.18
577.11	30679.74
577.27	30778.04
577.43	30960.61
577.59	30363.77
577.75	30991.03
577.92	30551.01
578.08	30422.28
578.24	30405.90
578.40	30859.96
578.56	30693.79
578.72	30623.57
578.88	30888.05
579.04	30565.06
579.21	30710.17
579.37	30871.67
579.53	30979.33
579.69	30438.67
579.85	30766.34
580.01	30525.27
580.17	30670.38
580.33	30796.77
580.49	30953.58
580.65	30616.55
580.82	31159.55
580.98	30511.22
581.14	30462.07
581.30	30623.57
581.46	30295.89
581.62	30696.13
581.78	30623.57
581.94	30869.33
582.10	30665.70
582.26	30534.63
582.42	30630.59
582.58	30960.61
582.74	30845.92
582.90	30473.78
583.06	30991.03
583.22	30602.50
583.38	31028.48
583.54	30824.86
583.70	30565.06
583.86	30792.09
584.02	30644.63
584.18	30991.03
584.34	31192.32
584.50	30815.49
584.66	31077.63
584.82	30593.14
584.98	30927.84
585.14	30925.50
585.30	30338.02
585.46	30689.10
585.62	30759.32
585.78	30576.76
585.94	30808.47
586.10	31112.74
586.26	30925.50
586.42	31201.68
586.58	30558.03
586.74	30883.37
586.90	30518.25
587.06	30546.33
587.22	30904.43
587.38	30473.78
587.54	30967.63
587.70	31014.44
587.86	31229.77
588.02	31164.23
588.18	31414.67
588.34	31288.28
588.49	31374.88
588.65	30822.51
588.81	30298.23
588.97	30649.32
589.13	30974.65
589.29	31077.63
589.45	30988.69
589.61	31096.36
589.77	31194.66
589.93	31508.29
590.08	31501.27
590.24	31281.26
590.40	31084.65
590.56	31756.39
590.72	31082.31
590.88	31037.84
591.04	31138.49
591.20	31585.53
591.35	31882.78
591.51	31608.93
591.67	31438.08
591.83	31559.78
591.99	30988.69
