SpectraSuite Data File
++++++++++++++++++++++++++++++++++++
Date: Fri Oct 18 13:58:17 GMT-05:00 2013
User: bianchi
Dark Spectrum Present: No
Reference Spectrum Present: No
Number of Sampled Component Spectra: 1
Spectrometers: USB2+H05261
Integration Time (usec): 50000 (USB2+H05261)
Spectra Averaged: 1 (USB2+H05261)
Boxcar Smoothing: 0 (USB2+H05261)
Correct for Electrical Dark: No (USB2+H05261)
Strobe/Lamp Enabled: No (USB2+H05261)
Correct for Detector Non-linearity: No (USB2+H05261)
Correct for Stray Light: No (USB2+H05261)
Number of Pixels in Processed Spectrum: 2048
>>>>>Begin Processed Spectral Data<<<<<
365.73	0.00
365.92	0.00
366.12	0.00
366.32	0.00
366.52	0.00
366.72	0.00
366.91	0.00
367.11	0.00
367.31	0.00
367.51	0.00
367.70	0.00
367.90	0.00
368.10	0.00
368.30	0.00
368.49	0.00
368.69	0.00
368.89	0.00
369.09	0.00
369.28	0.00
369.48	0.00
369.68	0.00
369.87	0.00
370.07	0.00
370.27	0.00
370.47	46.81
370.66	98.30
370.86	166.18
371.06	194.26
371.25	124.05
371.45	107.66
371.65	152.13
371.84	170.86
372.04	117.03
372.24	154.48
372.44	191.92
372.63	180.22
372.83	252.78
373.03	273.84
373.22	191.92
373.42	133.41
373.62	234.05
373.81	283.20
374.01	229.37
374.21	355.76
374.40	229.37
374.60	149.79
374.79	159.16
374.99	250.44
375.19	278.52
375.38	175.54
375.58	229.37
375.78	257.46
375.97	208.31
376.17	243.42
376.37	299.59
376.56	212.99
376.76	304.27
376.95	245.76
377.15	241.08
377.35	308.95
377.54	224.69
377.74	299.59
377.93	344.06
378.13	315.97
378.33	262.14
378.52	201.29
378.72	360.44
378.91	276.18
379.11	231.71
379.31	332.36
379.50	273.84
379.70	266.82
379.89	292.57
380.09	283.20
380.28	276.18
380.48	318.31
380.68	299.59
380.87	299.59
381.07	276.18
381.26	393.21
381.46	362.78
381.65	325.33
381.85	339.38
382.04	269.16
382.24	299.59
382.43	290.23
382.63	313.63
382.83	231.71
383.02	407.25
383.22	418.96
383.41	285.55
383.61	374.49
383.80	379.17
384.00	332.36
384.19	369.80
384.39	388.53
384.58	301.93
384.78	379.17
384.97	351.08
385.17	337.04
385.36	458.74
385.56	330.02
385.75	421.30
385.95	358.10
386.14	468.11
386.34	348.74
386.53	367.46
386.72	344.06
386.92	435.34
387.11	430.66
387.31	442.36
387.50	383.85
387.70	383.85
387.89	444.70
388.09	484.49
388.28	418.96
388.48	442.36
388.67	395.55
388.86	402.57
389.06	437.68
389.25	512.58
389.45	505.56
389.64	440.02
389.84	484.49
390.03	547.69
390.22	521.94
390.42	477.47
390.61	418.96
390.81	451.72
391.00	510.24
391.19	482.15
391.39	503.22
391.58	484.49
391.78	533.64
391.97	596.84
392.16	571.09
392.36	545.34
392.55	550.03
392.75	557.05
392.94	566.41
393.13	571.09
393.33	533.64
393.52	578.11
393.71	613.22
393.91	610.88
394.10	575.77
394.29	545.34
394.49	587.47
394.68	596.84
394.88	547.69
395.07	528.96
395.26	526.62
395.46	653.01
395.65	683.44
395.84	631.94
396.04	744.29
396.23	624.92
396.42	622.58
396.62	727.91
396.81	709.18
397.00	638.97
397.19	606.20
397.39	685.78
397.58	648.33
397.77	645.99
397.97	641.31
398.16	667.05
398.35	720.88
398.55	655.35
398.74	723.23
398.93	718.54
399.12	660.03
399.32	727.91
399.51	758.33
399.70	713.86
399.90	683.44
400.09	791.10
400.28	681.10
400.47	774.72
400.67	873.02
400.86	720.88
401.05	851.96
401.24	833.23
401.44	826.21
401.63	777.06
401.82	812.17
402.01	753.65
402.21	861.32
402.40	826.21
402.59	805.14
402.78	751.31
402.97	830.89
403.17	793.44
403.36	788.76
403.55	933.87
403.74	889.40
403.93	877.70
404.13	833.23
404.32	887.06
404.51	940.90
404.70	936.21
404.89	997.07
405.09	903.45
405.28	973.66
405.47	877.70
405.66	1018.13
405.85	976.00
406.05	990.05
406.24	985.37
406.43	971.32
406.62	957.28
406.81	1069.62
407.00	1036.86
407.20	1022.81
407.39	1013.45
407.58	1050.90
407.77	1046.22
407.96	1093.03
408.15	1118.78
408.34	1032.18
408.54	1020.47
408.73	987.71
408.92	1146.86
409.11	1090.69
409.30	1123.46
409.49	1102.39
409.68	1188.99
409.87	1217.08
410.07	1128.14
410.26	1174.95
410.45	1254.53
410.64	1205.38
410.83	1245.16
411.02	1188.99
411.21	1200.69
411.40	1252.19
411.59	1249.85
411.78	1308.36
411.98	1268.57
412.17	1324.74
412.36	1256.87
412.55	1268.57
412.74	1291.98
412.93	1394.96
413.12	1263.89
413.31	1455.81
413.50	1446.45
413.69	1327.08
413.88	1472.20
414.07	1366.87
414.26	1289.64
414.45	1373.89
414.64	1462.83
414.83	1409.00
415.02	1439.43
415.22	1519.01
415.41	1511.99
415.60	1591.56
415.79	1519.01
415.98	1617.31
416.17	1657.10
416.36	1605.61
416.55	1558.80
416.74	1696.89
416.93	1586.88
417.12	1668.80
417.31	1708.59
417.50	1664.12
417.69	1638.38
417.88	1682.85
418.07	1734.34
418.26	1790.51
418.45	1750.72
418.64	1774.13
418.83	1769.44
419.02	1797.53
419.21	1827.96
419.39	1774.13
419.58	1769.44
419.77	1682.85
419.96	1762.42
420.15	1827.96
420.34	1865.41
420.53	1844.34
420.72	1949.67
420.91	1977.75
421.10	1952.01
421.29	1930.94
421.48	1907.54
421.67	2026.90
421.86	1928.60
422.05	2078.40
422.24	2026.90
422.43	1947.33
422.61	2071.37
422.80	2097.12
422.99	2057.33
423.18	2017.54
423.37	1994.14
423.56	2073.71
423.75	1956.69
423.94	1902.86
424.13	1860.73
424.32	1994.14
424.50	2101.80
424.69	2139.25
424.88	2179.04
425.07	1923.92
425.26	1902.86
425.45	1977.75
425.64	2073.71
425.83	1977.75
426.01	1961.37
426.20	1963.71
426.39	2071.37
426.58	2008.18
426.77	2043.29
426.96	2200.10
427.15	2111.16
427.33	2069.03
427.52	2176.70
427.71	2193.08
427.90	2160.31
428.09	2139.25
428.28	2167.34
428.46	2193.08
428.65	2150.95
428.84	2165.00
429.03	2394.37
429.22	2216.49
429.40	2202.44
429.59	2321.81
429.78	2181.38
429.97	2132.23
430.16	2153.29
430.34	2361.60
430.53	2300.75
430.72	2324.15
430.91	2319.47
431.10	2223.51
431.28	2298.41
431.47	2321.81
431.66	2434.16
431.85	2361.60
432.03	2445.86
432.22	2459.90
432.41	2392.03
432.60	2408.41
432.79	2373.30
432.97	2406.07
433.16	2417.77
433.35	2520.76
433.54	2567.57
433.72	2539.48
433.91	2497.35
434.10	2581.61
434.28	2394.37
434.47	2626.08
434.66	2621.40
434.85	2417.77
435.03	2616.72
435.22	2654.17
435.41	2715.02
435.59	2590.97
435.78	2717.36
435.97	2560.55
436.16	2654.17
436.34	2682.25
436.53	2684.59
436.72	2794.60
436.90	2623.74
437.09	2717.36
437.28	2658.85
437.46	2628.42
437.65	2757.15
437.84	2883.54
438.02	2787.58
438.21	2810.98
438.40	2740.77
438.58	2803.96
438.77	2836.73
438.96	2909.29
439.14	2902.26
439.33	3063.76
439.52	2984.18
439.70	3054.40
439.89	3040.36
440.08	3056.74
440.26	3061.42
440.45	3014.61
440.63	3021.63
440.82	3183.13
441.01	2949.08
441.19	3052.06
441.38	3152.70
441.57	3248.66
441.75	3307.18
441.94	3321.22
442.12	3251.00
442.31	3283.77
442.50	3325.90
442.68	3344.63
442.87	3328.24
443.05	3281.43
443.24	3400.80
443.43	3405.48
443.61	3428.88
443.80	3508.46
443.98	3433.57
444.17	3236.96
444.35	3330.58
444.54	3412.50
444.73	3475.70
444.91	3419.52
445.10	3318.88
445.28	3396.12
445.47	3475.70
445.65	3375.05
445.84	3456.97
446.02	3517.83
446.21	3611.45
446.39	3485.06
446.58	3571.66
446.77	3506.12
446.95	3449.95
447.14	3468.67
447.32	3433.57
447.51	3478.04
447.69	3588.04
447.88	3644.21
448.06	3520.17
448.25	3445.27
448.43	3403.14
448.62	3602.08
448.80	3522.51
448.99	3569.32
449.17	3611.45
449.36	3503.78
449.54	3730.81
449.73	3822.09
449.91	3660.60
450.10	3684.00
450.28	3693.37
450.46	3672.30
450.65	3779.97
450.83	3758.90
451.02	3796.35
451.20	3836.14
451.39	3775.28
451.57	3777.62
451.76	3747.20
451.94	3812.73
452.13	3896.99
452.31	3892.31
452.49	3904.01
452.68	3882.95
452.86	3864.22
453.05	3988.27
453.23	3864.22
453.42	3960.19
453.60	3719.11
453.78	3866.56
453.97	4016.36
454.15	3904.01
454.34	3925.08
454.52	3939.12
454.70	3969.55
454.89	4095.94
455.07	4189.56
455.26	4156.79
455.44	4095.94
455.62	4189.56
455.81	4060.83
455.99	4056.15
456.17	4121.68
456.36	4152.11
456.54	4229.35
456.73	4161.47
456.91	4421.27
457.09	4311.27
457.28	4381.48
457.46	4273.82
457.64	4234.03
457.83	4222.33
458.01	4353.40
458.19	4332.33
458.38	4313.61
458.56	4496.17
458.74	4341.69
458.93	4301.90
459.11	4372.12
459.29	4353.40
459.48	4512.55
459.66	4564.04
459.84	4463.40
460.03	4629.58
460.21	4449.36
460.39	4479.79
460.57	4702.14
460.76	4468.08
460.94	4723.20
461.12	4615.54
461.31	4463.40
461.49	4547.66
461.67	4662.35
461.85	4755.97
462.04	4592.13
462.22	4922.15
462.40	4882.36
462.59	4737.24
462.77	4812.14
462.95	4816.82
463.13	4638.94
463.32	4760.65
463.50	4903.42
463.68	4821.50
463.86	4917.47
464.05	4762.99
464.23	4919.81
464.41	4828.53
464.59	4667.03
464.78	4851.93
464.96	4880.02
465.14	4858.95
465.32	4919.81
465.50	4844.91
465.69	5001.72
465.87	4887.04
466.05	4887.04
466.23	5048.54
466.41	4863.63
466.60	5046.20
466.78	5006.41
466.96	4990.02
467.14	5022.79
467.32	5144.50
467.51	5093.01
467.69	4950.23
467.87	5039.17
468.05	5177.26
468.23	5242.80
468.41	5132.79
468.60	5060.24
468.78	5242.80
468.96	5146.84
469.14	5217.05
469.32	5259.18
469.50	5184.29
469.69	5418.34
469.87	5408.98
470.05	5444.09
470.23	5432.38
470.41	5397.28
470.59	5334.08
470.77	5502.60
470.95	5439.40
471.14	5488.56
471.32	5366.85
471.50	5645.37
471.68	5598.56
471.86	5778.78
472.04	5729.63
472.22	5596.22
472.40	5619.63
472.58	5640.69
472.77	5659.42
472.95	5893.47
473.13	5909.85
473.31	5832.62
473.49	5984.75
473.67	5977.73
473.85	5832.62
474.03	5989.43
474.21	5907.51
474.39	6099.44
474.57	6113.48
474.75	6125.18
474.93	6176.67
475.12	6087.73
475.30	6120.50
475.48	6174.33
475.66	6122.84
475.84	6193.06
476.02	6200.08
476.20	6445.84
476.38	6511.37
476.56	6583.93
476.74	6663.51
476.92	6551.16
477.10	6473.92
477.28	6532.44
477.46	6600.31
477.64	6682.23
477.82	6722.02
478.00	7131.61
478.18	6871.81
478.36	6967.77
478.54	7148.00
478.72	7035.65
478.90	7180.76
479.08	7239.28
479.26	7344.60
479.44	7330.56
479.62	7145.66
479.80	7456.95
479.98	7316.51
480.16	7552.91
480.34	7597.38
480.52	7599.72
480.70	7648.87
480.88	7730.79
481.06	7803.35
481.24	7632.49
481.41	7676.96
481.59	7941.44
481.77	8056.12
481.95	8114.64
482.13	8208.26
482.31	8046.76
482.49	8252.73
482.67	8168.47
482.85	8390.82
483.03	8531.25
483.21	8545.30
483.39	8592.11
483.57	8528.91
483.74	8587.43
483.92	8936.17
484.10	8662.32
484.28	8746.58
484.46	9085.96
484.64	9013.40
484.82	8865.95
485.00	8997.02
485.18	9221.71
485.35	9291.93
485.53	9298.95
485.71	9446.40
485.89	9530.66
486.07	9479.17
486.25	9685.14
486.43	9626.62
486.61	9834.93
486.78	9722.59
486.96	10111.11
487.14	10125.16
487.32	9961.32
487.50	10061.96
487.68	10277.29
487.85	10281.97
488.03	10593.26
488.21	10497.30
488.39	10588.58
488.57	10862.43
488.75	10682.20
488.92	11009.88
489.10	10733.70
489.28	10916.26
489.46	11056.69
489.64	11150.31
489.81	11461.60
489.99	11147.97
490.17	11176.06
490.35	11410.11
490.53	11623.10
490.70	11487.35
490.88	11515.44
491.06	11735.45
491.24	11772.89
491.41	11836.09
491.59	11789.28
491.77	11925.03
491.95	11873.54
492.13	12152.06
492.30	12212.92
492.48	12177.81
492.66	12374.41
492.84	12379.09
493.01	12259.73
493.19	12564.00
493.37	12718.47
493.54	12868.27
493.72	13128.06
493.90	12847.20
494.08	13214.66
494.25	13102.32
494.43	13125.72
494.61	13380.84
494.79	13310.63
494.96	13376.16
495.14	13301.26
495.32	13872.36
495.49	13626.60
495.67	13647.66
495.85	13804.48
496.02	13762.35
496.20	13914.48
496.38	13991.72
496.55	13949.59
496.73	14396.64
496.91	13956.61
497.09	14033.85
497.26	14431.74
497.44	14263.22
497.62	14176.62
497.79	14476.21
497.97	14640.05
498.14	14864.74
498.32	14698.56
498.50	14824.95
498.67	14953.68
498.85	14853.04
499.03	15173.69
499.20	14750.06
499.38	15143.27
499.56	15314.13
499.73	15360.94
499.91	15279.02
500.08	15585.63
500.26	15169.01
500.44	15377.32
500.61	15742.44
500.79	15477.96
500.97	15634.78
501.14	15693.29
501.32	15803.30
501.49	15641.80
501.67	15894.58
501.84	16219.91
502.02	16212.89
502.20	16137.99
502.37	16219.91
502.55	16060.76
502.72	16109.91
502.90	16205.87
503.07	16208.21
503.25	16264.38
503.43	16325.24
503.60	16360.34
503.78	16652.91
503.95	16498.44
504.13	16664.61
504.30	16566.31
504.48	16809.73
504.65	16711.42
504.83	16975.91
505.01	16940.80
505.18	16952.50
505.36	17088.25
505.53	16812.07
505.71	17020.38
505.88	17429.97
506.06	16893.99
506.23	17547.00
506.41	17441.67
506.58	17336.35
506.76	17472.10
506.93	17687.43
507.11	17649.98
507.28	17596.15
507.46	17521.25
507.63	17727.22
507.81	17617.21
507.98	17933.18
508.16	17710.83
508.33	17907.44
508.50	18097.02
508.68	17631.26
508.85	17972.97
509.03	17949.57
509.20	18237.45
509.38	18237.45
509.55	18265.54
509.73	18178.94
509.90	18333.42
510.08	18207.03
510.25	18293.63
510.42	18623.64
510.60	18724.29
510.77	18628.32
510.95	18773.44
511.12	18920.89
511.30	18717.26
511.47	18764.07
511.64	18853.02
511.82	18930.25
511.99	19014.51
512.17	18771.10
512.34	19056.64
512.51	19133.88
512.69	19489.64
512.86	19393.68
513.04	19428.79
513.21	19555.18
513.38	19482.62
513.56	19515.39
513.73	19119.84
513.90	19438.15
514.08	19389.00
514.25	19796.25
514.43	19700.29
514.60	19777.53
514.77	19667.52
514.95	20039.67
515.12	19875.83
515.29	19798.59
515.47	20093.50
515.64	20011.58
515.81	20037.33
515.99	20208.19
516.16	20329.89
516.33	20072.43
516.51	20189.46
516.68	20563.95
516.85	20496.07
517.03	20669.27
517.20	20549.90
517.37	20467.98
517.54	20610.76
517.72	20823.75
517.89	20741.83
518.06	20666.93
518.24	20716.08
518.41	20552.24
518.58	20861.19
518.75	20556.93
518.93	21282.49
519.10	20809.70
519.27	20975.88
519.45	20905.66
519.62	20868.22
519.79	21048.44
519.96	21188.87
520.14	21252.06
520.31	21076.52
520.48	21401.86
520.65	21387.82
520.83	21598.46
521.00	21467.39
521.17	21113.97
521.34	21359.73
521.52	21451.01
521.69	21900.39
521.86	21603.14
522.03	21710.81
522.20	21884.01
522.38	22022.10
522.55	21909.75
522.72	21776.34
522.89	22097.00
523.07	22541.70
523.24	22078.27
523.41	22417.65
523.58	22080.61
523.75	22324.03
523.92	22298.28
524.10	21879.33
524.27	22302.96
524.44	22476.16
524.61	22593.19
524.78	22773.41
524.96	22518.29
525.13	22352.12
525.30	23077.68
525.47	22532.34
525.64	22803.84
525.81	22848.31
525.98	22974.70
526.16	22909.16
526.33	22670.43
526.50	22855.33
526.67	22586.17
526.84	22806.18
527.01	22623.62
527.18	22911.50
527.36	23096.41
527.53	23126.83
527.70	23335.14
527.87	23557.49
528.04	22871.72
528.21	23229.82
528.38	23222.80
528.55	23386.63
528.72	23377.27
528.89	23445.15
529.07	23613.66
529.24	23346.84
529.41	23576.22
529.58	23227.48
529.75	23470.89
529.92	23662.82
530.09	23213.43
530.26	23470.89
530.43	23625.37
530.60	23910.91
530.77	24067.73
530.94	23894.53
531.11	23552.81
531.28	23524.72
531.46	23655.79
531.63	23866.44
531.80	24226.89
531.97	24161.35
532.14	24030.28
532.31	24105.18
532.48	24100.50
532.65	24147.31
532.82	23880.49
532.99	24137.94
533.16	24100.50
533.33	24397.74
533.50	24587.33
533.67	24500.73
533.84	24512.43
534.01	24240.93
534.18	24407.11
534.35	24498.39
534.52	24325.19
534.69	24645.84
534.86	24779.25
535.03	24882.24
535.20	24877.55
535.37	24439.87
535.54	24692.65
535.71	24493.71
535.88	24610.73
536.05	24556.90
536.22	24987.56
536.38	24734.78
536.55	24893.94
536.72	25109.27
536.89	25078.84
537.06	25256.72
537.23	24882.24
537.40	25308.21
537.57	24840.11
537.74	25001.60
537.91	25380.77
538.08	25198.21
538.25	25572.69
538.42	25160.76
538.59	25392.47
538.75	25408.86
538.92	25223.95
539.09	25600.78
539.26	25490.77
539.43	25469.71
539.60	25757.60
539.77	25383.11
539.94	25820.79
540.11	25631.21
540.28	25586.74
540.44	25633.55
540.61	25385.45
540.78	25436.94
540.95	25720.15
541.12	26214.00
541.29	25748.23
541.46	25781.00
541.62	25591.42
541.79	26190.59
541.96	25713.13
542.13	26045.48
542.30	25961.22
542.47	26291.24
542.63	25785.68
542.80	26288.90
542.97	26380.18
543.14	26644.66
543.31	25802.07
543.48	26511.25
543.64	26668.06
543.81	26658.70
543.98	26291.24
544.15	26438.69
544.32	26965.31
544.48	26845.94
544.65	26443.37
544.82	26742.96
544.99	26206.98
545.16	26464.44
545.32	26611.89
545.49	26632.96
545.66	27042.55
545.83	26801.47
546.00	26558.06
546.16	26731.26
546.33	26499.55
546.50	26536.99
546.67	26787.43
546.83	26764.03
547.00	26801.47
547.17	27197.02
547.34	26567.42
547.50	27278.94
547.67	27372.57
547.84	26904.46
548.00	27112.77
548.17	27391.29
548.34	27028.51
548.51	27620.66
548.67	27171.28
548.84	27711.94
549.01	27292.99
549.18	27190.00
549.34	27108.08
549.51	27370.22
549.68	27335.12
549.84	27452.14
550.01	27637.05
550.18	27400.65
550.34	27466.19
550.51	27552.79
550.68	27608.96
550.84	27482.57
551.01	27725.99
551.18	27381.93
551.34	27513.00
551.51	27594.92
551.68	27599.60
551.84	27524.70
552.01	27601.94
552.18	27873.44
552.34	27735.35
552.51	27906.21
552.68	27662.79
552.84	27906.21
553.01	27772.80
553.18	28107.49
553.34	27831.31
553.51	27896.85
553.67	27725.99
553.84	27852.38
554.01	28231.54
554.17	27964.72
554.34	27807.90
554.51	27704.92
554.67	28121.54
554.84	28189.41
555.00	28142.60
555.17	27992.81
555.33	28357.93
555.50	28158.99
555.67	28496.02
555.83	28386.02
556.00	28184.73
556.16	28510.07
556.33	28481.98
556.50	28074.73
556.66	28519.43
556.83	28280.69
556.99	28580.28
557.16	28734.76
557.32	28472.62
557.49	28690.29
557.65	28168.35
557.82	28432.83
557.98	28498.36
558.15	28655.18
558.32	28685.61
558.48	28498.36
558.65	28856.46
558.81	28706.67
558.98	28992.22
559.14	28723.05
559.31	28479.64
559.47	28615.39
559.64	29280.10
559.80	28779.23
559.97	28804.97
560.13	28362.61
560.30	29277.76
560.46	28816.68
560.63	29134.99
560.79	28833.06
560.96	28950.09
561.12	28826.04
561.29	29010.94
561.45	28676.24
561.61	29076.48
561.78	28966.47
561.94	28964.13
562.11	29015.62
562.27	29158.39
562.44	28989.88
562.60	29097.54
562.77	28701.99
562.93	29078.82
563.10	28975.83
563.26	28994.56
563.42	29514.16
563.59	29160.73
563.75	29249.67
563.92	29579.69
564.08	29247.33
564.24	29137.33
564.41	29069.45
564.57	29024.98
564.74	29219.25
564.90	29530.54
565.07	29457.98
565.23	29465.00
565.39	29223.93
565.56	29223.93
565.72	28952.43
565.88	28978.17
566.05	29008.60
566.21	29106.90
566.38	29017.96
566.54	29230.95
566.70	29659.27
566.87	29493.09
567.03	29268.40
567.19	29675.65
567.36	29303.51
567.52	29497.77
567.68	29270.74
567.85	29104.56
568.01	29212.23
568.17	29289.46
568.34	29486.07
568.50	29376.06
568.66	29556.28
568.83	29556.28
568.99	29387.77
569.15	29383.09
569.32	29411.17
569.48	29069.45
569.64	29663.95
569.81	29502.45
569.97	29404.15
570.13	29755.23
570.30	29261.38
570.46	29729.48
570.62	29544.58
570.78	29736.51
570.95	29394.79
571.11	29640.54
571.27	29081.16
571.43	29907.37
571.60	29401.81
571.76	29429.90
571.92	29647.57
572.09	29706.08
572.25	29649.91
572.41	29448.62
572.57	29626.50
572.74	30143.76
572.90	29617.14
573.06	29532.88
573.22	29544.58
573.38	29413.51
573.55	29596.07
573.71	29710.76
573.87	29752.89
574.03	29858.21
574.20	29804.38
574.36	29457.98
574.52	29549.26
574.68	29769.27
574.84	29673.31
575.01	29673.31
575.17	29905.02
575.33	29685.01
575.49	29858.21
575.65	29862.90
575.82	29975.24
575.98	29792.68
576.14	30052.48
576.30	29610.12
576.46	29560.97
576.62	29481.39
576.79	29984.60
576.95	29685.01
577.11	29661.61
577.27	29553.94
577.43	30054.82
577.59	29720.12
577.75	29467.34
577.92	29591.39
578.08	29591.39
578.24	29928.43
578.40	29481.39
578.56	30040.78
578.72	29778.64
578.88	30000.99
579.04	29881.62
579.21	29727.14
579.37	29989.28
579.53	30153.12
579.69	29745.87
579.85	29500.11
580.01	29530.54
580.17	29734.17
580.33	29532.88
580.49	29991.62
580.65	30132.06
580.82	30204.61
580.98	29675.65
581.14	29806.72
581.30	30118.01
581.46	29991.62
581.62	29998.65
581.78	29853.53
581.94	30218.66
582.10	29820.77
582.26	30218.66
582.42	30019.71
582.58	30134.40
582.74	30235.04
582.90	29940.13
583.06	29858.21
583.22	29888.64
583.38	29553.94
583.54	29776.30
583.70	30071.20
583.86	29804.38
584.02	29642.88
584.18	30031.41
584.34	30291.21
584.50	30377.81
584.66	29900.34
584.82	29703.74
584.98	29797.36
585.14	30108.65
585.30	29879.28
585.46	30068.86
585.62	29502.45
585.78	30321.64
585.94	29670.97
586.10	30401.22
586.26	30450.37
586.42	30174.19
586.58	30382.49
586.74	30263.13
586.90	29954.18
587.06	29989.28
587.22	30036.09
587.38	29785.66
587.54	29986.94
587.70	30382.49
587.86	29902.68
588.02	30288.87
588.18	30410.58
588.34	30181.21
588.49	29900.34
588.65	30223.34
588.81	29750.55
588.97	30504.20
589.13	30024.39
589.29	30244.40
589.45	30216.32
589.61	30473.78
589.77	30551.01
589.93	30125.04
590.08	30242.06
590.24	30590.80
590.40	30288.87
590.56	30431.65
590.72	30263.13
590.88	30146.10
591.04	30471.43
591.20	30522.93
591.35	30609.53
591.51	30682.08
591.67	30417.60
591.83	30661.02
591.99	30335.68
