SpectraSuite Data File
++++++++++++++++++++++++++++++++++++
Date: Fri Oct 18 13:58:34 GMT-05:00 2013
User: bianchi
Dark Spectrum Present: No
Reference Spectrum Present: No
Number of Sampled Component Spectra: 1
Spectrometers: USB2+H05261
Integration Time (usec): 50000 (USB2+H05261)
Spectra Averaged: 1 (USB2+H05261)
Boxcar Smoothing: 0 (USB2+H05261)
Correct for Electrical Dark: No (USB2+H05261)
Strobe/Lamp Enabled: No (USB2+H05261)
Correct for Detector Non-linearity: No (USB2+H05261)
Correct for Stray Light: No (USB2+H05261)
Number of Pixels in Processed Spectrum: 2048
>>>>>Begin Processed Spectral Data<<<<<
365.73	0.00
365.92	0.00
366.12	0.00
366.32	0.00
366.52	0.00
366.72	0.00
366.91	0.00
367.11	0.00
367.31	0.00
367.51	0.00
367.70	0.00
367.90	0.00
368.10	0.00
368.30	0.00
368.49	0.00
368.69	0.00
368.89	0.00
369.09	0.00
369.28	0.00
369.48	0.00
369.68	0.00
369.87	0.00
370.07	0.00
370.27	0.00
370.47	0.00
370.66	98.30
370.86	86.60
371.06	161.50
371.25	152.13
371.45	117.03
371.65	177.88
371.84	107.66
372.04	121.71
372.24	177.88
372.44	210.65
372.63	133.41
372.83	217.67
373.03	189.58
373.22	149.79
373.42	243.42
373.62	243.42
373.81	220.01
374.01	231.71
374.21	212.99
374.40	241.08
374.60	280.86
374.79	252.78
374.99	205.97
375.19	234.05
375.38	276.18
375.58	290.23
375.78	203.63
375.97	264.48
376.17	264.48
376.37	243.42
376.56	344.06
376.76	266.82
376.95	243.42
377.15	311.29
377.35	257.46
377.54	241.08
377.74	250.44
377.93	271.50
378.13	241.08
378.33	234.05
378.52	278.52
378.72	308.95
378.91	322.99
379.11	332.36
379.31	245.76
379.50	313.63
379.70	369.80
379.89	287.89
380.09	294.91
380.28	231.71
380.48	285.55
380.68	313.63
380.87	313.63
381.07	304.27
381.26	411.93
381.46	301.93
381.65	381.51
381.85	266.82
382.04	280.86
382.24	423.64
382.43	315.97
382.63	353.42
382.83	306.61
383.02	306.61
383.22	301.93
383.41	318.31
383.61	341.72
383.80	351.08
384.00	346.40
384.19	344.06
384.39	383.85
384.58	308.95
384.78	386.19
384.97	386.19
385.17	409.59
385.36	332.36
385.56	351.08
385.75	397.89
385.95	400.23
386.14	400.23
386.34	376.83
386.53	402.57
386.72	351.08
386.92	409.59
387.11	400.23
387.31	393.21
387.50	383.85
387.70	407.25
387.89	444.70
388.09	444.70
388.28	430.66
388.48	414.27
388.67	447.04
388.86	454.06
389.06	470.45
389.25	470.45
389.45	477.47
389.64	414.27
389.84	507.90
390.03	547.69
390.22	451.72
390.42	526.62
390.61	528.96
390.81	484.49
391.00	486.83
391.19	552.37
391.39	521.94
391.58	475.13
391.78	514.92
391.97	489.17
392.16	463.43
392.36	559.39
392.55	521.94
392.75	475.13
392.94	561.73
393.13	543.00
393.33	482.15
393.52	484.49
393.71	580.45
393.91	559.39
394.10	599.18
394.29	645.99
394.49	564.07
394.68	566.41
394.88	601.52
395.07	608.54
395.26	559.39
395.46	564.07
395.65	627.26
395.84	599.18
396.04	702.16
396.23	641.31
396.42	681.10
396.62	617.90
396.81	634.29
397.00	615.56
397.19	585.13
397.39	653.01
397.58	688.12
397.77	786.42
397.97	711.52
398.16	709.18
398.35	704.50
398.55	636.63
398.74	718.54
398.93	685.78
399.12	655.35
399.32	692.80
399.51	809.83
399.70	737.27
399.90	648.33
400.09	744.29
400.28	781.74
400.47	734.93
400.67	760.67
400.86	814.51
401.05	795.78
401.24	734.93
401.44	760.67
401.63	746.63
401.82	800.46
402.01	844.93
402.21	898.77
402.40	795.78
402.59	798.12
402.78	770.04
402.97	835.57
403.17	866.00
403.36	823.87
403.55	828.55
403.74	828.55
403.93	875.36
404.13	861.32
404.32	933.87
404.51	891.74
404.70	919.83
404.89	842.59
405.09	924.51
405.28	957.28
405.47	926.85
405.66	976.00
405.85	919.83
406.05	1034.52
406.24	1041.54
406.43	990.05
406.62	1011.11
406.81	1008.77
407.00	1020.47
407.20	954.94
407.39	985.37
407.58	1015.79
407.77	1076.65
407.96	1029.84
408.15	1163.25
408.34	1050.90
408.54	1123.46
408.73	1088.35
408.92	1074.31
409.11	1081.33
409.30	1203.04
409.49	1156.22
409.68	1172.61
409.87	1191.33
410.07	1102.39
410.26	1142.18
410.45	1151.54
410.64	1226.44
410.83	1214.74
411.02	1224.10
411.21	1203.04
411.40	1280.27
411.59	1322.40
411.78	1256.87
411.98	1235.80
412.17	1214.74
412.36	1317.72
412.55	1327.08
412.74	1345.81
412.93	1401.98
413.12	1397.30
413.31	1369.21
413.50	1420.71
413.69	1376.24
413.88	1416.02
414.07	1343.47
414.26	1476.88
414.45	1394.96
414.64	1462.83
414.83	1462.83
415.02	1476.88
415.22	1528.37
415.41	1544.75
415.60	1537.73
415.79	1547.09
415.98	1619.65
416.17	1647.74
416.36	1591.56
416.55	1575.18
416.74	1652.42
416.93	1490.92
417.12	1741.36
417.31	1708.59
417.50	1666.46
417.69	1753.06
417.88	1696.89
418.07	1710.93
418.26	1764.76
418.45	1715.61
418.64	1891.15
418.83	1783.49
419.02	1710.93
419.21	1802.21
419.39	1837.32
419.58	1802.21
419.77	1842.00
419.96	1816.26
420.15	1872.43
420.34	1809.23
420.53	1907.54
420.72	1919.24
420.91	1935.62
421.10	1846.68
421.29	1895.83
421.48	1884.13
421.67	1989.46
421.86	1947.33
422.05	1998.82
422.24	2043.29
422.43	1916.90
422.61	2047.97
422.80	2010.52
422.99	2069.03
423.18	2005.84
423.37	1970.73
423.56	2078.40
423.75	2029.24
423.94	2031.58
424.13	1872.43
424.32	1933.28
424.50	2038.61
424.69	2052.65
424.88	2073.71
425.07	1980.09
425.26	1930.94
425.45	2083.08
425.64	2001.16
425.83	2148.61
426.01	1994.14
426.20	2092.44
426.39	2134.57
426.58	1975.41
426.77	2054.99
426.96	2172.02
427.15	2062.01
427.33	2160.31
427.52	2005.84
427.71	2113.50
427.90	2092.44
428.09	2160.31
428.28	2188.40
428.46	2141.59
428.65	2134.57
428.84	2176.70
429.03	2239.89
429.22	2181.38
429.40	2186.06
429.59	2312.45
429.78	2097.12
429.97	2118.18
430.16	2289.04
430.34	2282.02
430.53	2296.07
430.72	2298.41
430.91	2370.96
431.10	2242.23
431.28	2296.07
431.47	2356.92
431.66	2396.71
431.85	2225.85
432.03	2464.58
432.22	2450.54
432.41	2466.92
432.60	2560.55
432.79	2420.11
432.97	2392.03
433.16	2539.48
433.35	2380.32
433.54	2546.50
433.72	2548.84
433.91	2485.65
434.10	2363.94
434.28	2562.89
434.47	2551.18
434.66	2452.88
434.85	2506.71
435.03	2605.02
435.22	2499.69
435.41	2722.04
435.59	2605.02
435.78	2485.65
435.97	2651.83
436.16	2616.72
436.34	2628.42
436.53	2750.13
436.72	2818.00
436.90	2588.63
437.09	2792.26
437.28	2630.76
437.46	2836.73
437.65	2733.75
437.84	2696.30
438.02	2782.90
438.21	2736.09
438.40	2621.40
438.58	2806.30
438.77	2808.64
438.96	2848.43
439.14	2984.18
439.33	2867.16
439.52	2913.97
439.70	2857.79
439.89	3075.46
440.08	3075.46
440.26	3094.19
440.45	3030.99
440.63	2984.18
440.82	3164.40
441.01	3180.79
441.19	3061.42
441.38	3141.00
441.57	3162.06
441.75	3262.71
441.94	3229.94
442.12	3255.69
442.31	3309.52
442.50	3258.03
442.68	3258.03
442.87	3302.50
443.05	3316.54
443.24	3353.99
443.43	3248.66
443.61	3456.97
443.80	3473.36
443.98	3384.41
444.17	3133.98
444.35	3424.20
444.54	3438.25
444.73	3398.46
444.91	3311.86
445.10	3344.63
445.28	3412.50
445.47	3431.23
445.65	3405.48
445.84	3503.78
446.02	3400.80
446.21	3503.78
446.39	3290.79
446.58	3524.85
446.77	3494.42
446.95	3391.44
447.14	3489.74
447.32	3424.20
447.51	3452.29
447.69	3501.44
447.88	3576.34
448.06	3431.23
448.25	3517.83
448.43	3543.57
448.62	3569.32
448.80	3410.16
448.99	3611.45
449.17	3559.95
449.36	3641.87
449.54	3534.21
449.73	3681.66
449.91	3676.98
450.10	3749.54
450.28	3595.06
450.46	3620.81
450.65	3782.31
450.83	3700.39
451.02	3571.66
451.20	3693.37
451.39	3669.96
451.57	3857.20
451.76	3775.28
451.94	3794.01
452.13	3906.35
452.31	3920.40
452.49	3721.45
452.68	3714.43
452.86	3667.62
453.05	3911.04
453.23	3901.67
453.42	3878.27
453.60	3772.94
453.78	3775.28
453.97	3880.61
454.15	4023.38
454.34	3803.37
454.52	4004.66
454.70	4124.02
454.89	4018.70
455.07	4074.87
455.26	4058.49
455.44	4149.77
455.62	4049.13
455.81	4100.62
455.99	4067.85
456.17	4182.54
456.36	4133.39
456.54	4140.41
456.73	4135.73
456.91	4215.30
457.09	4180.20
457.28	4311.27
457.46	4182.54
457.64	4304.25
457.83	4322.97
458.01	4273.82
458.19	4456.38
458.38	4257.43
458.56	4472.76
458.74	4418.93
458.93	4404.89
459.11	4547.66
459.29	4365.10
459.48	4428.29
459.66	4311.27
459.84	4362.76
460.03	4610.86
460.21	4517.23
460.39	4664.69
460.57	4606.17
460.76	4582.77
460.94	4702.14
461.12	4564.04
461.31	4615.54
461.49	4524.26
461.67	4524.26
461.85	4767.67
462.04	4620.22
462.22	4667.03
462.40	4802.78
462.59	4856.61
462.77	4844.91
462.95	4739.58
463.13	4690.43
463.32	4828.53
463.50	4828.53
463.68	4936.19
463.86	4723.20
464.05	4638.94
464.23	4800.44
464.41	4905.76
464.59	4753.63
464.78	4978.32
464.96	4887.04
465.14	4805.12
465.32	4858.95
465.50	4938.53
465.69	4882.36
465.87	4968.96
466.05	5018.11
466.23	4929.17
466.41	5041.51
466.60	5109.39
466.78	4929.17
466.96	4917.47
467.14	5123.43
467.32	4968.96
467.51	5132.79
467.69	5048.54
467.87	4994.70
468.05	5083.64
468.23	5048.54
468.41	5057.90
468.60	5006.41
468.78	5193.65
468.96	5205.35
469.14	5242.80
469.32	5167.90
469.50	5200.67
469.69	5296.63
469.87	5373.87
470.05	5191.31
470.23	5303.65
470.41	5481.53
470.59	5376.21
470.77	5390.25
470.95	5446.43
471.14	5558.77
471.32	5383.23
471.50	5507.28
471.68	5518.98
471.86	5612.60
472.04	5610.26
472.22	5575.16
472.40	5607.92
472.58	5664.10
472.77	5706.23
472.95	5809.21
473.13	5935.60
473.31	5703.89
473.49	5762.40
473.67	5729.63
473.85	5778.78
474.03	5987.09
474.21	6019.86
474.39	5973.05
474.57	5980.07
474.75	6136.88
474.93	6249.23
475.12	5973.05
475.30	6136.88
475.48	6115.82
475.66	6054.97
475.84	6188.38
476.02	6244.55
476.20	6253.91
476.38	6354.55
476.56	6502.01
476.74	6483.28
476.92	6424.77
477.10	6548.82
477.28	6497.33
477.46	6375.62
477.64	6616.69
477.82	6794.58
478.00	6899.90
478.18	6712.66
478.36	6883.52
478.54	7002.88
478.72	6988.84
478.90	6956.07
479.08	7084.80
479.26	7281.41
479.44	7227.57
479.62	7286.09
479.80	7363.33
479.98	7396.09
480.16	7543.55
480.34	7503.76
480.52	7482.69
480.70	7693.34
480.88	7658.23
481.06	7742.49
481.24	7613.76
481.41	8030.38
481.59	7866.54
481.77	7932.08
481.95	7967.18
482.13	8056.12
482.31	8065.49
482.49	8131.02
482.67	8116.98
482.85	8102.93
483.03	8437.63
483.21	8465.72
483.39	8786.37
483.57	8465.72
483.74	8765.31
483.92	8617.85
484.10	8704.45
484.28	8891.70
484.46	9083.62
484.64	9146.81
484.82	8936.17
485.00	9095.32
485.18	9343.42
485.35	9287.25
485.53	9186.60
485.71	9242.78
485.89	9441.72
486.07	9380.87
486.25	9418.32
486.43	9453.42
486.61	9771.74
486.78	9722.59
486.96	9879.40
487.14	10071.33
487.32	9902.81
487.50	10127.50
487.68	10108.77
487.85	10314.74
488.03	10445.81
488.21	10429.43
488.39	10518.37
488.57	10520.71
488.75	10576.88
488.92	10707.95
489.10	10672.84
489.28	10871.79
489.46	10977.11
489.64	11098.82
489.81	11122.23
489.99	11173.72
490.17	11321.17
490.35	11630.12
490.53	11440.54
490.70	11592.67
490.88	11733.11
491.06	11789.28
491.24	11758.85
491.41	11836.09
491.59	11878.22
491.77	11920.35
491.95	12009.29
492.13	11997.59
492.30	12098.23
492.48	12140.36
492.66	12093.55
492.84	12245.68
493.01	12470.37
493.19	12709.11
493.37	12491.44
493.54	12606.13
493.72	12699.75
493.90	12652.94
494.08	12980.61
494.25	13055.51
494.43	13055.51
494.61	13099.98
494.79	13219.35
494.96	13310.63
495.14	13111.68
495.32	13256.79
495.49	13547.02
495.67	13659.37
495.85	13565.74
496.02	13797.46
496.20	13621.92
496.38	14001.08
496.55	13804.48
496.73	14127.47
496.91	14029.17
497.09	14485.58
497.26	14188.33
497.44	14193.01
497.62	14319.40
497.79	14270.25
497.97	14413.02
498.14	14616.65
498.32	14733.67
498.50	14787.50
498.67	14789.85
498.85	14792.19
499.03	14895.17
499.20	14925.60
499.38	15255.61
499.56	15000.49
499.73	15264.97
499.91	15150.29
500.08	15290.72
500.26	15246.25
500.44	15356.25
500.61	15267.31
500.79	15243.91
500.97	15461.58
501.14	15866.49
501.32	15683.93
501.49	15686.27
501.67	15707.34
501.84	15894.58
502.02	15803.30
502.20	15868.83
502.37	15948.41
502.55	15981.18
502.72	16114.59
502.90	16077.14
503.07	16301.83
503.25	16219.91
503.43	16262.04
503.60	16280.77
503.78	16416.52
503.95	16350.98
504.13	16423.54
504.30	16669.30
504.48	16664.61
504.65	16622.48
504.83	16713.77
505.01	16938.46
505.18	16996.97
505.36	16898.67
505.53	17018.04
505.71	16517.16
505.88	16870.58
506.06	16884.62
506.23	17172.51
506.41	17418.27
506.58	17214.64
506.76	17502.53
506.93	17261.45
507.11	17362.09
507.28	17525.93
507.46	17516.57
507.63	17631.26
507.81	17701.47
507.98	17488.48
508.16	17558.70
508.33	17572.74
508.50	17757.64
508.68	17640.62
508.85	18272.56
509.03	18120.43
509.20	18094.68
509.38	18246.82
509.55	18164.90
509.73	18459.81
509.90	18122.77
510.08	18143.83
510.25	18429.38
510.42	18104.04
510.60	18352.14
510.77	18665.77
510.95	18532.36
511.12	18295.97
511.30	18494.91
511.47	18871.74
511.64	18951.32
511.82	18902.17
511.99	18644.71
512.17	18906.85
512.34	18618.96
512.51	19171.33
512.69	18977.06
512.86	18855.36
513.04	19232.18
513.21	19316.44
513.38	19166.65
513.56	19466.24
513.73	19187.71
513.90	19374.95
514.08	19400.70
514.25	19239.20
514.43	19431.13
514.60	19861.79
514.77	19690.93
514.95	20081.80
515.12	19613.69
515.29	19719.01
515.47	19716.67
515.64	19995.20
515.81	20240.95
515.99	19822.00
516.16	20053.71
516.33	20259.68
516.51	20177.76
516.68	20201.16
516.85	19852.42
517.03	20137.97
517.20	19990.52
517.37	20304.15
517.54	20535.86
517.72	20535.86
517.89	20692.68
518.06	20341.60
518.24	20409.47
518.41	20517.14
518.58	20807.36
518.75	20397.77
518.93	20713.74
519.10	20978.22
519.27	21120.99
519.45	20819.07
519.62	20870.56
519.79	20826.09
519.96	20833.11
520.14	21226.32
520.31	21041.42
520.48	21296.53
520.65	21336.32
520.83	21172.49
521.00	20950.14
521.17	21149.08
521.34	21406.54
521.52	21362.07
521.69	21888.69
521.86	21788.05
522.03	21596.12
522.20	21689.74
522.38	21649.96
522.55	21521.23
522.72	21275.47
522.89	21626.55
523.07	21869.97
523.24	22087.64
523.41	22127.42
523.58	21902.73
523.75	22125.08
523.92	21867.63
524.10	21942.52
524.27	22185.94
524.44	22349.78
524.61	22258.49
524.78	22249.13
524.96	22443.40
525.13	22302.96
525.30	22237.43
525.47	22410.63
525.64	22487.87
525.81	22567.45
525.98	22735.96
526.16	22429.35
526.33	22537.02
526.50	22941.93
526.67	22508.93
526.84	22492.55
527.01	22558.08
527.18	22806.18
527.36	22852.99
527.53	22883.42
527.70	23021.51
527.87	22958.31
528.04	22803.84
528.21	22988.74
528.38	22911.50
528.55	22927.89
528.72	23194.71
528.89	23339.82
529.07	23119.81
529.24	23091.73
529.41	23407.70
529.58	23030.87
529.75	23311.74
529.92	23285.99
530.09	23007.47
530.26	23613.66
530.43	23562.17
530.60	23103.43
530.77	23187.69
530.94	23679.20
531.11	23115.13
531.28	23571.54
531.46	23611.32
531.63	23843.04
531.80	23917.93
531.97	23845.38
532.14	23913.25
532.31	23538.77
532.48	24039.64
532.65	24489.03
532.82	23852.40
532.99	23960.06
533.16	24013.90
533.33	24063.05
533.50	24615.41
533.67	24430.51
533.84	23840.70
534.01	24046.66
534.18	23882.83
534.35	24252.63
534.52	24758.19
534.69	24561.58
534.86	24606.05
535.03	24423.49
535.20	24666.91
535.37	24694.99
535.54	24577.97
535.71	24362.64
535.88	24641.16
536.05	24364.98
536.22	24893.94
536.38	24936.07
536.55	24795.64
536.72	24961.81
536.89	24601.37
537.06	24538.18
537.23	24479.66
537.40	24938.41
537.57	24830.74
537.74	24985.22
537.91	25240.34
538.08	24769.89
538.25	24868.19
538.42	25127.99
538.59	24999.26
538.75	24891.60
538.92	25322.26
539.09	24842.45
539.26	25238.00
539.43	25111.61
539.60	24917.34
539.77	25408.86
539.94	25291.83
540.11	25287.15
540.28	25476.73
540.44	25352.68
540.61	25476.73
540.78	25378.43
540.95	25575.03
541.12	25429.92
541.29	25689.72
541.46	25483.75
541.62	25277.79
541.79	25546.95
541.96	25530.56
542.13	25455.67
542.30	25671.00
542.47	25656.95
542.63	25862.92
542.80	25743.55
542.97	26263.15
543.14	26272.51
543.31	26064.21
543.48	26284.22
543.64	26295.92
543.81	26398.90
543.98	26408.26
544.15	26398.90
544.32	26553.38
544.48	26040.80
544.65	26036.12
544.82	26485.50
544.99	25963.56
545.16	26059.52
545.32	26450.39
545.49	26356.77
545.66	26424.65
545.83	26700.83
546.00	26494.86
546.16	26487.84
546.33	26494.86
546.50	26415.29
546.67	26714.87
546.83	25909.73
547.00	26775.73
547.17	26387.20
547.34	26501.89
547.50	27005.10
547.67	26991.06
547.84	26536.99
548.00	26766.37
548.17	27150.21
548.34	27171.28
548.51	27061.27
548.67	26806.16
548.84	27119.79
549.01	27232.13
549.18	27124.47
549.34	27021.48
549.51	26913.82
549.68	26955.95
549.84	26813.18
550.01	26972.33
550.18	27122.13
550.34	27075.32
550.51	27377.25
550.68	27168.94
550.84	27009.78
551.01	27414.69
551.18	27042.55
551.34	27105.74
551.51	27288.31
551.68	26906.80
551.84	27606.62
552.01	27770.46
552.18	27660.45
552.34	27744.71
552.51	27433.42
552.68	27384.27
552.84	27725.99
553.01	27513.00
553.18	27318.73
553.34	27772.80
553.51	27742.37
553.67	27470.87
553.84	27779.82
554.01	27782.16
554.17	27749.39
554.34	27742.37
554.51	27641.73
554.67	27915.57
554.84	27463.85
555.00	27161.92
555.17	27789.18
555.33	27997.49
555.50	27761.09
555.67	27751.73
555.83	27866.42
556.00	27880.46
556.16	28149.62
556.33	28149.62
556.50	27962.38
556.66	27995.15
556.83	28016.21
556.99	28320.48
557.16	28276.01
557.32	28430.49
557.49	28105.15
557.65	27850.03
557.82	27992.81
557.98	27983.44
558.15	27845.35
558.32	28247.93
558.48	27978.76
558.65	28470.28
558.81	28271.33
558.98	28521.77
559.14	28032.60
559.31	27967.06
559.47	28306.44
559.64	28163.67
559.80	28603.69
559.97	28290.06
560.13	28521.77
560.30	28142.60
560.46	28634.11
560.63	28484.32
560.79	28599.01
560.96	28514.75
561.12	28451.55
561.29	28556.88
561.45	28533.47
561.61	28790.93
561.78	28634.11
561.94	28755.82
562.11	28596.67
562.27	28664.54
562.44	28687.95
562.60	28428.15
562.77	28797.95
562.93	28580.28
563.10	29160.73
563.26	28893.91
563.42	29149.03
563.59	28973.49
563.75	28570.92
563.92	28755.82
564.08	28418.78
564.24	28767.52
564.41	28383.68
564.57	29102.22
564.74	29179.46
564.90	28809.65
565.07	28631.77
565.23	28786.25
565.39	28865.83
565.56	29078.82
565.72	28720.71
565.88	28772.21
566.05	28891.57
566.21	28994.56
566.38	28943.06
566.54	28758.16
566.70	28748.80
566.87	29366.70
567.03	28973.49
567.19	29427.56
567.36	28933.70
567.52	28755.82
567.68	28936.04
567.85	28889.23
568.01	28676.24
568.17	28683.27
568.34	29280.10
568.50	28858.81
568.66	28975.83
568.83	29289.46
568.99	29352.66
569.15	28835.40
569.32	28926.68
569.48	28884.55
569.64	29575.01
569.81	29067.11
569.97	29275.42
570.13	28762.84
570.30	29099.88
570.46	29387.77
570.62	29081.16
570.78	28931.36
570.95	29151.37
571.11	29153.71
571.27	28828.38
571.43	28905.62
571.60	29266.06
571.76	29102.22
571.92	29256.70
572.09	29481.39
572.25	29614.80
572.41	29207.55
572.57	29275.42
572.74	29092.86
572.90	29095.20
573.06	29060.09
573.22	29434.58
573.38	29333.93
573.55	29359.68
573.71	29411.17
573.87	29535.22
574.03	29443.94
574.20	29275.42
574.36	29223.93
574.52	29420.53
574.68	28996.90
574.84	29270.74
575.01	29102.22
575.17	29612.46
575.33	29296.49
575.49	29298.83
575.65	29591.39
575.82	29369.04
575.98	29027.32
576.14	29457.98
576.30	29336.27
576.46	29244.99
576.62	28957.11
576.79	29237.97
576.95	29462.66
577.11	29401.81
577.27	29394.79
577.43	29612.46
577.59	29488.41
577.75	29399.47
577.92	29308.19
578.08	29476.71
578.24	29263.72
578.40	29708.42
578.56	29486.07
578.72	29560.97
578.88	29804.38
579.04	29724.80
579.21	29710.76
579.37	29972.90
579.53	29535.22
579.69	29738.85
579.85	29584.37
580.01	29343.30
580.17	29109.24
580.33	29184.14
580.49	29149.03
580.65	29706.08
580.82	29511.81
580.98	29415.85
581.14	29546.92
581.30	29792.68
581.46	29469.69
581.62	29504.79
581.78	29364.36
581.94	30005.67
582.10	29001.58
582.26	29436.92
582.42	29560.97
582.58	29549.26
582.74	29811.40
582.90	29544.58
583.06	29490.75
583.22	29516.50
583.38	29390.11
583.54	29158.39
583.70	29748.21
583.86	29582.03
584.02	29544.58
584.18	29778.64
584.34	29745.87
584.50	29965.88
584.66	29546.92
584.82	29326.91
584.98	29954.18
585.14	29879.28
585.30	29308.19
585.46	29523.52
585.62	29486.07
585.78	30108.65
585.94	29591.39
586.10	29486.07
586.26	29851.19
586.42	29666.29
586.58	30038.44
586.74	29797.36
586.90	29490.75
587.06	29577.35
587.22	29486.07
587.38	29647.57
587.54	29947.15
587.70	30139.08
587.86	29663.95
588.02	29795.02
588.18	29649.91
588.34	29776.30
588.49	29535.22
588.65	29656.93
588.81	29701.40
588.97	30026.73
589.13	29525.86
589.29	30043.12
589.45	29827.79
589.61	29993.97
589.77	30118.01
589.93	29799.70
590.08	29998.65
590.24	29963.54
590.40	30204.61
590.56	29715.44
590.72	30110.99
590.88	29680.33
591.04	29797.36
591.20	30157.80
591.35	29832.47
591.51	30239.72
591.67	30281.85
591.83	30040.78
591.99	30120.35
