SpectraSuite Data File
++++++++++++++++++++++++++++++++++++
Date: Fri Oct 18 13:58:28 GMT-05:00 2013
User: bianchi
Dark Spectrum Present: No
Reference Spectrum Present: No
Number of Sampled Component Spectra: 1
Spectrometers: USB2+H05261
Integration Time (usec): 50000 (USB2+H05261)
Spectra Averaged: 1 (USB2+H05261)
Boxcar Smoothing: 0 (USB2+H05261)
Correct for Electrical Dark: No (USB2+H05261)
Strobe/Lamp Enabled: No (USB2+H05261)
Correct for Detector Non-linearity: No (USB2+H05261)
Correct for Stray Light: No (USB2+H05261)
Number of Pixels in Processed Spectrum: 2048
>>>>>Begin Processed Spectral Data<<<<<
365.73	0.00
365.92	0.00
366.12	0.00
366.32	0.00
366.52	0.00
366.72	0.00
366.91	0.00
367.11	0.00
367.31	0.00
367.51	0.00
367.70	0.00
367.90	0.00
368.10	0.00
368.30	0.00
368.49	0.00
368.69	0.00
368.89	0.00
369.09	0.00
369.28	0.00
369.48	0.00
369.68	0.00
369.87	0.00
370.07	0.00
370.27	0.00
370.47	0.00
370.66	58.51
370.86	84.26
371.06	154.48
371.25	98.30
371.45	124.05
371.65	175.54
371.84	107.66
372.04	119.37
372.24	142.77
372.44	142.77
372.63	184.90
372.83	234.05
373.03	180.22
373.22	177.88
373.42	175.54
373.62	175.54
373.81	201.29
374.01	301.93
374.21	332.36
374.40	234.05
374.60	311.29
374.79	227.03
374.99	262.14
375.19	194.26
375.38	294.91
375.58	229.37
375.78	194.26
375.97	290.23
376.17	259.80
376.37	301.93
376.56	257.46
376.76	262.14
376.95	276.18
377.15	220.01
377.35	212.99
377.54	264.48
377.74	175.54
377.93	308.95
378.13	301.93
378.33	266.82
378.52	297.25
378.72	360.44
378.91	257.46
379.11	224.69
379.31	248.10
379.50	271.50
379.70	215.33
379.89	212.99
380.09	341.72
380.28	388.53
380.48	315.97
380.68	252.78
380.87	299.59
381.07	355.76
381.26	367.46
381.46	318.31
381.65	315.97
381.85	304.27
382.04	313.63
382.24	358.10
382.43	362.78
382.63	337.04
382.83	318.31
383.02	266.82
383.22	367.46
383.41	383.85
383.61	322.99
383.80	416.62
384.00	294.91
384.19	360.44
384.39	322.99
384.58	290.23
384.78	393.21
384.97	376.83
385.17	402.57
385.36	433.00
385.56	407.25
385.75	374.49
385.95	397.89
386.14	411.93
386.34	416.62
386.53	388.53
386.72	344.06
386.92	454.06
387.11	360.44
387.31	482.15
387.50	425.98
387.70	411.93
387.89	482.15
388.09	430.66
388.28	418.96
388.48	411.93
388.67	461.09
388.86	444.70
389.06	414.27
389.25	482.15
389.45	482.15
389.64	423.64
389.84	454.06
390.03	472.79
390.22	482.15
390.42	425.98
390.61	477.47
390.81	521.94
391.00	517.26
391.19	552.37
391.39	568.75
391.58	514.92
391.78	491.51
391.97	547.69
392.16	528.96
392.36	578.11
392.55	538.32
392.75	519.60
392.94	535.98
393.13	589.82
393.33	489.17
393.52	489.17
393.71	704.50
393.91	585.13
394.10	547.69
394.29	653.01
394.49	496.19
394.68	587.47
394.88	650.67
395.07	559.39
395.26	531.30
395.46	624.92
395.65	554.71
395.84	631.94
396.04	629.60
396.23	669.39
396.42	671.73
396.62	676.41
396.81	716.20
397.00	620.24
397.19	669.39
397.39	676.41
397.58	706.84
397.77	660.03
397.97	692.80
398.16	720.88
398.35	615.56
398.55	690.46
398.74	692.80
398.93	730.25
399.12	709.18
399.32	653.01
399.51	678.76
399.70	809.83
399.90	763.01
400.09	629.60
400.28	786.42
400.47	809.83
400.67	755.99
400.86	770.04
401.05	779.40
401.24	692.80
401.44	833.23
401.63	695.14
401.82	765.36
402.01	767.70
402.21	812.17
402.40	718.54
402.59	833.23
402.78	798.12
402.97	908.13
403.17	784.08
403.36	812.17
403.55	887.06
403.74	868.34
403.93	903.45
404.13	908.13
404.32	912.81
404.51	896.43
404.70	1001.75
404.89	873.02
405.09	931.53
405.28	908.13
405.47	929.19
405.66	966.64
405.85	954.94
406.05	966.64
406.24	917.49
406.43	964.30
406.62	1036.86
406.81	1102.39
407.00	1069.62
407.20	1013.45
407.39	1036.86
407.58	1039.20
407.77	1088.35
407.96	1130.48
408.15	1050.90
408.34	1022.81
408.54	1109.41
408.73	999.41
408.92	1029.84
409.11	1200.69
409.30	1104.73
409.49	1111.75
409.68	1181.97
409.87	1212.40
410.07	1025.15
410.26	1130.48
410.45	1153.88
410.64	1135.16
410.83	1186.65
411.02	1217.08
411.21	1214.74
411.40	1240.48
411.59	1294.32
411.78	1263.89
411.98	1186.65
412.17	1261.55
412.36	1308.36
412.55	1345.81
412.74	1282.61
412.93	1409.00
413.12	1409.00
413.31	1364.53
413.50	1303.68
413.69	1458.15
413.88	1444.11
414.07	1338.79
414.26	1366.87
414.45	1401.98
414.64	1437.09
414.83	1589.22
415.02	1437.09
415.22	1441.77
415.41	1509.65
415.60	1563.48
415.79	1586.88
415.98	1502.62
416.17	1626.67
416.36	1500.28
416.55	1633.69
416.74	1619.65
416.93	1579.86
417.12	1675.82
417.31	1596.25
417.50	1589.22
417.69	1762.42
417.88	1741.36
418.07	1743.70
418.26	1722.63
418.45	1813.92
418.64	1713.27
418.83	1746.04
419.02	1818.60
419.21	1767.10
419.39	1942.64
419.58	1813.92
419.77	1732.00
419.96	1933.28
420.15	1961.37
420.34	1788.17
420.53	1776.47
420.72	1919.24
420.91	1933.28
421.10	1973.07
421.29	1909.88
421.48	1923.92
421.67	1937.96
421.86	1900.52
422.05	1907.54
422.24	1935.62
422.43	2015.20
422.61	1984.77
422.80	1891.15
422.99	1998.82
423.18	2043.29
423.37	2073.71
423.56	1949.67
423.75	1973.07
423.94	1905.20
424.13	1837.32
424.32	1994.14
424.50	1982.43
424.69	2045.63
424.88	2174.36
425.07	2097.12
425.26	1966.05
425.45	2017.54
425.64	1998.82
425.83	1998.82
426.01	2001.16
426.20	1996.48
426.39	2073.71
426.58	2047.97
426.77	2083.08
426.96	2083.08
427.15	2108.82
427.33	2043.29
427.52	2083.08
427.71	2097.12
427.90	2141.59
428.09	2092.44
428.28	2101.80
428.46	2209.47
428.65	2197.76
428.84	2275.00
429.03	2221.17
429.22	2019.88
429.40	2190.74
429.59	2153.29
429.78	2148.61
429.97	2172.02
430.16	2239.89
430.34	2300.75
430.53	2347.56
430.72	2169.68
430.91	2296.07
431.10	2232.87
431.28	2394.37
431.47	2307.77
431.66	2317.13
431.85	2312.45
432.03	2541.82
432.22	2413.09
432.41	2368.62
432.60	2464.58
432.79	2333.51
432.97	2427.14
433.16	2413.09
433.35	2382.67
433.54	2495.01
433.72	2504.37
433.91	2450.54
434.10	2314.79
434.28	2450.54
434.47	2450.54
434.66	2518.42
434.85	2504.37
435.03	2581.61
435.22	2509.05
435.41	2733.75
435.59	2686.94
435.78	2736.09
435.97	2567.57
436.16	2581.61
436.34	2703.32
436.53	2616.72
436.72	2726.72
436.90	2576.93
437.09	2691.62
437.28	2693.96
437.46	2712.68
437.65	2761.83
437.84	2843.75
438.02	2686.94
438.21	2745.45
438.40	2682.25
438.58	2834.39
438.77	2897.58
438.96	2768.85
439.14	2832.05
439.33	2918.65
439.52	2913.97
439.70	2953.76
439.89	3019.29
440.08	3033.33
440.26	3000.57
440.45	3012.27
440.63	3108.23
440.82	3119.93
441.01	3087.17
441.19	3138.66
441.38	3190.15
441.57	3190.15
441.75	3119.93
441.94	3105.89
442.12	3159.72
442.31	3215.90
442.50	3197.17
442.68	3283.77
442.87	3269.73
443.05	3279.09
443.24	3370.37
443.43	3358.67
443.61	3459.31
443.80	3351.65
443.98	3225.26
444.17	3145.68
444.35	3494.42
444.54	3438.25
444.73	3452.29
444.91	3361.01
445.10	3449.95
445.28	3449.95
445.47	3251.00
445.65	3375.05
445.84	3442.93
446.02	3545.91
446.21	3389.10
446.39	3346.97
446.58	3414.84
446.77	3358.67
446.95	3344.63
447.14	3449.95
447.32	3641.87
447.51	3391.44
447.69	3398.46
447.88	3576.34
448.06	3440.59
448.25	3351.65
448.43	3538.89
448.62	3538.89
448.80	3447.61
448.99	3524.85
449.17	3562.30
449.36	3485.06
449.54	3609.11
449.73	3653.58
449.91	3686.34
450.10	3564.64
450.28	3620.81
450.46	3529.53
450.65	3571.66
450.83	3709.75
451.02	3742.52
451.20	3859.54
451.39	3829.12
451.57	3574.00
451.76	3653.58
451.94	3833.80
452.13	3655.92
452.31	3763.58
452.49	3726.13
452.68	3826.78
452.86	3819.75
453.05	3733.15
453.23	3941.46
453.42	3983.59
453.60	3803.37
453.78	3918.06
453.97	3768.26
454.15	3756.56
454.34	3915.72
454.52	3925.08
454.70	3932.10
454.89	4056.15
455.07	4037.42
455.26	3929.76
455.44	4112.32
455.62	4042.11
455.81	4060.83
455.99	4119.34
456.17	4088.92
456.36	4191.90
456.54	4269.14
456.73	4049.13
456.91	4238.71
457.09	4234.03
457.28	4367.44
457.46	4430.63
457.64	4271.48
457.83	4348.72
458.01	4189.56
458.19	4374.46
458.38	4383.82
458.56	4390.84
458.74	4442.34
458.93	4269.14
459.11	4414.25
459.29	4315.95
459.48	4493.83
459.66	4367.44
459.84	4519.57
460.03	4552.34
460.21	4444.68
460.39	4521.92
460.57	4437.66
460.76	4535.96
460.94	4521.92
461.12	4449.36
461.31	4746.61
461.49	4671.71
461.67	4498.51
461.85	4669.37
462.04	4767.67
462.22	4767.67
462.40	4662.35
462.59	4753.63
462.77	4779.37
462.95	4650.64
463.13	4833.21
463.32	4613.20
463.50	4718.52
463.68	4830.87
463.86	4727.88
464.05	4690.43
464.23	4690.43
464.41	4877.68
464.59	4601.49
464.78	4826.18
464.96	4748.95
465.14	4880.02
465.32	4894.06
465.50	4786.40
465.69	4959.60
465.87	4992.36
466.05	4812.14
466.23	4912.78
466.41	4952.57
466.60	5200.67
466.78	5048.54
466.96	5032.15
467.14	4896.40
467.32	5062.58
467.51	5111.73
467.69	4947.89
467.87	5210.03
468.05	5111.73
468.23	5081.30
468.41	5046.20
468.60	5071.94
468.78	5074.28
468.96	5191.31
469.14	5273.23
469.32	5280.25
469.50	5165.56
469.69	5334.08
469.87	5336.42
470.05	5376.21
470.23	5394.93
470.41	5366.85
470.59	5406.64
470.77	5394.93
470.95	5317.70
471.14	5610.26
471.32	5474.51
471.50	5558.77
471.68	5661.76
471.86	5657.07
472.04	5514.30
472.22	5561.11
472.40	5685.16
472.58	5673.46
472.77	5781.12
472.95	5792.83
473.13	5949.64
473.31	5687.50
473.49	5687.50
473.67	5647.71
473.85	5776.44
474.03	5951.98
474.21	5977.73
474.39	6031.56
474.57	5921.56
474.75	6069.01
474.93	5975.39
475.12	6045.60
475.30	6050.28
475.48	6164.97
475.66	6113.48
475.84	6225.82
476.02	6429.45
476.20	6251.57
476.38	6403.71
476.56	6602.65
476.74	6502.01
476.92	6628.40
477.10	6483.28
477.28	6574.56
477.46	6607.33
477.64	6565.20
477.82	6876.49
478.00	6965.43
478.18	6911.60
478.36	6785.21
478.54	7126.93
478.72	6920.96
478.90	7119.91
479.08	7047.35
479.26	6939.69
479.44	7227.57
479.62	7377.37
479.80	7290.77
479.98	7311.83
480.16	7337.58
480.34	7206.51
480.52	7588.02
480.70	7602.06
480.88	7522.48
481.06	7609.08
481.24	7475.67
481.41	7693.34
481.59	8023.36
481.77	7929.74
481.95	8105.28
482.13	7915.69
482.31	7927.39
482.49	8030.38
482.67	8149.75
482.85	8250.39
483.03	8243.37
483.21	8552.32
483.39	8489.12
483.57	8514.87
483.74	8655.30
483.92	8526.57
484.10	8526.57
484.28	8917.44
484.46	8922.12
484.64	9273.20
484.82	8975.95
485.00	9015.74
485.18	9165.54
485.35	9282.56
485.53	9261.50
485.71	9352.78
485.89	9495.55
486.07	9366.82
486.25	9549.39
486.43	9535.34
486.61	9664.07
486.78	9617.26
486.96	9841.95
487.14	9844.29
487.32	9893.44
487.50	10038.56
487.68	9935.57
487.85	10303.04
488.03	10230.48
488.21	10340.49
488.39	10415.38
488.57	10604.97
488.75	10471.56
488.92	10965.41
489.10	10895.19
489.28	10848.38
489.46	10876.47
489.64	10848.38
489.81	11276.70
489.99	11042.65
490.17	11328.19
490.35	11440.54
490.53	11475.65
490.70	11370.32
490.88	11499.05
491.06	11389.05
491.24	11637.14
491.41	11700.34
491.59	11999.93
491.77	11772.89
491.95	11810.34
492.13	12133.34
492.30	12053.76
492.48	12149.72
492.66	12198.87
492.84	12231.64
493.01	12486.76
493.19	12416.54
493.37	12428.24
493.54	12781.67
493.72	12840.18
493.90	12524.21
494.08	12856.56
494.25	13043.81
494.43	12788.69
494.61	13128.06
494.79	13376.16
494.96	13284.88
495.14	13359.78
495.32	13427.65
495.49	13334.03
495.67	13263.82
495.85	13537.66
496.02	13476.80
496.20	13785.76
496.38	13844.27
496.55	13853.63
496.73	13954.27
496.91	14026.83
497.09	14284.29
497.26	14047.90
497.44	14326.42
497.62	14410.68
497.79	14494.94
497.97	14349.82
498.14	14415.36
498.32	14635.37
498.50	14604.94
498.67	14869.42
498.85	14974.75
499.03	14799.21
499.20	15019.22
499.38	15185.40
499.56	14888.15
499.73	15342.21
499.91	15272.00
500.08	15279.02
500.26	15414.77
500.44	15440.51
500.61	15379.66
500.79	15414.77
500.97	15363.28
501.14	15679.25
501.32	15557.54
501.49	15695.63
501.67	15393.70
501.84	15852.45
502.02	15894.58
502.20	16175.44
502.37	16112.25
502.55	15934.37
502.72	16100.55
502.90	16156.72
503.07	15981.18
503.25	15915.64
503.43	16070.12
503.60	16203.53
503.78	16449.28
503.95	16374.39
504.13	16257.36
504.30	16191.83
504.48	16592.06
504.65	16404.81
504.83	16903.35
505.01	16758.24
505.18	16608.44
505.36	17106.98
505.53	16856.54
505.71	16769.94
505.88	17071.87
506.06	16669.30
506.23	17022.72
506.41	16957.18
506.58	17266.13
506.76	17317.62
506.93	17177.19
507.11	17163.15
507.28	17385.50
507.46	17331.67
507.63	17310.60
507.81	17785.73
507.98	17598.49
508.16	17397.20
508.33	17500.19
508.50	17523.59
508.68	17649.98
508.85	18099.36
509.03	17687.43
509.20	18113.41
509.38	18090.00
509.55	18207.03
509.73	18391.93
509.90	18183.62
510.08	18071.28
510.25	18085.32
510.42	18291.29
510.60	18288.95
510.77	18513.64
510.95	18403.63
511.12	18560.45
511.30	18422.36
511.47	18843.65
511.64	18618.96
511.82	18876.42
511.99	18906.85
512.17	18904.51
512.34	18822.59
512.51	18862.38
512.69	19192.39
512.86	18747.69
513.04	19040.26
513.21	19133.88
513.38	19426.45
513.56	19246.23
513.73	19161.97
513.90	19110.47
514.08	19094.09
514.25	19410.06
514.43	19583.26
514.60	19871.15
514.77	19721.35
514.95	19545.81
515.12	19410.06
515.29	19489.64
515.47	19594.96
515.64	19857.10
515.81	19805.61
515.99	19899.23
516.16	19892.21
516.33	20191.80
516.51	20009.24
516.68	19719.01
516.85	20166.06
517.03	20086.48
517.20	20219.89
517.37	20313.51
517.54	20311.17
517.72	20428.20
517.89	20367.34
518.06	20409.47
518.24	20269.04
518.41	20594.37
518.58	20519.48
518.75	20730.12
518.93	20467.98
519.10	20479.69
519.27	20863.54
519.45	20826.09
519.62	20989.92
519.79	20903.32
519.96	21153.76
520.14	21205.25
520.31	20973.54
520.48	20975.88
520.65	20798.00
520.83	21088.23
521.00	21266.11
521.17	20987.58
521.34	21088.23
521.52	21350.37
521.69	21420.58
521.86	21092.91
522.03	21429.94
522.20	21453.35
522.38	21642.93
522.55	21509.52
522.72	21261.43
522.89	21666.34
523.07	21977.63
523.24	21898.05
523.41	21921.46
523.58	21628.89
523.75	21708.47
523.92	22148.49
524.10	21884.01
524.27	22005.72
524.44	22146.15
524.61	22043.17
524.78	22235.09
524.96	22155.51
525.13	22167.21
525.30	22249.13
525.47	22129.77
525.64	22380.20
525.81	22352.12
525.98	22560.42
526.16	22349.78
526.33	22415.31
526.50	22787.46
526.67	22600.21
526.84	22295.94
527.01	22377.86
527.18	22796.82
527.36	22742.99
527.53	22558.08
527.70	23199.39
527.87	23161.94
528.04	22712.56
528.21	22841.29
528.38	22845.97
528.55	22972.36
528.72	23208.75
528.89	23545.79
529.07	23035.55
529.24	23126.83
529.41	23005.13
529.58	23323.44
529.75	22991.08
529.92	23204.07
530.09	23393.65
530.26	23342.16
530.43	23351.52
530.60	23590.26
530.77	23496.64
530.94	23569.19
531.11	23513.02
531.28	23634.73
531.46	23449.83
531.63	23906.23
531.80	23611.32
531.97	23552.81
532.14	24079.43
532.31	23506.00
532.48	24023.26
532.65	24079.43
532.82	23470.89
532.99	23892.19
533.16	23852.40
533.33	24140.29
533.50	24128.58
533.67	24135.60
533.84	23934.32
534.01	24088.79
534.18	24070.07
534.35	24332.21
534.52	24203.48
534.69	24355.61
534.86	24376.68
535.03	24203.48
535.20	24091.13
535.37	24648.18
535.54	24659.88
535.71	24290.08
535.88	24252.63
536.05	24638.82
536.22	24907.98
536.38	24648.18
536.55	24858.83
536.72	24657.54
536.89	24634.14
537.06	24496.05
537.23	24409.45
537.40	24723.08
537.57	25340.98
537.74	24870.53
537.91	25240.34
538.08	25083.52
538.25	24975.86
538.42	24844.79
538.59	24795.64
538.75	24877.55
538.92	24910.32
539.09	25184.16
539.26	24954.79
539.43	25151.40
539.60	25060.12
539.77	25193.53
539.94	25247.36
540.11	24893.94
540.28	25329.28
540.44	24936.07
540.61	25539.93
540.78	25340.98
540.95	24980.54
541.12	25406.52
541.29	25792.70
541.46	25649.93
541.62	25493.12
541.79	25399.49
541.96	25135.01
542.13	25305.87
542.30	25556.31
542.47	25762.28
542.63	25989.31
542.80	26099.31
542.97	26148.46
543.14	26026.76
543.31	26043.14
543.48	25919.09
543.64	26019.74
543.81	26389.54
543.98	26415.29
544.15	26206.98
544.32	26419.97
544.48	26483.16
544.65	25919.09
544.82	26382.52
544.99	26050.16
545.16	26075.91
545.32	26096.97
545.49	26199.96
545.66	26651.68
545.83	26356.77
546.00	26705.51
546.16	26469.12
546.33	26412.95
546.50	26054.84
546.67	26469.12
546.83	25972.92
547.00	26300.60
547.17	26473.80
547.34	26426.99
547.50	26576.78
547.67	26588.49
547.84	27080.00
548.00	26583.80
548.17	26909.14
548.34	27239.15
548.51	27112.77
548.67	27243.84
548.84	26939.57
549.01	26616.57
549.18	26590.83
549.34	26834.24
549.51	26747.64
549.68	27239.15
549.84	27040.21
550.01	27307.03
550.18	26991.06
550.34	26827.22
550.51	26998.08
550.68	27311.71
550.84	27168.94
551.01	27047.23
551.18	27072.98
551.34	26838.92
551.51	27175.96
551.68	27316.39
551.84	27374.91
552.01	27487.25
552.18	27421.72
552.34	27332.78
552.51	27133.83
552.68	27452.14
552.84	27094.04
553.01	27590.24
553.18	27171.28
553.34	27768.12
553.51	27236.81
553.67	27718.96
553.84	27758.75
554.01	27866.42
554.17	27531.72
554.34	27505.98
554.51	27290.65
554.67	27651.09
554.84	27733.01
555.00	27735.35
555.17	27398.31
555.33	28013.87
555.50	27517.68
555.67	27953.02
555.83	27868.76
556.00	27604.28
556.16	27915.57
556.33	27962.38
556.50	27782.16
556.66	27983.44
556.83	27669.81
556.99	28313.46
557.16	28292.40
557.32	28287.71
557.49	28446.87
557.65	27744.71
557.82	28261.97
557.98	28126.22
558.15	28074.73
558.32	28126.22
558.48	28151.96
558.65	27988.13
558.81	27908.55
558.98	28065.36
559.14	28278.35
559.31	28067.70
559.47	28203.46
559.64	28386.02
559.80	28297.08
559.97	28283.03
560.13	28442.19
560.30	28315.80
560.46	28701.99
560.63	28437.51
560.79	28423.47
560.96	28463.25
561.12	28474.96
561.29	28290.06
561.45	27969.40
561.61	28318.14
561.78	28498.36
561.94	28591.98
562.11	28580.28
562.27	28524.11
562.44	28807.31
562.60	28599.01
562.77	28360.27
562.93	28208.14
563.10	28767.52
563.26	28685.61
563.42	28889.23
563.59	28460.91
563.75	28484.32
563.92	28697.31
564.08	28554.54
564.24	28620.07
564.41	28379.00
564.57	28409.42
564.74	28840.08
564.90	28718.37
565.07	28870.51
565.23	28973.49
565.39	28690.29
565.56	28790.93
565.72	28795.61
565.88	29088.18
566.05	28226.86
566.21	28727.74
566.38	28795.61
566.54	28811.99
566.70	29085.84
566.87	29017.96
567.03	28924.34
567.19	29418.19
567.36	28652.84
567.52	28875.19
567.68	28858.81
567.85	28938.38
568.01	28648.16
568.17	29132.65
568.34	29118.60
568.50	28896.25
568.66	28936.04
568.83	28739.44
568.99	28809.65
569.15	28762.84
569.32	29308.19
569.48	28692.63
569.64	28952.43
569.81	29193.50
569.97	29422.87
570.13	28737.10
570.30	29156.05
570.46	28858.81
570.62	29329.25
570.78	28919.66
570.95	28591.98
571.11	29195.84
571.27	28800.29
571.43	29057.75
571.60	29160.73
571.76	28943.06
571.92	28875.19
572.09	28872.85
572.25	29263.72
572.41	29022.64
572.57	29261.38
572.74	29219.25
572.90	29092.86
573.06	29277.76
573.22	29450.96
573.38	29244.99
573.55	29326.91
573.71	29570.33
573.87	29514.16
574.03	29296.49
574.20	29373.72
574.36	29179.46
574.52	29195.84
574.68	28919.66
574.84	29429.90
575.01	29565.65
575.17	29453.30
575.33	29214.57
575.49	29425.22
575.65	29404.15
575.82	29649.91
575.98	29064.77
576.14	29322.23
576.30	29134.99
576.46	29120.95
576.62	29156.05
576.79	29085.84
576.95	29139.67
577.11	29230.95
577.27	29352.66
577.43	29575.01
577.59	29319.89
577.75	29326.91
577.92	29266.06
578.08	29481.39
578.24	29198.18
578.40	29322.23
578.56	29347.98
578.72	29067.11
578.88	29553.94
579.04	29577.35
579.21	29069.45
579.37	29163.08
579.53	29713.10
579.69	29570.33
579.85	29123.29
580.01	29509.47
580.17	29060.09
580.33	29418.19
580.49	29039.03
580.65	29572.67
580.82	29488.41
580.98	29282.44
581.14	29591.39
581.30	29432.24
581.46	29474.37
581.62	29399.47
581.78	28994.56
581.94	29607.78
582.10	29312.87
582.26	29362.02
582.42	29317.55
582.58	29329.25
582.74	29743.53
582.90	29645.23
583.06	29490.75
583.22	29432.24
583.38	29535.22
583.54	29303.51
583.70	29565.65
583.86	29673.31
584.02	29127.97
584.18	29593.73
584.34	29624.16
584.50	29708.42
584.66	29432.24
584.82	29294.14
584.98	29289.46
585.14	29181.80
585.30	29532.88
585.46	29366.70
585.62	29404.15
585.78	29848.85
585.94	28870.51
586.10	29795.02
586.26	29371.38
586.42	29558.63
586.58	29804.38
586.74	29640.54
586.90	28959.45
587.06	29493.09
587.22	29331.59
587.38	29628.84
587.54	29591.39
587.70	29813.74
587.86	30228.02
588.02	29530.54
588.18	30005.67
588.34	29928.43
588.49	29364.36
588.65	29638.20
588.81	29640.54
588.97	29420.53
589.13	29607.78
589.29	29296.49
589.45	29937.79
589.61	30178.87
589.77	29881.62
589.93	29797.36
590.08	30059.50
590.24	29954.18
590.40	30019.71
590.56	30078.22
590.72	29715.44
590.88	29734.17
591.04	29413.51
591.20	30012.69
591.35	29956.52
591.51	30134.40
591.67	30148.44
591.83	30384.83
591.99	30174.19
