SpectraSuite Data File
++++++++++++++++++++++++++++++++++++
Date: Fri Oct 18 13:58:25 GMT-05:00 2013
User: bianchi
Dark Spectrum Present: No
Reference Spectrum Present: No
Number of Sampled Component Spectra: 1
Spectrometers: USB2+H05261
Integration Time (usec): 50000 (USB2+H05261)
Spectra Averaged: 1 (USB2+H05261)
Boxcar Smoothing: 0 (USB2+H05261)
Correct for Electrical Dark: No (USB2+H05261)
Strobe/Lamp Enabled: No (USB2+H05261)
Correct for Detector Non-linearity: No (USB2+H05261)
Correct for Stray Light: No (USB2+H05261)
Number of Pixels in Processed Spectrum: 2048
>>>>>Begin Processed Spectral Data<<<<<
365.73	0.00
365.92	0.00
366.12	0.00
366.32	0.00
366.52	0.00
366.72	0.00
366.91	0.00
367.11	0.00
367.31	0.00
367.51	0.00
367.70	0.00
367.90	0.00
368.10	0.00
368.30	0.00
368.49	0.00
368.69	0.00
368.89	0.00
369.09	0.00
369.28	0.00
369.48	0.00
369.68	0.00
369.87	0.00
370.07	0.00
370.27	0.00
370.47	0.00
370.66	112.35
370.86	67.88
371.06	187.24
371.25	177.88
371.45	182.56
371.65	152.13
371.84	135.75
372.04	159.16
372.24	177.88
372.44	220.01
372.63	187.24
372.83	215.33
373.03	215.33
373.22	220.01
373.42	201.29
373.62	142.77
373.81	252.78
374.01	184.90
374.21	208.31
374.40	248.10
374.60	330.02
374.79	264.48
374.99	271.50
375.19	205.97
375.38	217.67
375.58	210.65
375.78	346.40
375.97	222.35
376.17	318.31
376.37	266.82
376.56	215.33
376.76	217.67
376.95	273.84
377.15	234.05
377.35	292.57
377.54	290.23
377.74	220.01
377.93	301.93
378.13	327.68
378.33	205.97
378.52	332.36
378.72	294.91
378.91	306.61
379.11	262.14
379.31	320.65
379.50	294.91
379.70	353.42
379.89	262.14
380.09	308.95
380.28	264.48
380.48	273.84
380.68	332.36
380.87	273.84
381.07	308.95
381.26	301.93
381.46	337.04
381.65	379.17
381.85	273.84
382.04	337.04
382.24	376.83
382.43	315.97
382.63	360.44
382.83	322.99
383.02	339.38
383.22	348.74
383.41	362.78
383.61	351.08
383.80	463.43
384.00	306.61
384.19	421.30
384.39	374.49
384.58	360.44
384.78	416.62
384.97	362.78
385.17	379.17
385.36	376.83
385.56	360.44
385.75	341.72
385.95	372.15
386.14	433.00
386.34	430.66
386.53	376.83
386.72	404.91
386.92	390.87
387.11	435.34
387.31	437.68
387.50	435.34
387.70	517.26
387.89	423.64
388.09	430.66
388.28	461.09
388.48	372.15
388.67	393.21
388.86	393.21
389.06	444.70
389.25	468.11
389.45	400.23
389.64	519.60
389.84	519.60
390.03	433.00
390.22	543.00
390.42	428.32
390.61	440.02
390.81	514.92
391.00	528.96
391.19	594.50
391.39	444.70
391.58	510.24
391.78	507.90
391.97	528.96
392.16	465.77
392.36	507.90
392.55	407.25
392.75	454.06
392.94	493.85
393.13	575.77
393.33	568.75
393.52	552.37
393.71	603.86
393.91	552.37
394.10	585.13
394.29	606.20
394.49	531.30
394.68	596.84
394.88	573.43
395.07	568.75
395.26	585.13
395.46	589.82
395.65	681.10
395.84	622.58
396.04	683.44
396.23	685.78
396.42	699.82
396.62	592.16
396.81	653.01
397.00	716.20
397.19	592.16
397.39	660.03
397.58	634.29
397.77	674.07
397.97	692.80
398.16	634.29
398.35	727.91
398.55	739.61
398.74	657.69
398.93	645.99
399.12	692.80
399.32	702.16
399.51	669.39
399.70	809.83
399.90	753.65
400.09	760.67
400.28	770.04
400.47	678.76
400.67	854.30
400.86	781.74
401.05	690.46
401.24	758.33
401.44	889.40
401.63	774.72
401.82	751.31
402.01	816.85
402.21	723.23
402.40	894.08
402.59	830.89
402.78	870.68
402.97	837.91
403.17	767.70
403.36	847.27
403.55	896.43
403.74	964.30
403.93	763.01
404.13	910.47
404.32	929.19
404.51	863.66
404.70	1039.20
404.89	961.96
405.09	882.38
405.28	889.40
405.47	922.17
405.66	957.28
405.85	966.64
406.05	1022.81
406.24	1027.50
406.43	997.07
406.62	1006.43
406.81	1123.46
407.00	1011.11
407.20	1004.09
407.39	983.02
407.58	1128.14
407.77	1048.56
407.96	1121.12
408.15	1188.99
408.34	1100.05
408.54	1125.80
408.73	1086.01
408.92	1067.28
409.11	1062.60
409.30	1130.48
409.49	1006.43
409.68	1186.65
409.87	1130.48
410.07	1151.54
410.26	1144.52
410.45	1191.33
410.64	1221.76
410.83	1174.95
411.02	1170.27
411.21	1315.38
411.40	1245.16
411.59	1174.95
411.78	1273.25
411.98	1207.72
412.17	1242.82
412.36	1273.25
412.55	1275.59
412.74	1308.36
412.93	1376.24
413.12	1310.70
413.31	1390.28
413.50	1423.05
413.69	1451.13
413.88	1469.86
414.07	1465.18
414.26	1462.83
414.45	1481.56
414.64	1413.68
414.83	1380.92
415.02	1509.65
415.22	1509.65
415.41	1514.33
415.60	1523.69
415.79	1565.82
415.98	1724.97
416.17	1689.87
416.36	1533.05
416.55	1561.14
416.74	1640.72
416.93	1699.23
417.12	1673.48
417.31	1724.97
417.50	1668.80
417.69	1654.76
417.88	1764.76
418.07	1827.96
418.26	1722.63
418.45	1783.49
418.64	1778.81
418.83	1748.38
419.02	1671.14
419.21	1757.74
419.39	1708.59
419.58	1818.60
419.77	1884.13
419.96	1811.57
420.15	1895.83
420.34	1891.15
420.53	1863.07
420.72	1902.86
420.91	1865.41
421.10	1942.64
421.29	1954.35
421.48	1930.94
421.67	1881.79
421.86	1907.54
422.05	1956.69
422.24	1994.14
422.43	1975.41
422.61	1933.28
422.80	2005.84
422.99	1942.64
423.18	2134.57
423.37	1959.03
423.56	1968.39
423.75	1996.48
423.94	1914.56
424.13	1860.73
424.32	2019.88
424.50	1975.41
424.69	2113.50
424.88	1987.11
425.07	1991.80
425.26	1980.09
425.45	1961.37
425.64	2101.80
425.83	1940.30
426.01	2026.90
426.20	2139.25
426.39	2087.76
426.58	2001.16
426.77	2024.56
426.96	2115.84
427.15	2104.14
427.33	2221.17
427.52	2141.59
427.71	2078.40
427.90	2115.84
428.09	2162.66
428.28	2279.68
428.46	2188.40
428.65	2293.72
428.84	2251.60
429.03	2251.60
429.22	2181.38
429.40	2289.04
429.59	2303.09
429.78	2246.91
429.97	2136.91
430.16	2242.23
430.34	2293.72
430.53	2275.00
430.72	2347.56
430.91	2284.36
431.10	2450.54
431.28	2422.45
431.47	2345.22
431.66	2356.92
431.85	2459.90
432.03	2541.82
432.22	2452.88
432.41	2441.18
432.60	2399.05
432.79	2373.30
432.97	2457.56
433.16	2471.61
433.35	2485.65
433.54	2417.77
433.72	2600.34
433.91	2342.88
434.10	2471.61
434.28	2518.42
434.47	2595.65
434.66	2654.17
434.85	2572.25
435.03	2544.16
435.22	2712.68
435.41	2715.02
435.59	2656.51
435.78	2532.46
435.97	2663.53
436.16	2715.02
436.34	2612.04
436.53	2759.49
436.72	2834.39
436.90	2612.04
437.09	2733.75
437.28	2656.51
437.46	2712.68
437.65	2750.13
437.84	2745.45
438.02	2780.56
438.21	2839.07
438.40	2733.75
438.58	2860.13
438.77	2974.82
438.96	2864.82
439.14	2904.60
439.33	2881.20
439.52	3052.06
439.70	3016.95
439.89	2988.86
440.08	3033.33
440.26	3080.14
440.45	2974.82
440.63	3061.42
440.82	3138.66
441.01	3159.72
441.19	3126.96
441.38	3192.49
441.57	3054.40
441.75	3412.50
441.94	3218.24
442.12	3190.15
442.31	3405.48
442.50	3337.60
442.68	3332.92
442.87	3152.70
443.05	3353.99
443.24	3382.07
443.43	3363.35
443.61	3440.59
443.80	3410.16
443.98	3403.14
444.17	3225.26
444.35	3405.48
444.54	3445.27
444.73	3599.74
444.91	3438.25
445.10	3424.20
445.28	3412.50
445.47	3426.54
445.65	3421.86
445.84	3513.14
446.02	3478.04
446.21	3538.89
446.39	3480.38
446.58	3400.80
446.77	3581.02
446.95	3269.73
447.14	3421.86
447.32	3611.45
447.51	3515.48
447.69	3513.14
447.88	3506.12
448.06	3616.13
448.25	3541.23
448.43	3463.99
448.62	3581.02
448.80	3459.31
448.99	3655.92
449.17	3695.71
449.36	3581.02
449.54	3566.98
449.73	3789.33
449.91	3653.58
450.10	3681.66
450.28	3758.90
450.46	3681.66
450.65	3770.60
450.83	3768.26
451.02	3522.51
451.20	3791.67
451.39	3831.46
451.57	3775.28
451.76	3843.16
451.94	3826.78
452.13	3922.74
452.31	3791.67
452.49	3728.47
452.68	3705.07
452.86	4037.42
453.05	4018.70
453.23	3875.93
453.42	3896.99
453.60	3911.04
453.78	3985.93
453.97	3850.18
454.15	3889.97
454.34	3861.88
454.52	4105.30
454.70	3882.95
454.89	3988.27
455.07	3878.27
455.26	4205.94
455.44	4035.08
455.62	4175.52
455.81	4248.07
455.99	4077.21
456.17	4119.34
456.36	4166.15
456.54	4266.80
456.73	4243.39
456.91	4362.76
457.09	4285.52
457.28	4313.61
457.46	4166.15
457.64	4301.90
457.83	4243.39
458.01	4374.46
458.19	4292.54
458.38	4297.22
458.56	4407.23
458.74	4353.40
458.93	4362.76
459.11	4454.04
459.29	4376.80
459.48	4458.72
459.66	4517.23
459.84	4346.37
460.03	4634.26
460.21	4493.83
460.39	4669.37
460.57	4491.49
460.76	4564.04
460.94	4774.69
461.12	4617.88
461.31	4564.04
461.49	4479.79
461.67	4589.79
461.85	4669.37
462.04	4580.43
462.22	4718.52
462.40	4863.63
462.59	4748.95
462.77	4676.39
462.95	4821.50
463.13	4744.27
463.32	4723.20
463.50	4812.14
463.68	4816.82
463.86	4821.50
464.05	4732.56
464.23	4819.16
464.41	4915.12
464.59	4739.58
464.78	4922.15
464.96	4816.82
465.14	4858.95
465.32	5083.64
465.50	4924.49
465.69	4971.30
465.87	4997.04
466.05	4919.81
466.23	5041.51
466.41	5032.15
466.60	5130.45
466.78	5018.11
466.96	4992.36
467.14	5144.50
467.32	5149.18
467.51	5064.92
467.69	4990.02
467.87	5186.63
468.05	5233.44
468.23	5039.17
468.41	5095.35
468.60	5165.56
468.78	5348.12
468.96	5291.95
469.14	5074.28
469.32	5277.91
469.50	5062.58
469.69	5327.06
469.87	5537.71
470.05	5416.00
470.23	5315.36
470.41	5357.49
470.59	5425.36
470.77	5425.36
470.95	5394.93
471.14	5715.59
471.32	5444.09
471.50	5673.46
471.68	5619.63
471.86	5523.66
472.04	5680.48
472.22	5563.45
472.40	5575.16
472.58	5743.67
472.77	5659.42
472.95	5870.06
473.13	6017.52
473.31	5701.54
473.49	5645.37
473.67	5753.04
473.85	5926.24
474.03	5858.36
474.21	5996.45
474.39	6045.60
474.57	6101.78
474.75	6057.31
474.93	6076.03
475.12	6080.71
475.30	6122.84
475.48	6342.85
475.66	6162.63
475.84	6157.95
476.02	6279.66
476.20	6244.55
476.38	6408.39
476.56	6663.51
476.74	6509.03
476.92	6401.37
477.10	6511.37
477.28	6696.27
477.46	6839.05
477.64	6644.78
477.82	6782.87
478.00	6960.75
478.18	6888.20
478.36	6885.86
478.54	7059.06
478.72	7030.97
478.90	7218.21
479.08	7253.32
479.26	7290.77
479.44	7213.53
479.62	7220.55
479.80	7309.49
479.98	7396.09
480.16	7431.20
480.34	7590.36
480.52	7756.54
480.70	7709.72
480.88	7311.83
481.06	7501.42
481.24	7698.02
481.41	7784.62
481.59	7948.46
481.77	7948.46
481.95	8077.19
482.13	8154.43
482.31	8166.13
482.49	8241.03
482.67	8222.30
482.85	8210.60
483.03	8671.68
483.21	8479.76
483.39	8552.32
483.57	8482.10
483.74	8531.25
483.92	8542.96
484.10	8697.43
484.28	8891.70
484.46	9071.92
484.64	9217.03
484.82	9013.40
485.00	8938.51
485.18	9397.25
485.35	9369.16
485.53	9268.52
485.71	9287.25
485.89	9673.43
486.07	9371.50
486.25	9284.91
486.43	9490.87
486.61	9891.10
486.78	9474.49
486.96	9877.06
487.14	9827.91
487.32	9895.78
487.50	10003.45
487.68	10429.43
487.85	10289.00
488.03	10656.46
488.21	10499.64
488.39	10583.90
488.57	10473.90
488.75	10597.95
488.92	10747.74
489.10	10721.99
489.28	10757.10
489.46	10993.50
489.64	11007.54
489.81	11197.12
489.99	11279.04
490.17	11351.60
490.35	11342.24
490.53	11424.15
490.70	11770.55
490.88	11679.27
491.06	11808.00
491.24	11822.05
491.41	11620.76
491.59	11918.01
491.77	11929.71
491.95	11988.22
492.13	12198.87
492.30	12168.45
492.48	12351.01
492.66	12475.06
492.84	12264.41
493.01	12489.10
493.19	12477.40
493.37	12730.17
493.54	12905.71
493.72	12905.71
493.90	12690.38
494.08	12837.84
494.25	12980.61
494.43	13270.84
494.61	13170.19
494.79	13177.22
494.96	13256.79
495.14	13198.28
495.32	13266.16
495.49	13600.85
495.67	13497.87
495.85	13778.73
496.02	13760.01
496.20	13963.64
496.38	13692.13
496.55	13701.50
496.73	14080.66
496.91	14054.92
497.09	14223.44
497.26	14190.67
497.44	14373.23
497.62	14471.53
497.79	14436.42
497.97	14424.72
498.14	14628.35
498.32	14719.63
498.50	14794.53
498.67	14995.81
498.85	14773.46
499.03	14747.72
499.20	15000.49
499.38	15033.26
499.56	15208.80
499.73	15367.96
499.91	15267.31
500.08	15314.13
500.26	15105.82
500.44	15257.95
500.61	15389.02
500.79	15288.38
500.97	15335.19
501.14	15847.77
501.32	15761.17
501.49	15899.26
501.67	15786.91
501.84	15882.88
502.02	15747.12
502.20	15826.70
502.37	16177.78
502.55	16056.08
502.72	15999.90
502.90	16142.67
503.07	16011.60
503.25	16273.74
503.43	16224.59
503.60	16086.50
503.78	16519.50
503.95	16580.36
504.13	16580.36
504.30	16526.52
504.48	16718.45
504.65	16531.20
504.83	16996.97
505.01	16769.94
505.18	17247.41
505.36	17062.51
505.53	17032.08
505.71	17144.42
505.88	16952.50
506.06	17071.87
506.23	17525.93
506.41	17481.46
506.58	17305.92
506.76	17631.26
506.93	17577.42
507.11	17390.18
507.28	17572.74
507.46	17558.70
507.63	17694.45
507.81	17909.78
507.98	17661.68
508.16	17825.52
508.33	18043.19
508.50	17994.04
508.68	17436.99
508.85	18218.73
509.03	18092.34
509.20	17965.95
509.38	18305.33
509.55	18476.19
509.73	18417.68
509.90	18139.15
510.08	18202.35
510.25	18094.68
510.42	18462.15
510.60	18506.62
510.77	18845.99
510.95	18616.62
511.12	18436.40
511.30	18860.04
511.47	18829.61
511.64	18937.27
511.82	18993.45
511.99	18740.67
512.17	18869.40
512.34	19080.05
512.51	19286.01
512.69	19054.30
512.86	19056.64
513.04	19384.32
513.21	19325.80
513.38	19201.76
513.56	19683.91
513.73	19484.96
513.90	19445.17
514.08	19403.04
514.25	19461.55
514.43	19676.88
514.60	19754.12
514.77	19679.22
514.95	19978.81
515.12	19693.27
515.29	19838.38
515.47	19590.28
515.64	19719.01
515.81	19917.96
515.99	20102.86
516.16	20315.85
516.33	20058.39
516.51	20259.68
516.68	20215.21
516.85	20400.11
517.03	20528.84
517.20	20449.26
517.37	20662.25
517.54	20247.97
517.72	20531.18
517.89	20547.56
518.06	20379.04
518.24	20807.36
518.41	20362.66
518.58	20683.31
518.75	20716.08
518.93	21062.48
519.10	20666.93
519.27	20823.75
519.45	20837.79
519.62	20908.01
519.79	20854.17
519.96	20889.28
520.14	21048.44
520.31	20608.42
520.48	21109.29
520.65	21163.12
520.83	21429.94
521.00	21261.43
521.17	21436.97
521.34	21385.47
521.52	21425.26
521.69	21369.09
521.86	21521.23
522.03	21685.06
522.20	21717.83
522.38	21811.45
522.55	21652.30
522.72	21420.58
522.89	21961.25
523.07	22097.00
523.24	21865.28
523.41	22111.04
523.58	21750.60
523.75	21834.86
523.92	22192.96
524.10	22230.41
524.27	22307.65
524.44	22178.92
524.61	22195.30
524.78	22174.24
524.96	22607.23
525.13	22459.78
525.30	22361.48
525.47	22675.11
525.64	22422.33
525.81	22438.72
525.98	22974.70
526.16	22593.19
526.33	22504.25
526.50	23084.70
526.67	22515.95
526.84	22967.68
527.01	22696.17
527.18	22923.21
527.36	22712.56
527.53	22871.72
527.70	23239.18
527.87	23381.95
528.04	23246.20
528.21	23199.39
528.38	22986.40
528.55	23241.52
528.72	23075.34
528.89	23204.07
529.07	23075.34
529.24	23442.81
529.41	23426.42
529.58	23288.33
529.75	23405.36
529.92	23363.23
530.09	23337.48
530.26	23461.53
530.43	23669.84
530.60	23704.95
530.77	23271.95
530.94	23978.79
531.11	23955.38
531.28	23520.04
531.46	23805.59
531.63	23857.08
531.80	23969.43
531.97	23779.84
532.14	23878.15
532.31	23782.18
532.48	24018.58
532.65	23793.89
532.82	23798.57
532.99	24025.60
533.16	24594.35
533.33	24292.42
533.50	24409.45
533.67	24367.32
533.84	24273.70
534.01	24011.56
534.18	24072.41
534.35	24460.94
534.52	24421.15
534.69	24348.59
534.86	24659.88
535.03	24510.09
535.20	24662.22
535.37	24535.84
535.54	24842.45
535.71	24372.00
535.88	24418.81
536.05	24741.80
536.22	24580.31
536.38	24961.81
536.55	25013.31
536.72	24952.45
536.89	24713.72
537.06	24634.14
537.23	24786.27
537.40	24865.85
537.57	24973.52
537.74	24978.20
537.91	25289.49
538.08	25219.27
538.25	24765.21
538.42	25146.72
538.59	25310.55
538.75	25282.47
538.92	25261.40
539.09	25268.42
539.26	25404.17
539.43	25378.43
539.60	25425.24
539.77	25317.57
539.94	25614.82
540.11	25329.28
540.28	25640.57
540.44	25296.51
540.61	25329.28
540.78	25694.40
540.95	25582.06
541.12	25516.52
541.29	25741.21
541.46	25860.58
541.62	25773.98
541.79	25565.67
541.96	25504.82
542.13	25603.12
542.30	25671.00
542.47	25905.05
542.63	26031.44
542.80	26160.17
542.97	26059.52
543.14	26113.36
543.31	26312.30
543.48	26288.90
543.64	26361.45
543.81	26394.22
543.98	26438.69
544.15	26359.11
544.32	26441.03
544.48	26410.60
544.65	26192.94
544.82	26473.80
544.99	26125.06
545.16	26469.12
545.32	26478.48
545.49	26328.69
545.66	27232.13
545.83	26534.65
546.00	26930.20
546.16	26663.38
546.33	26377.84
546.50	26621.25
546.67	26600.19
546.83	26199.96
547.00	26850.63
547.17	26721.90
547.34	26962.97
547.50	26918.50
547.67	27318.73
547.84	27080.00
548.00	26962.97
548.17	27145.53
548.34	26941.91
548.51	27199.37
548.67	27314.05
548.84	26888.07
549.01	27009.78
549.18	27243.84
549.34	27433.42
549.51	27009.78
549.68	26972.33
549.84	27208.73
550.01	27201.71
550.18	27047.23
550.34	27398.31
550.51	27412.35
550.68	27428.74
550.84	27094.04
551.01	27311.71
551.18	27133.83
551.34	27194.68
551.51	27206.39
551.68	27225.11
551.84	27433.42
552.01	27491.93
552.18	27880.46
552.34	27190.00
552.51	27573.85
552.68	27597.26
552.84	27976.42
553.01	27864.08
553.18	27473.21
553.34	27573.85
553.51	27784.50
553.67	27852.38
553.84	28355.59
554.01	27569.17
554.17	28287.71
554.34	27992.81
554.51	28077.07
554.67	27843.01
554.84	27992.81
555.00	27742.37
555.17	27737.69
555.33	28203.46
555.50	27941.32
555.67	28091.11
555.83	27946.00
556.00	27999.83
556.16	28418.78
556.33	27995.15
556.50	28397.72
556.66	28353.25
556.83	27910.89
556.99	28379.00
557.16	28421.13
557.32	28205.80
557.49	27985.79
557.65	28074.73
557.82	27833.65
557.98	28093.45
558.15	28409.42
558.32	28395.38
558.48	28350.91
558.65	28500.70
558.81	28266.65
558.98	28510.07
559.14	28437.51
559.31	28180.05
559.47	28343.89
559.64	28781.57
559.80	28723.05
559.97	28847.10
560.13	28510.07
560.30	28704.33
560.46	28849.44
560.63	28217.50
560.79	28716.03
560.96	29106.90
561.12	28774.55
561.29	28425.81
561.45	28610.71
561.61	28690.29
561.78	28980.51
561.94	28884.55
562.11	28739.44
562.27	29034.35
562.44	28418.78
562.60	28657.52
562.77	28973.49
562.93	28914.98
563.10	28584.96
563.26	28580.28
563.42	29116.26
563.59	29160.73
563.75	28802.63
563.92	28851.78
564.08	28929.02
564.24	28973.49
564.41	28952.43
564.57	28725.39
564.74	28821.36
564.90	29202.86
565.07	29289.46
565.23	29219.25
565.39	28746.46
565.56	29387.77
565.72	28985.19
565.88	29125.63
566.05	29228.61
566.21	28694.97
566.38	28975.83
566.54	28959.45
566.70	29364.36
566.87	29277.76
567.03	29460.32
567.19	29364.36
567.36	29280.10
567.52	29074.13
567.68	29252.02
567.85	29214.57
568.01	29069.45
568.17	29144.35
568.34	29074.13
568.50	29303.51
568.66	29331.59
568.83	29553.94
568.99	29397.13
569.15	29024.98
569.32	29411.17
569.48	29027.32
569.64	29289.46
569.81	29308.19
569.97	29310.53
570.13	29289.46
570.30	29315.21
570.46	29373.72
570.62	29244.99
570.78	29118.60
570.95	29731.83
571.11	29366.70
571.27	29172.44
571.43	29249.67
571.60	29345.64
571.76	29460.32
571.92	29347.98
572.09	29024.98
572.25	29399.47
572.41	29228.61
572.57	29497.77
572.74	29502.45
572.90	29092.86
573.06	29366.70
573.22	29376.06
573.38	29408.83
573.55	29528.20
573.71	29984.60
573.87	29895.66
574.03	29390.11
574.20	29357.34
574.36	29413.51
574.52	29268.40
574.68	29369.04
574.84	29659.27
575.01	29582.03
575.17	29537.56
575.33	29322.23
575.49	29619.48
575.65	29701.40
575.82	29710.76
575.98	29296.49
576.14	29263.72
576.30	29282.44
576.46	29191.16
576.62	29404.15
576.79	29441.60
576.95	29137.33
577.11	29654.59
577.27	29769.27
577.43	29462.66
577.59	29692.04
577.75	29619.48
577.92	29226.27
578.08	29383.09
578.24	29624.16
578.40	29223.93
578.56	29467.34
578.72	29790.34
578.88	29839.49
579.04	29575.01
579.21	29509.47
579.37	29579.69
579.53	30061.84
579.69	29287.12
579.85	29481.39
580.01	29448.62
580.17	29048.39
580.33	29338.62
580.49	29390.11
580.65	29483.73
580.82	29799.70
580.98	30033.75
581.14	29523.52
581.30	29610.12
581.46	29495.43
581.62	29956.52
581.78	29343.30
581.94	29802.04
582.10	29701.40
582.26	29692.04
582.42	29603.10
582.58	29778.64
582.74	30162.48
582.90	29703.74
583.06	29624.16
583.22	29626.50
583.38	29961.20
583.54	29762.25
583.70	29567.99
583.86	29523.52
584.02	29769.27
584.18	29907.37
584.34	29610.12
584.50	29773.95
584.66	29645.23
584.82	29359.68
584.98	29626.50
585.14	29560.97
585.30	29486.07
585.46	29404.15
585.62	29359.68
585.78	29951.84
585.94	29109.24
586.10	29977.58
586.26	29619.48
586.42	29996.31
586.58	29785.66
586.74	29869.92
586.90	29514.16
587.06	29542.24
587.22	29605.44
587.38	29745.87
587.54	29773.95
587.70	29795.02
587.86	30204.61
588.02	29802.04
588.18	30272.49
588.34	30054.82
588.49	29720.12
588.65	29670.97
588.81	29633.52
588.97	29621.82
589.13	29750.55
589.29	30045.46
589.45	29827.79
589.61	30092.27
589.77	30022.05
589.93	29886.30
590.08	29905.02
590.24	30235.04
590.40	29818.42
590.56	30073.54
590.72	29961.20
590.88	29649.91
591.04	29867.58
591.20	30221.00
591.35	30082.91
591.51	30480.80
591.67	30609.53
591.83	30155.46
591.99	30045.46
