SpectraSuite Data File
++++++++++++++++++++++++++++++++++++
Date: Fri Oct 18 13:58:22 GMT-05:00 2013
User: bianchi
Dark Spectrum Present: No
Reference Spectrum Present: No
Number of Sampled Component Spectra: 1
Spectrometers: USB2+H05261
Integration Time (usec): 50000 (USB2+H05261)
Spectra Averaged: 1 (USB2+H05261)
Boxcar Smoothing: 0 (USB2+H05261)
Correct for Electrical Dark: No (USB2+H05261)
Strobe/Lamp Enabled: No (USB2+H05261)
Correct for Detector Non-linearity: No (USB2+H05261)
Correct for Stray Light: No (USB2+H05261)
Number of Pixels in Processed Spectrum: 2048
>>>>>Begin Processed Spectral Data<<<<<
365.73	0.00
365.92	0.00
366.12	0.00
366.32	0.00
366.52	0.00
366.72	0.00
366.91	0.00
367.11	0.00
367.31	0.00
367.51	0.00
367.70	0.00
367.90	0.00
368.10	0.00
368.30	0.00
368.49	0.00
368.69	0.00
368.89	0.00
369.09	0.00
369.28	0.00
369.48	0.00
369.68	0.00
369.87	0.00
370.07	0.00
370.27	0.00
370.47	0.00
370.66	102.98
370.86	105.32
371.06	135.75
371.25	154.48
371.45	102.98
371.65	128.73
371.84	163.84
372.04	142.77
372.24	119.37
372.44	170.86
372.63	189.58
372.83	236.39
373.03	196.60
373.22	243.42
373.42	142.77
373.62	170.86
373.81	276.18
374.01	290.23
374.21	215.33
374.40	184.90
374.60	208.31
374.79	290.23
374.99	236.39
375.19	287.89
375.38	315.97
375.58	259.80
375.78	248.10
375.97	205.97
376.17	231.71
376.37	257.46
376.56	227.03
376.76	290.23
376.95	220.01
377.15	220.01
377.35	184.90
377.54	257.46
377.74	266.82
377.93	208.31
378.13	264.48
378.33	341.72
378.52	285.55
378.72	231.71
378.91	299.59
379.11	330.02
379.31	250.44
379.50	248.10
379.70	227.03
379.89	369.80
380.09	311.29
380.28	280.86
380.48	187.24
380.68	313.63
380.87	304.27
381.07	313.63
381.26	290.23
381.46	313.63
381.65	318.31
381.85	294.91
382.04	229.37
382.24	278.52
382.43	327.68
382.63	344.06
382.83	334.70
383.02	337.04
383.22	470.45
383.41	362.78
383.61	372.15
383.80	393.21
384.00	414.27
384.19	346.40
384.39	332.36
384.58	386.19
384.78	393.21
384.97	404.91
385.17	374.49
385.36	308.95
385.56	351.08
385.75	308.95
385.95	397.89
386.14	390.87
386.34	400.23
386.53	397.89
386.72	273.84
386.92	407.25
387.11	500.87
387.31	407.25
387.50	388.53
387.70	327.68
387.89	369.80
388.09	374.49
388.28	395.55
388.48	498.53
388.67	437.68
388.86	414.27
389.06	482.15
389.25	496.19
389.45	454.06
389.64	440.02
389.84	437.68
390.03	514.92
390.22	451.72
390.42	458.74
390.61	437.68
390.81	470.45
391.00	435.34
391.19	535.98
391.39	554.71
391.58	470.45
391.78	486.83
391.97	528.96
392.16	470.45
392.36	514.92
392.55	524.28
392.75	498.53
392.94	517.26
393.13	538.32
393.33	550.03
393.52	557.05
393.71	486.83
393.91	526.62
394.10	535.98
394.29	613.22
394.49	550.03
394.68	725.57
394.88	589.82
395.07	650.67
395.26	620.24
395.46	631.94
395.65	650.67
395.84	599.18
396.04	645.99
396.23	624.92
396.42	592.16
396.62	660.03
396.81	631.94
397.00	655.35
397.19	638.97
397.39	559.39
397.58	660.03
397.77	643.65
397.97	676.41
398.16	716.20
398.35	690.46
398.55	737.27
398.74	697.48
398.93	685.78
399.12	634.29
399.32	624.92
399.51	655.35
399.70	760.67
399.90	774.72
400.09	685.78
400.28	800.46
400.47	765.36
400.67	851.96
400.86	772.38
401.05	821.53
401.24	760.67
401.44	784.08
401.63	760.67
401.82	760.67
402.01	704.50
402.21	711.52
402.40	777.06
402.59	795.78
402.78	863.66
402.97	830.89
403.17	858.98
403.36	781.74
403.55	861.32
403.74	866.00
403.93	922.17
404.13	922.17
404.32	889.40
404.51	877.70
404.70	929.19
404.89	908.13
405.09	947.92
405.28	919.83
405.47	1020.47
405.66	931.53
405.85	1022.81
406.05	999.41
406.24	945.58
406.43	966.64
406.62	945.58
406.81	1022.81
407.00	992.39
407.20	1001.75
407.39	990.05
407.58	966.64
407.77	1142.18
407.96	1043.88
408.15	1034.52
408.34	1067.28
408.54	1074.31
408.73	1015.79
408.92	1064.94
409.11	1076.65
409.30	1146.86
409.49	1118.78
409.68	1102.39
409.87	1142.18
410.07	1214.74
410.26	1160.91
410.45	1259.21
410.64	1142.18
410.83	1137.50
411.02	1231.12
411.21	1207.72
411.40	1221.76
411.59	1240.48
411.78	1184.31
411.98	1217.08
412.17	1219.42
412.36	1313.04
412.55	1170.27
412.74	1301.34
412.93	1355.17
413.12	1352.83
413.31	1413.68
413.50	1458.15
413.69	1357.51
413.88	1320.06
414.07	1401.98
414.26	1385.60
414.45	1444.11
414.64	1514.33
414.83	1486.24
415.02	1526.03
415.22	1441.77
415.41	1624.33
415.60	1582.20
415.79	1577.52
415.98	1537.73
416.17	1556.46
416.36	1774.13
416.55	1650.08
416.74	1607.95
416.93	1509.65
417.12	1654.76
417.31	1645.40
417.50	1678.16
417.69	1776.47
417.88	1795.19
418.07	1753.06
418.26	1736.68
418.45	1727.32
418.64	1856.04
418.83	1839.66
419.02	1769.44
419.21	1823.28
419.39	1900.52
419.58	1802.21
419.77	1750.72
419.96	1853.70
420.15	1984.77
420.34	1825.62
420.53	1832.64
420.72	1914.56
420.91	1837.32
421.10	1954.35
421.29	1982.43
421.48	1905.20
421.67	1959.03
421.86	1905.20
422.05	1975.41
422.24	1968.39
422.43	1989.46
422.61	1973.07
422.80	2083.08
422.99	1935.62
423.18	1916.90
423.37	2003.50
423.56	2057.33
423.75	2036.27
423.94	1984.77
424.13	1928.60
424.32	1963.71
424.50	1909.88
424.69	2087.76
424.88	1994.14
425.07	2031.58
425.26	1952.01
425.45	1914.56
425.64	2036.27
425.83	2062.01
426.01	2078.40
426.20	2080.74
426.39	2010.52
426.58	2012.86
426.77	1984.77
426.96	2174.36
427.15	2108.82
427.33	2193.08
427.52	2012.86
427.71	2139.25
427.90	2064.35
428.09	2209.47
428.28	2125.21
428.46	2080.74
428.65	2328.83
428.84	2232.87
429.03	2300.75
429.22	2300.75
429.40	2190.74
429.59	2265.64
429.78	2244.57
429.97	2200.10
430.16	2223.51
430.34	2225.85
430.53	2417.77
430.72	2342.88
430.91	2328.83
431.10	2345.22
431.28	2490.33
431.47	2438.84
431.66	2445.86
431.85	2314.79
432.03	2361.60
432.22	2420.11
432.41	2328.83
432.60	2635.44
432.79	2375.64
432.97	2387.35
433.16	2487.99
433.35	2354.58
433.54	2492.67
433.72	2422.45
433.91	2420.11
434.10	2532.46
434.28	2385.01
434.47	2576.93
434.66	2576.93
434.85	2724.38
435.03	2427.14
435.22	2572.25
435.41	2668.21
435.59	2541.82
435.78	2609.70
435.97	2796.94
436.16	2672.89
436.34	2537.14
436.53	2726.72
436.72	2726.72
436.90	2567.57
437.09	2820.35
437.28	2668.21
437.46	2754.81
437.65	2628.42
437.84	2703.32
438.02	2846.09
438.21	2750.13
438.40	2729.06
438.58	2832.05
438.77	2787.58
438.96	2970.14
439.14	2981.84
439.33	2839.07
439.52	2935.03
439.70	3052.06
439.89	2813.32
440.08	3103.55
440.26	2935.03
440.45	2986.52
440.63	3087.17
440.82	3052.06
441.01	3143.34
441.19	3091.85
441.38	3150.36
441.57	3101.21
441.75	3126.96
441.94	3176.11
442.12	3332.92
442.31	3222.92
442.50	3234.62
442.68	3255.69
442.87	3297.81
443.05	3309.52
443.24	3375.05
443.43	3141.00
443.61	3407.82
443.80	3389.10
443.98	3314.20
444.17	3098.87
444.35	3487.40
444.54	3417.18
444.73	3499.10
444.91	3421.86
445.10	3510.80
445.28	3372.71
445.47	3468.67
445.65	3527.19
445.84	3489.74
446.02	3379.73
446.21	3503.78
446.39	3520.17
446.58	3503.78
446.77	3485.06
446.95	3361.01
447.14	3503.78
447.32	3524.85
447.51	3407.82
447.69	3471.01
447.88	3517.83
448.06	3499.10
448.25	3372.71
448.43	3571.66
448.62	3391.44
448.80	3609.11
448.99	3566.98
449.17	3611.45
449.36	3417.18
449.54	3618.47
449.73	3623.15
449.91	3604.42
450.10	3625.49
450.28	3662.94
450.46	3749.54
450.65	3756.56
450.83	3857.20
451.02	3709.75
451.20	3784.65
451.39	3810.39
451.57	3716.77
451.76	3733.15
451.94	3751.88
452.13	3756.56
452.31	3815.07
452.49	3817.41
452.68	3843.16
452.86	3913.38
453.05	3946.14
453.23	3892.31
453.42	3950.82
453.60	3824.44
453.78	3810.39
453.97	3763.58
454.15	3911.04
454.34	3763.58
454.52	3976.57
454.70	3969.55
454.89	3990.61
455.07	4002.32
455.26	4039.76
455.44	4105.30
455.62	4117.00
455.81	4016.36
455.99	4175.52
456.17	4294.88
456.36	4114.66
456.54	4210.62
456.73	4238.71
456.91	4409.57
457.09	4271.48
457.28	4315.95
457.46	4163.81
457.64	4404.89
457.83	4273.82
458.01	4248.07
458.19	4325.31
458.38	4386.16
458.56	4355.74
458.74	4337.01
458.93	4306.59
459.11	4489.15
459.29	4447.02
459.48	4517.23
459.66	4381.48
459.84	4313.61
460.03	4571.07
460.21	4484.47
460.39	4449.36
460.57	4479.79
460.76	4648.30
460.94	4624.90
461.12	4678.73
461.31	4730.22
461.49	4512.55
461.67	4486.81
461.85	4664.69
462.04	4589.79
462.22	4786.40
462.40	4744.27
462.59	4706.82
462.77	4826.18
462.95	4762.99
463.13	4641.28
463.32	4718.52
463.50	4751.29
463.68	4772.35
463.86	4868.31
464.05	4751.29
464.23	4723.20
464.41	4889.38
464.59	4748.95
464.78	4835.55
464.96	4854.27
465.14	4636.60
465.32	4987.68
465.50	4849.59
465.69	4990.02
465.87	5078.96
466.05	4933.85
466.23	5004.07
466.41	5032.15
466.60	5034.49
466.78	4837.89
466.96	4985.34
467.14	5160.88
467.32	5118.75
467.51	5324.72
467.69	5128.11
467.87	5036.83
468.05	4973.64
468.23	5109.39
468.41	5165.56
468.60	5179.61
468.78	5210.03
468.96	5181.95
469.14	5268.55
469.32	5259.18
469.50	5039.17
469.69	5315.36
469.87	5373.87
470.05	5460.47
470.23	5458.13
470.41	5263.86
470.59	5549.41
470.77	5289.61
470.95	5320.04
471.14	5549.41
471.32	5413.66
471.50	5586.86
471.68	5479.19
471.86	5598.56
472.04	5425.36
472.22	5652.39
472.40	5598.56
472.58	5834.96
472.77	5717.93
472.95	5844.32
473.13	6038.58
473.31	5699.20
473.49	5818.57
473.67	5715.59
473.85	5764.74
474.03	5909.85
474.21	6019.86
474.39	5963.68
474.57	6104.12
474.75	6097.10
474.93	6050.28
475.12	5923.90
475.30	6069.01
475.48	6214.12
475.66	6174.33
475.84	6174.33
476.02	6448.18
476.20	6244.55
476.38	6317.11
476.56	6483.28
476.74	6509.03
476.92	6478.60
477.10	6572.22
477.28	6553.50
477.46	6670.53
477.64	6832.02
477.82	6754.79
478.00	6853.09
478.18	6803.94
478.36	7019.27
478.54	6995.86
478.72	6946.71
478.90	6944.37
479.08	7183.10
479.26	7302.47
479.44	7201.83
479.62	7323.54
479.80	7414.82
479.98	7407.80
480.16	7555.25
480.34	7494.40
480.52	7520.14
480.70	7709.72
480.88	7506.10
481.06	7824.41
481.24	7648.87
481.41	7772.92
481.59	7808.03
481.77	8032.72
481.95	8065.49
482.13	8107.62
482.31	8121.66
482.49	8252.73
482.67	8271.45
482.85	8236.35
483.03	8400.18
483.21	8411.89
483.39	8629.56
483.57	8475.08
483.74	8475.08
483.92	8641.26
484.10	8645.94
484.28	8882.33
484.46	8889.35
484.64	9128.09
484.82	8835.52
485.00	9184.26
485.18	9114.05
485.35	9408.95
485.53	9430.02
485.71	9167.88
485.89	9589.17
486.07	9343.42
486.25	9479.17
486.43	9631.30
486.61	9462.79
486.78	9860.68
486.96	10001.11
487.14	10134.52
487.32	9947.28
487.50	10052.60
487.68	10148.56
487.85	10396.66
488.03	10471.56
488.21	10595.61
488.39	10637.73
488.57	10733.70
488.75	10670.50
488.92	10778.17
489.10	11098.82
489.28	11007.54
489.46	11138.61
489.64	11096.48
489.81	11445.22
489.99	11485.01
490.17	11253.30
490.35	11353.94
490.53	11632.46
490.70	11573.95
490.88	11602.04
491.06	11672.25
491.24	11810.34
491.41	11634.80
491.59	11698.00
491.77	11932.05
491.95	12131.00
492.13	12098.23
492.30	12037.38
492.48	12072.48
492.66	12107.59
492.84	12308.88
493.01	12634.21
493.19	12428.24
493.37	12662.30
493.54	12812.09
493.72	12872.95
493.90	12774.64
494.08	12809.75
494.25	13027.42
494.43	13001.68
494.61	13289.56
494.79	13144.45
494.96	13149.13
495.14	13392.55
495.32	13500.21
495.49	13554.04
495.67	13376.16
495.85	14024.49
496.02	13626.60
496.20	13668.73
496.38	13729.58
496.55	13996.40
496.73	14389.61
496.91	13991.72
497.09	14155.56
497.26	14487.92
497.44	14153.22
497.62	14408.34
497.79	14707.93
497.97	14326.42
498.14	14771.12
498.32	15035.60
498.50	15126.88
498.67	14895.17
498.85	15026.24
499.03	14768.78
499.20	15012.20
499.38	14642.39
499.56	14970.07
499.73	15351.57
499.91	15363.28
500.08	15379.66
500.26	15300.08
500.44	15477.96
500.61	15552.86
500.79	15396.04
500.97	15681.59
501.14	15925.00
501.32	15751.81
501.49	15873.51
501.67	15770.53
501.84	15735.42
502.02	15667.55
502.20	15901.60
502.37	16088.84
502.55	16123.95
502.72	15873.51
502.90	16231.62
503.07	16060.76
503.25	16229.27
503.43	16210.55
503.60	16362.69
503.78	16435.24
503.95	16758.24
504.13	16566.31
504.30	16374.39
504.48	16395.45
504.65	16732.49
504.83	16879.94
505.01	16783.98
505.18	17003.99
505.36	16959.52
505.53	16978.25
505.71	17013.35
505.88	17062.51
506.06	17027.40
506.23	17198.26
506.41	17151.45
506.58	17207.62
506.76	17308.26
506.93	17486.14
507.11	17329.33
507.28	17256.77
507.46	17404.22
507.63	17495.50
507.81	17633.60
507.98	17638.28
508.16	17724.88
508.33	17654.66
508.50	17385.50
508.68	17977.65
508.85	17825.52
509.03	17701.47
509.20	18312.35
509.38	18082.98
509.55	18122.77
509.73	18331.08
509.90	18153.20
510.08	18431.72
510.25	18200.01
510.42	18476.19
510.60	18691.52
510.77	18459.81
510.95	18876.42
511.12	18459.81
511.30	18450.44
511.47	18740.67
511.64	18902.17
511.82	19178.35
511.99	19194.73
512.17	18998.13
512.34	18801.52
512.51	18944.30
512.69	19304.74
512.86	19049.62
513.04	19405.38
513.21	19449.85
513.38	19763.48
513.56	19213.46
513.73	19321.12
513.90	19634.75
514.08	19431.13
514.25	19499.00
514.43	19564.54
514.60	19419.42
514.77	19424.11
514.95	19843.06
515.12	19496.66
515.29	19707.31
515.47	19974.13
515.64	20098.18
515.81	19929.66
515.99	20002.22
516.16	20367.34
516.33	19981.15
516.51	20362.66
516.68	20187.12
516.85	20093.50
517.03	20376.70
517.20	20582.67
517.37	20060.73
517.54	20613.10
517.72	20489.05
517.89	20095.84
518.06	20613.10
518.24	20690.34
518.41	20631.82
518.58	20973.54
518.75	20709.06
518.93	20678.63
519.10	20926.73
519.27	20872.90
519.45	20802.68
519.62	21195.89
519.79	20933.75
519.96	20762.89
520.14	21195.89
520.31	20709.06
520.48	20992.26
520.65	21095.25
520.83	21628.89
521.00	20922.05
521.17	21345.69
521.34	21071.84
521.52	21465.05
521.69	21352.71
521.86	21825.50
522.03	21661.66
522.20	21774.00
522.38	21989.33
522.55	21654.64
522.72	21694.43
522.89	21750.60
523.07	21708.47
523.24	22125.08
523.41	22309.99
523.58	21743.58
523.75	22190.62
523.92	22192.96
524.10	21825.50
524.27	22040.82
524.44	22352.12
524.61	22113.38
524.78	22108.70
524.96	22291.26
525.13	22408.29
525.30	22611.92
525.47	22483.19
525.64	22331.05
525.81	22380.20
525.98	22668.09
526.16	22946.61
526.33	22649.36
526.50	22874.06
526.67	22654.05
526.84	22782.77
527.01	22508.93
527.18	23021.51
527.36	23075.34
527.53	23122.15
527.70	23208.75
527.87	23236.84
528.04	23096.41
528.21	23075.34
528.38	22745.33
528.55	23260.24
528.72	23197.05
528.89	23309.40
529.07	23154.92
529.24	23246.20
529.41	23255.56
529.58	23199.39
529.75	23288.33
529.92	23152.58
530.09	23197.05
530.26	23510.68
530.43	23723.67
530.60	23358.55
530.77	23473.23
530.94	23405.36
531.11	23536.43
531.28	23482.59
531.46	23796.23
531.63	23920.28
531.80	23751.76
531.97	23873.46
532.14	23845.38
532.31	23747.08
532.48	23866.44
532.65	24180.07
532.82	23711.97
532.99	23997.51
533.16	23913.25
533.33	24233.91
533.50	24381.36
533.67	24266.67
533.84	23934.32
534.01	24121.56
534.18	24032.62
534.35	24545.20
534.52	24283.06
534.69	24332.21
534.86	24699.67
535.03	24718.40
535.20	24584.99
535.37	24327.53
535.54	24472.64
535.71	24418.81
535.88	24812.02
536.05	24542.86
536.22	24863.51
536.38	24828.40
536.55	24671.59
536.72	24903.30
536.89	24659.88
537.06	24819.04
537.23	24940.75
537.40	24540.52
537.57	25003.94
537.74	24987.56
537.91	24912.66
538.08	24907.98
538.25	24861.17
538.42	24917.34
538.59	24903.30
538.75	25099.90
538.92	25411.20
539.09	24933.73
539.26	25207.57
539.43	25268.42
539.60	25132.67
539.77	25378.43
539.94	25289.49
540.11	25387.79
540.28	25694.40
540.44	25385.45
540.61	25392.47
540.78	25329.28
540.95	25696.74
541.12	25235.66
541.29	25401.83
541.46	25514.18
541.62	25628.87
541.79	25830.15
541.96	25366.73
542.13	25333.96
542.30	25921.43
542.47	26106.34
542.63	25855.90
542.80	25909.73
542.97	26061.87
543.14	25942.50
543.31	26225.70
543.48	26300.60
543.64	26288.90
543.81	26370.82
543.98	26492.52
544.15	26265.49
544.32	26522.95
544.48	26487.84
544.65	26354.43
544.82	26665.72
544.99	26244.43
545.16	26232.72
545.32	26284.22
545.49	26820.20
545.66	26513.59
545.83	26572.10
546.00	26890.41
546.16	26036.12
546.33	26691.47
546.50	26426.99
546.67	26529.97
546.83	26567.42
547.00	26424.65
547.17	26925.52
547.34	26916.16
547.50	26703.17
547.67	27225.11
547.84	26757.00
548.00	27112.77
548.17	26506.57
548.34	27349.16
548.51	27264.90
548.67	27087.02
548.84	27292.99
549.01	27023.83
549.18	26845.94
549.34	27101.06
549.51	27339.80
549.68	26948.93
549.84	27302.35
550.01	27281.28
550.18	26946.59
550.34	27229.79
550.51	27505.98
550.68	27087.02
550.84	26925.52
551.01	27531.72
551.18	26902.12
551.34	27065.96
551.51	27723.65
551.68	27721.30
551.84	27388.95
552.01	27257.88
552.18	28081.75
552.34	27410.01
552.51	27611.30
552.68	27421.72
552.84	27412.35
553.01	27747.05
553.18	27868.76
553.34	27634.71
553.51	27709.60
553.67	27814.93
553.84	28311.12
554.01	27971.74
554.17	27807.90
554.34	27573.85
554.51	27765.78
554.67	27779.82
554.84	27903.87
555.00	27971.74
555.17	28144.94
555.33	27821.95
555.50	27817.27
555.67	27948.34
555.83	27812.59
556.00	28168.35
556.16	28236.22
556.33	28081.75
556.50	27910.89
556.66	28222.18
556.83	28091.11
556.99	28437.51
557.16	28533.47
557.32	28386.02
557.49	28414.10
557.65	28128.56
557.82	27892.16
557.98	28329.84
558.15	27702.58
558.32	28128.56
558.48	28198.77
558.65	28893.91
558.81	28379.00
558.98	28100.47
559.14	28203.46
559.31	28449.21
559.47	27913.23
559.64	28161.33
559.80	28425.81
559.97	28624.75
560.13	28198.77
560.30	28819.02
560.46	28343.89
560.63	28648.16
560.79	28353.25
560.96	28795.61
561.12	28779.23
561.29	28636.45
561.45	28589.64
561.61	28510.07
561.78	28650.50
561.94	28732.42
562.11	28737.10
562.27	28907.96
562.44	28641.14
562.60	28842.42
562.77	28687.95
562.93	28559.22
563.10	29083.50
563.26	28804.97
563.42	28828.38
563.59	28814.34
563.75	28769.86
563.92	28451.55
564.08	28716.03
564.24	28835.40
564.41	28130.90
564.57	29099.88
564.74	28699.65
564.90	28582.62
565.07	29244.99
565.23	28669.22
565.39	28673.90
565.56	28945.41
565.72	28994.56
565.88	28713.69
566.05	28683.27
566.21	28802.63
566.38	28854.12
566.54	29142.01
566.70	29237.97
566.87	29254.36
567.03	28765.18
567.19	29439.26
567.36	29619.48
567.52	29198.18
567.68	29144.35
567.85	28999.24
568.01	28978.17
568.17	28907.96
568.34	29350.32
568.50	29380.74
568.66	29046.05
568.83	29195.84
568.99	29352.66
569.15	29083.50
569.32	28982.85
569.48	28725.39
569.64	29060.09
569.81	29305.85
569.97	28968.81
570.13	29329.25
570.30	29116.26
570.46	28917.32
570.62	29097.54
570.78	29050.73
570.95	29186.48
571.11	29062.43
571.27	29331.59
571.43	29179.46
571.60	29200.52
571.76	29212.23
571.92	29490.75
572.09	29596.07
572.25	29158.39
572.41	29366.70
572.57	29441.60
572.74	29607.78
572.90	29039.03
573.06	29205.20
573.22	29125.63
573.38	29481.39
573.55	29436.92
573.71	29635.86
573.87	29282.44
574.03	29411.17
574.20	29380.74
574.36	29151.37
574.52	29270.74
574.68	29102.22
574.84	28940.72
575.01	29443.94
575.17	29677.99
575.33	29355.00
575.49	29497.77
575.65	29565.65
575.82	29757.57
575.98	29406.49
576.14	29614.80
576.30	29387.77
576.46	29490.75
576.62	29481.39
576.79	29675.65
576.95	29467.34
577.11	29476.71
577.27	29795.02
577.43	29600.76
577.59	29715.44
577.75	29677.99
577.92	29193.50
578.08	29401.81
578.24	29603.10
578.40	29638.20
578.56	29727.14
578.72	29511.81
578.88	29785.66
579.04	29942.47
579.21	29116.26
579.37	29532.88
579.53	29853.53
579.69	29839.49
579.85	29427.56
580.01	29380.74
580.17	29682.67
580.33	29500.11
580.49	29680.33
580.65	29886.30
580.82	29806.72
580.98	29701.40
581.14	29301.17
581.30	29666.29
581.46	29825.45
581.62	29956.52
581.78	29731.83
581.94	29776.30
582.10	29488.41
582.26	29668.63
582.42	29593.73
582.58	29621.82
582.74	29752.89
582.90	29825.45
583.06	29486.07
583.22	29572.67
583.38	29563.31
583.54	29521.18
583.70	29745.87
583.86	29560.97
584.02	29455.64
584.18	29359.68
584.34	29832.47
584.50	30022.05
584.66	29453.30
584.82	29706.08
584.98	29495.43
585.14	29750.55
585.30	29301.17
585.46	29474.37
585.62	29465.00
585.78	29883.96
585.94	29542.24
586.10	29598.41
586.26	29771.61
586.42	29862.90
586.58	29708.42
586.74	29837.15
586.90	29619.48
587.06	29670.97
587.22	29755.23
587.38	29500.11
587.54	30031.41
587.70	30209.29
587.86	30122.69
588.02	29916.73
588.18	29834.81
588.34	29898.00
588.49	29940.13
588.65	29811.40
588.81	29748.21
588.97	29757.57
589.13	30012.69
589.29	29900.34
589.45	30113.33
589.61	30129.72
589.77	30188.23
589.93	30089.93
590.08	30099.29
590.24	30375.47
590.40	29949.50
590.56	30270.15
590.72	29668.63
590.88	29837.15
591.04	29893.32
591.20	30197.59
591.35	30579.10
591.51	30356.75
591.67	30326.32
591.83	30628.25
591.99	30522.93
