SpectraSuite Data File
++++++++++++++++++++++++++++++++++++
Date: Fri Oct 18 13:58:02 GMT-05:00 2013
User: bianchi
Dark Spectrum Present: No
Reference Spectrum Present: No
Number of Sampled Component Spectra: 1
Spectrometers: USB2+H05261
Integration Time (usec): 50000 (USB2+H05261)
Spectra Averaged: 1 (USB2+H05261)
Boxcar Smoothing: 0 (USB2+H05261)
Correct for Electrical Dark: No (USB2+H05261)
Strobe/Lamp Enabled: No (USB2+H05261)
Correct for Detector Non-linearity: No (USB2+H05261)
Correct for Stray Light: No (USB2+H05261)
Number of Pixels in Processed Spectrum: 2048
>>>>>Begin Processed Spectral Data<<<<<
365.73	0.00
365.92	0.00
366.12	0.00
366.32	0.00
366.52	0.00
366.72	0.00
366.91	0.00
367.11	0.00
367.31	0.00
367.51	0.00
367.70	0.00
367.90	0.00
368.10	0.00
368.30	0.00
368.49	0.00
368.69	0.00
368.89	0.00
369.09	0.00
369.28	0.00
369.48	0.00
369.68	0.00
369.87	0.00
370.07	0.00
370.27	0.00
370.47	0.00
370.66	30.43
370.86	100.64
371.06	220.01
371.25	131.07
371.45	131.07
371.65	105.32
371.84	114.69
372.04	105.32
372.24	159.16
372.44	166.18
372.63	191.92
372.83	205.97
373.03	168.52
373.22	170.86
373.42	198.95
373.62	217.67
373.81	196.60
374.01	283.20
374.21	262.14
374.40	203.63
374.60	294.91
374.79	257.46
374.99	280.86
375.19	273.84
375.38	320.65
375.58	285.55
375.78	231.71
375.97	236.39
376.17	215.33
376.37	170.86
376.56	217.67
376.76	175.54
376.95	250.44
377.15	243.42
377.35	266.82
377.54	243.42
377.74	257.46
377.93	262.14
378.13	311.29
378.33	327.68
378.52	339.38
378.72	362.78
378.91	234.05
379.11	250.44
379.31	283.20
379.50	292.57
379.70	334.70
379.89	369.80
380.09	332.36
380.28	308.95
380.48	304.27
380.68	320.65
380.87	341.72
381.07	337.04
381.26	290.23
381.46	327.68
381.65	320.65
381.85	318.31
382.04	330.02
382.24	386.19
382.43	334.70
382.63	346.40
382.83	283.20
383.02	346.40
383.22	332.36
383.41	418.96
383.61	379.17
383.80	395.55
384.00	341.72
384.19	458.74
384.39	381.51
384.58	332.36
384.78	290.23
384.97	404.91
385.17	374.49
385.36	421.30
385.56	374.49
385.75	442.36
385.95	404.91
386.14	440.02
386.34	416.62
386.53	386.19
386.72	407.25
386.92	367.46
387.11	411.93
387.31	475.13
387.50	411.93
387.70	416.62
387.89	491.51
388.09	440.02
388.28	400.23
388.48	423.64
388.67	477.47
388.86	472.79
389.06	472.79
389.25	440.02
389.45	500.87
389.64	496.19
389.84	491.51
390.03	472.79
390.22	557.05
390.42	568.75
390.61	505.56
390.81	491.51
391.00	484.49
391.19	535.98
391.39	468.11
391.58	526.62
391.78	472.79
391.97	489.17
392.16	496.19
392.36	540.66
392.55	538.32
392.75	505.56
392.94	540.66
393.13	512.58
393.33	500.87
393.52	498.53
393.71	531.30
393.91	533.64
394.10	606.20
394.29	585.13
394.49	606.20
394.68	554.71
394.88	596.84
395.07	631.94
395.26	620.24
395.46	615.56
395.65	622.58
395.84	606.20
396.04	643.65
396.23	631.94
396.42	587.47
396.62	557.05
396.81	629.60
397.00	683.44
397.19	711.52
397.39	711.52
397.58	641.31
397.77	615.56
397.97	699.82
398.16	718.54
398.35	692.80
398.55	746.63
398.74	760.67
398.93	798.12
399.12	709.18
399.32	650.67
399.51	697.48
399.70	692.80
399.90	737.27
400.09	746.63
400.28	774.72
400.47	770.04
400.67	723.23
400.86	763.01
401.05	784.08
401.24	823.87
401.44	795.78
401.63	854.30
401.82	767.70
402.01	758.33
402.21	823.87
402.40	781.74
402.59	866.00
402.78	851.96
402.97	875.36
403.17	954.94
403.36	917.49
403.55	898.77
403.74	830.89
403.93	915.15
404.13	870.68
404.32	884.72
404.51	997.07
404.70	985.37
404.89	973.66
405.09	936.21
405.28	1001.75
405.47	1018.13
405.66	945.58
405.85	999.41
406.05	1001.75
406.24	1064.94
406.43	961.96
406.62	1032.18
406.81	1086.01
407.00	1081.33
407.20	952.60
407.39	1008.77
407.58	1064.94
407.77	1123.46
407.96	1071.97
408.15	1050.90
408.34	1022.81
408.54	1111.75
408.73	1074.31
408.92	1111.75
409.11	1102.39
409.30	1130.48
409.49	1158.57
409.68	1118.78
409.87	1177.29
410.07	1149.20
410.26	1172.61
410.45	1198.35
410.64	1149.20
410.83	1247.51
411.02	1163.25
411.21	1219.42
411.40	1207.72
411.59	1261.55
411.78	1273.25
411.98	1270.91
412.17	1259.21
412.36	1221.76
412.55	1282.61
412.74	1425.39
412.93	1256.87
413.12	1392.62
413.31	1472.20
413.50	1336.45
413.69	1439.43
413.88	1479.22
414.07	1462.83
414.26	1458.15
414.45	1420.71
414.64	1460.49
414.83	1596.25
415.02	1519.01
415.22	1514.33
415.41	1614.97
415.60	1533.05
415.79	1607.95
415.98	1675.82
416.17	1696.89
416.36	1521.35
416.55	1533.05
416.74	1579.86
416.93	1685.19
417.12	1689.87
417.31	1657.10
417.50	1645.40
417.69	1757.74
417.88	1790.51
418.07	1591.56
418.26	1706.25
418.45	1727.32
418.64	1753.06
418.83	1764.76
419.02	1797.53
419.21	1753.06
419.39	1783.49
419.58	1750.72
419.77	1774.13
419.96	1891.15
420.15	1813.92
420.34	1865.41
420.53	1905.20
420.72	1872.43
420.91	1975.41
421.10	1956.69
421.29	1963.71
421.48	1900.52
421.67	1886.47
421.86	1893.49
422.05	1944.99
422.24	1811.57
422.43	1863.07
422.61	2076.06
422.80	2066.69
422.99	2125.21
423.18	1998.82
423.37	2008.18
423.56	1984.77
423.75	2012.86
423.94	1942.64
424.13	1916.90
424.32	1921.58
424.50	2066.69
424.69	2087.76
424.88	2057.33
425.07	2062.01
425.26	2015.20
425.45	1954.35
425.64	2043.29
425.83	2080.74
426.01	2043.29
426.20	2024.56
426.39	2132.23
426.58	1998.82
426.77	2005.84
426.96	2108.82
427.15	2062.01
427.33	2059.67
427.52	2071.37
427.71	2258.62
427.90	2139.25
428.09	2218.83
428.28	2097.12
428.46	2214.15
428.65	2228.19
428.84	2253.94
429.03	2312.45
429.22	2129.89
429.40	2237.55
429.59	2230.53
429.78	2160.31
429.97	2104.14
430.16	2209.47
430.34	2228.19
430.53	2197.76
430.72	2324.15
430.91	2303.09
431.10	2434.16
431.28	2368.62
431.47	2420.11
431.66	2392.03
431.85	2363.94
432.03	2483.31
432.22	2457.56
432.41	2359.26
432.60	2399.05
432.79	2520.76
432.97	2455.22
433.16	2551.18
433.35	2511.39
433.54	2368.62
433.72	2415.43
433.91	2490.33
434.10	2385.01
434.28	2600.34
434.47	2534.80
434.66	2600.34
434.85	2593.31
435.03	2612.04
435.22	2600.34
435.41	2640.12
435.59	2630.76
435.78	2698.64
435.97	2752.47
436.16	2684.59
436.34	2686.94
436.53	2876.52
436.72	2745.45
436.90	2605.02
437.09	2864.82
437.28	2593.31
437.46	2602.68
437.65	2834.39
437.84	2834.39
438.02	2771.19
438.21	2712.68
438.40	2813.32
438.58	2846.09
438.77	2878.86
438.96	2888.22
439.14	2991.20
439.33	3021.63
439.52	2984.18
439.70	2930.35
439.89	3007.59
440.08	2995.89
440.26	2967.80
440.45	3178.45
440.63	3178.45
440.82	3101.21
441.01	3084.83
441.19	3103.55
441.38	3101.21
441.57	3201.85
441.75	3091.85
441.94	3220.58
442.12	3417.18
442.31	3293.13
442.50	3321.22
442.68	3255.69
442.87	3428.88
443.05	3391.44
443.24	3435.91
443.43	3361.01
443.61	3325.90
443.80	3503.78
443.98	3337.60
444.17	3232.28
444.35	3459.31
444.54	3449.95
444.73	3342.28
444.91	3520.17
445.10	3449.95
445.28	3515.48
445.47	3337.60
445.65	3353.99
445.84	3346.97
446.02	3440.59
446.21	3597.40
446.39	3386.76
446.58	3449.95
446.77	3478.04
446.95	3480.38
447.14	3496.76
447.32	3468.67
447.51	3398.46
447.69	3456.97
447.88	3552.93
448.06	3562.30
448.25	3669.96
448.43	3543.57
448.62	3400.80
448.80	3602.08
448.99	3676.98
449.17	3648.90
449.36	3653.58
449.54	3623.15
449.73	3845.50
449.91	3672.30
450.10	3634.85
450.28	3709.75
450.46	3744.86
450.65	3641.87
450.83	3651.24
451.02	3779.97
451.20	3941.46
451.39	3861.88
451.57	3744.86
451.76	3829.12
451.94	3896.99
452.13	3833.80
452.31	3744.86
452.49	3875.93
452.68	3936.78
452.86	3840.82
453.05	4044.45
453.23	3974.23
453.42	3894.65
453.60	3978.91
453.78	3969.55
453.97	3948.48
454.15	3913.38
454.34	3946.14
454.52	4107.64
454.70	3981.25
454.89	4018.70
455.07	3964.87
455.26	4107.64
455.44	4004.66
455.62	4086.58
455.81	4163.81
455.99	4124.02
456.17	4201.26
456.36	4346.37
456.54	4231.69
456.73	4259.78
456.91	4311.27
457.09	4287.86
457.28	4334.67
457.46	4269.14
457.64	4463.40
457.83	4297.22
458.01	4269.14
458.19	4430.63
458.38	4456.38
458.56	4400.21
458.74	4308.93
458.93	4404.89
459.11	4578.09
459.29	4550.00
459.48	4566.39
459.66	4432.97
459.84	4585.11
460.03	4535.96
460.21	4496.17
460.39	4559.36
460.57	4542.98
460.76	4531.28
460.94	4568.73
461.12	4528.94
461.31	4671.71
461.49	4688.09
461.67	4393.19
461.85	4762.99
462.04	4650.64
462.22	4915.12
462.40	4720.86
462.59	4645.96
462.77	4880.02
462.95	4910.44
463.13	4901.08
463.32	4915.12
463.50	4758.31
463.68	4856.61
463.86	4858.95
464.05	4898.74
464.23	4840.23
464.41	5046.20
464.59	4746.61
464.78	5085.98
464.96	4966.62
465.14	4985.34
465.32	4973.64
465.50	5104.71
465.69	5153.86
465.87	4833.21
466.05	5071.94
466.23	4870.65
466.41	5088.32
466.60	5210.03
466.78	5069.60
466.96	5032.15
467.14	5074.28
467.32	5008.75
467.51	5296.63
467.69	5153.86
467.87	5046.20
468.05	5247.48
468.23	5149.18
468.41	5128.11
468.60	5188.97
468.78	5308.34
468.96	5210.03
469.14	5268.55
469.32	5341.10
469.50	5181.95
469.69	5207.69
469.87	5418.34
470.05	5432.38
470.23	5488.56
470.41	5427.70
470.59	5423.02
470.77	5334.08
470.95	5399.62
471.14	5610.26
471.32	5401.96
471.50	5617.29
471.68	5673.46
471.86	5806.87
472.04	5682.82
472.22	5823.25
472.40	5586.86
472.58	5771.76
472.77	5781.12
472.95	5874.74
473.13	6195.40
473.31	5921.56
473.49	5813.89
473.67	6001.13
473.85	6031.56
474.03	6043.26
474.21	6045.60
474.39	6143.91
474.57	6064.33
474.75	6115.82
474.93	6258.59
475.12	6195.40
475.30	6300.72
475.48	6038.58
475.66	6286.68
475.84	6216.46
476.02	6511.37
476.20	6300.72
476.38	6448.18
476.56	6464.56
476.74	6600.31
476.92	6548.82
477.10	6698.61
477.28	6663.51
477.46	6731.38
477.64	6745.42
477.82	6729.04
478.00	6979.48
478.18	7005.22
478.36	7110.55
478.54	7070.76
478.72	6963.09
478.90	7239.28
479.08	7213.53
479.26	7325.88
479.44	7393.75
479.62	7379.71
479.80	7515.46
479.98	7410.14
480.16	7478.01
480.34	7536.52
480.52	7789.30
480.70	7693.34
480.88	7728.45
481.06	7772.92
481.24	7805.69
481.41	7812.71
481.59	8044.42
481.77	8119.32
481.95	8201.24
482.13	8255.07
482.31	8191.88
482.49	8226.98
482.67	8454.02
482.85	8358.05
483.03	8451.67
483.21	8681.05
483.39	8760.63
483.57	8519.55
483.74	8692.75
483.92	8697.43
484.10	8655.30
484.28	8798.07
484.46	9081.28
484.64	9357.46
484.82	8947.87
485.00	9111.71
485.18	9240.44
485.35	9430.02
485.53	9275.54
485.71	9568.11
485.89	9724.93
486.07	9696.84
486.25	9753.01
486.43	9699.18
486.61	9879.40
486.78	10001.11
486.96	10101.75
487.14	9991.75
487.32	10118.14
487.50	10076.01
487.68	9987.07
487.85	10218.78
488.03	10319.42
488.21	10590.92
488.39	10562.84
488.57	10684.55
488.75	10600.29
488.92	11077.76
489.10	11119.89
489.28	11143.29
489.46	11183.08
489.64	11192.44
489.81	11323.51
489.99	11332.87
490.17	11295.43
490.35	11419.47
490.53	11466.28
490.70	11625.44
490.88	11606.72
491.06	11595.01
491.24	11836.09
491.41	11754.17
491.59	12032.69
491.77	11674.59
491.95	12264.41
492.13	12182.49
492.30	12327.60
492.48	12386.12
492.66	12304.20
492.84	12245.68
493.01	12620.17
493.19	12484.42
493.37	12608.47
493.54	12882.31
493.72	12922.10
493.90	13163.17
494.08	13319.99
494.25	13078.91
494.43	13046.15
494.61	13317.65
494.79	13474.46
494.96	13429.99
495.14	13121.04
495.32	13713.20
495.49	13715.54
495.67	13853.63
495.85	13427.65
496.02	13862.99
496.20	13905.12
496.38	14068.96
496.55	14097.05
496.73	14408.34
496.91	13982.36
497.09	14583.88
497.26	14466.85
497.44	14375.57
497.62	14354.51
497.79	14546.43
497.97	14401.32
498.14	14644.73
498.32	14780.48
498.50	14808.57
498.67	14960.70
498.85	14766.44
499.03	15248.59
499.20	15180.71
499.38	15030.92
499.56	15309.44
499.73	15267.31
499.91	15342.21
500.08	15541.16
500.26	15309.44
500.44	15339.87
500.61	15475.62
500.79	15768.19
500.97	15777.55
501.14	16287.79
501.32	15939.05
501.49	16020.97
501.67	15917.98
501.84	16224.59
502.02	16020.97
502.20	16313.53
502.37	16252.68
502.55	16107.57
502.72	16100.55
502.90	16250.34
503.07	16086.50
503.25	16198.85
503.43	16650.57
503.60	16601.42
503.78	16702.06
503.95	16702.06
504.13	16547.59
504.30	16774.62
504.48	16549.93
504.65	16901.01
504.83	16807.39
505.01	17273.15
505.18	17163.15
505.36	17160.81
505.53	17121.02
505.71	17296.56
505.88	17261.45
506.06	17137.40
506.23	17289.54
506.41	17577.42
506.58	17624.23
506.76	17661.68
506.93	17727.22
507.11	17642.96
507.28	17387.84
507.46	17563.38
507.63	17841.90
507.81	18001.06
507.98	17603.17
508.16	17935.53
508.33	17715.51
508.50	18005.74
508.68	18183.62
508.85	18200.01
509.03	18045.53
509.20	18232.77
509.38	18480.87
509.55	18469.17
509.73	18551.09
509.90	18326.39
510.08	18333.42
510.25	18288.95
510.42	18551.09
510.60	18881.10
510.77	18927.91
510.95	19126.86
511.12	18728.97
511.30	18757.05
511.47	19002.81
511.64	19089.41
511.82	18735.99
511.99	19061.32
512.17	19302.40
512.34	19208.78
512.51	19367.93
512.69	19250.91
512.86	19328.14
513.04	19463.90
513.21	19456.87
513.38	19314.10
513.56	19583.26
513.73	19508.37
513.90	19672.20
514.08	19770.51
514.25	19585.60
514.43	20004.56
514.60	19868.81
514.77	20079.46
514.95	20056.05
515.12	19983.49
515.29	20240.95
515.47	19960.09
515.64	20212.87
515.81	20105.20
515.99	20463.30
516.16	20018.60
516.33	20388.41
516.51	20446.92
516.68	20229.25
516.85	20535.86
517.03	20409.47
517.20	20652.89
517.37	20823.75
517.54	20821.41
517.72	20643.52
517.89	20596.71
518.06	20599.05
518.24	20821.41
518.41	21069.50
518.58	20910.35
518.75	20973.54
518.93	21116.31
519.10	21287.17
519.27	21018.01
519.45	21172.49
519.62	21301.22
519.79	21385.47
519.96	21216.96
520.14	21390.16
520.31	21483.78
520.48	21561.02
520.65	21259.09
520.83	21675.70
521.00	21497.82
521.17	21645.27
521.34	21191.21
521.52	21589.10
521.69	21766.98
521.86	21628.89
522.03	21947.20
522.20	21949.54
522.38	21656.98
522.55	21797.41
522.72	21909.75
522.89	22146.15
523.07	22129.77
523.24	22328.71
523.41	22391.91
523.58	21680.38
523.75	22108.70
523.92	22111.04
524.10	22171.89
524.27	22375.52
524.44	22422.33
524.61	22787.46
524.78	22618.94
524.96	22436.38
525.13	22930.23
525.30	22703.20
525.47	22991.08
525.64	22834.27
525.81	22721.92
525.98	22955.97
526.16	23295.35
526.33	23187.69
526.50	23227.48
526.67	22862.35
526.84	23021.51
527.01	22780.43
527.18	23040.23
527.36	23396.00
527.53	23194.71
527.70	23379.61
527.87	23487.28
528.04	23393.65
528.21	23594.94
528.38	23405.36
528.55	23335.14
528.72	23431.10
528.89	23655.79
529.07	23658.14
529.24	23864.10
529.41	23630.05
529.58	23447.49
529.75	23489.62
529.92	23431.10
530.09	23683.88
530.26	23742.39
530.43	23967.09
530.60	23620.69
530.77	23648.77
530.94	23976.45
531.11	23637.07
531.28	23828.99
531.46	24041.98
531.63	24049.00
531.80	23960.06
531.97	24449.24
532.14	24540.52
532.31	24425.83
532.48	24474.98
532.65	24533.50
532.82	24348.59
532.99	24053.69
533.16	24290.08
533.33	24233.91
533.50	24353.27
533.67	24570.94
533.84	24182.42
534.01	24554.56
534.18	24449.24
534.35	24507.75
534.52	24465.62
534.69	24762.87
534.86	25289.49
535.03	24978.20
535.20	24753.51
535.37	24573.28
535.54	24776.91
535.71	24521.79
535.88	24711.38
536.05	25043.73
536.22	25392.47
536.38	25408.86
536.55	25191.19
536.72	25053.09
536.89	25062.46
537.06	25422.90
537.23	25319.92
537.40	25193.53
537.57	25254.38
537.74	24863.51
537.91	25605.46
538.08	25804.41
538.25	25385.45
538.42	25303.53
538.59	25010.96
538.75	25558.65
538.92	25202.89
539.09	25523.54
539.26	25500.14
539.43	25776.32
539.60	25713.13
539.77	25558.65
539.94	25799.73
540.11	25799.73
540.28	25589.08
540.44	25844.20
540.61	25773.98
540.78	25656.95
540.95	26045.48
541.12	26127.40
541.29	25596.10
541.46	25914.41
541.62	26113.36
541.79	26141.44
541.96	25743.55
542.13	25984.63
542.30	25895.69
542.47	26452.73
542.63	26478.48
542.80	26319.32
542.97	26398.90
543.14	26508.91
543.31	26272.51
543.48	26101.65
543.64	26389.54
543.81	26778.07
543.98	26724.24
544.15	26405.92
544.32	26810.84
544.48	26930.20
544.65	26731.26
544.82	26787.43
544.99	26480.82
545.16	26618.91
545.32	26862.33
545.49	26843.60
545.66	27028.51
545.83	27058.93
546.00	26979.36
546.16	27166.60
546.33	26888.07
546.50	26710.19
546.67	27063.61
546.83	26670.40
547.00	27412.35
547.17	27080.00
547.34	27175.96
547.50	27016.80
547.67	27381.93
547.84	27367.88
548.00	27594.92
548.17	27531.72
548.34	27428.74
548.51	27351.50
548.67	27367.88
548.84	27318.73
549.01	27410.01
549.18	27187.66
549.34	27370.22
549.51	27166.60
549.68	27278.94
549.84	27571.51
550.01	27328.10
550.18	27641.73
550.34	27573.85
550.51	27789.18
550.68	27843.01
550.84	27646.41
551.01	27541.08
551.18	27510.66
551.34	27545.76
551.51	27550.45
551.68	27644.07
551.84	27985.79
552.01	27587.89
552.18	28203.46
552.34	27913.23
552.51	28271.33
552.68	27903.87
552.84	28048.98
553.01	28128.56
553.18	28142.60
553.34	28112.17
553.51	28070.04
553.67	28343.89
553.84	28809.65
554.01	28463.25
554.17	28187.07
554.34	28063.02
554.51	28236.22
554.67	28292.40
554.84	28130.90
555.00	28126.22
555.17	28032.60
555.33	28535.81
555.50	28393.04
555.67	28397.72
555.83	28341.55
556.00	28034.94
556.16	28645.82
556.33	28748.80
556.50	28444.53
556.66	29022.64
556.83	28444.53
556.99	28746.46
557.16	29146.69
557.32	28341.55
557.49	28624.75
557.65	28327.50
557.82	28505.38
557.98	28393.04
558.15	28606.03
558.32	28889.23
558.48	28563.90
558.65	28474.96
558.81	29060.09
558.98	28781.57
559.14	28741.78
559.31	28493.68
559.47	29144.35
559.64	28575.60
559.80	29120.95
559.97	28835.40
560.13	28662.20
560.30	29216.91
560.46	29420.53
560.63	28933.70
560.79	28854.12
560.96	28940.72
561.12	29151.37
561.29	29048.39
561.45	28947.75
561.61	29008.60
561.78	29352.66
561.94	29207.55
562.11	28718.37
562.27	28933.70
562.44	29237.97
562.60	29034.35
562.77	28889.23
562.93	29048.39
563.10	29209.89
563.26	29340.96
563.42	29439.26
563.59	29439.26
563.75	29287.12
563.92	29352.66
564.08	29092.86
564.24	29020.30
564.41	29289.46
564.57	29570.33
564.74	29062.43
564.90	29259.04
565.07	29635.86
565.23	29556.28
565.39	29359.68
565.56	29397.13
565.72	29420.53
565.88	29539.90
566.05	29263.72
566.21	29570.33
566.38	29326.91
566.54	29261.38
566.70	29699.06
566.87	29795.02
567.03	29385.43
567.19	29514.16
567.36	29319.89
567.52	29261.38
567.68	29474.37
567.85	29759.91
568.01	29436.92
568.17	29591.39
568.34	29982.26
568.50	29708.42
568.66	29589.05
568.83	30075.88
568.99	29661.61
569.15	29612.46
569.32	29869.92
569.48	29326.91
569.64	29717.78
569.81	29413.51
569.97	29902.68
570.13	29851.19
570.30	29633.52
570.46	29900.34
570.62	30066.52
570.78	29371.38
570.95	29273.08
571.11	29947.15
571.27	29310.53
571.43	29731.83
571.60	29762.25
571.76	29708.42
571.92	29745.87
572.09	30010.35
572.25	29799.70
572.41	29649.91
572.57	29799.70
572.74	29745.87
572.90	29673.31
573.06	29677.99
573.22	29818.42
573.38	29846.51
573.55	29694.38
573.71	30153.12
573.87	29766.93
574.03	30066.52
574.20	30005.67
574.36	29905.02
574.52	29813.74
574.68	29830.13
574.84	29661.61
575.01	29647.57
575.17	30394.20
575.33	30003.33
575.49	30045.46
575.65	30239.72
575.82	29881.62
575.98	30190.57
576.14	29710.76
576.30	29666.29
576.46	29909.71
576.62	29596.07
576.79	29928.43
576.95	30106.31
577.11	29755.23
577.27	30230.36
577.43	30096.95
577.59	30284.19
577.75	29926.09
577.92	29949.50
578.08	29940.13
578.24	29750.55
578.40	30195.25
578.56	30057.16
578.72	30352.07
578.88	30057.16
579.04	30536.97
579.21	30054.82
579.37	30129.72
579.53	30155.46
579.69	30052.48
579.85	30338.02
580.01	30059.50
580.17	29783.32
580.33	30017.37
580.49	30235.04
580.65	30125.04
580.82	30031.41
580.98	30314.62
581.14	29930.77
581.30	30059.50
581.46	30132.06
581.62	29876.94
581.78	29596.07
581.94	30691.44
582.10	29947.15
582.26	29830.13
582.42	30155.46
582.58	30426.96
582.74	30614.21
582.90	30253.76
583.06	30218.66
583.22	30366.11
583.38	30312.28
583.54	30033.75
583.70	30143.76
583.86	30188.23
584.02	30295.89
584.18	30338.02
584.34	30347.39
584.50	30714.85
584.66	30087.59
584.82	29942.47
584.98	30441.01
585.14	30431.65
585.30	29734.17
585.46	30284.19
585.62	30139.08
585.78	30333.34
585.94	29766.93
586.10	30443.35
586.26	30096.95
586.42	30518.25
586.58	30480.80
586.74	29869.92
586.90	29790.34
587.06	29993.97
587.22	30108.65
587.38	29993.97
587.54	30412.92
587.70	30305.26
587.86	30639.95
588.02	30455.05
588.18	30726.55
588.34	30412.92
588.49	30398.88
588.65	30752.30
588.81	30005.67
588.97	30621.23
589.13	30359.09
589.29	30237.38
589.45	30445.69
589.61	30904.43
589.77	30719.53
589.93	30422.28
590.08	30466.75
590.24	30492.50
590.40	30569.74
590.56	30597.82
590.72	30473.78
590.88	30473.78
591.04	30607.19
591.20	30558.03
591.35	31173.60
591.51	30738.26
591.67	30759.32
591.83	31049.55
591.99	30621.23
