SpectraSuite Data File
++++++++++++++++++++++++++++++++++++
Date: Fri Oct 18 13:58:22 GMT-05:00 2013
User: bianchi
Dark Spectrum Present: No
Reference Spectrum Present: No
Number of Sampled Component Spectra: 1
Spectrometers: USB2+H05261
Integration Time (usec): 50000 (USB2+H05261)
Spectra Averaged: 1 (USB2+H05261)
Boxcar Smoothing: 0 (USB2+H05261)
Correct for Electrical Dark: No (USB2+H05261)
Strobe/Lamp Enabled: No (USB2+H05261)
Correct for Detector Non-linearity: No (USB2+H05261)
Correct for Stray Light: No (USB2+H05261)
Number of Pixels in Processed Spectrum: 2048
>>>>>Begin Processed Spectral Data<<<<<
365.73	0.00
365.92	0.00
366.12	0.00
366.32	0.00
366.52	0.00
366.72	0.00
366.91	0.00
367.11	0.00
367.31	0.00
367.51	0.00
367.70	0.00
367.90	0.00
368.10	0.00
368.30	0.00
368.49	0.00
368.69	0.00
368.89	0.00
369.09	0.00
369.28	0.00
369.48	0.00
369.68	0.00
369.87	0.00
370.07	0.00
370.27	0.00
370.47	0.00
370.66	63.19
370.86	72.56
371.06	117.03
371.25	149.79
371.45	102.98
371.65	287.89
371.84	93.62
372.04	156.82
372.24	128.73
372.44	187.24
372.63	187.24
372.83	252.78
373.03	175.54
373.22	177.88
373.42	175.54
373.62	201.29
373.81	224.69
374.01	320.65
374.21	222.35
374.40	224.69
374.60	266.82
374.79	241.08
374.99	255.12
375.19	205.97
375.38	191.92
375.58	210.65
375.78	301.93
375.97	238.73
376.17	283.20
376.37	280.86
376.56	245.76
376.76	280.86
376.95	276.18
377.15	259.80
377.35	196.60
377.54	325.33
377.74	294.91
377.93	257.46
378.13	332.36
378.33	297.25
378.52	215.33
378.72	308.95
378.91	341.72
379.11	184.90
379.31	315.97
379.50	301.93
379.70	346.40
379.89	332.36
380.09	318.31
380.28	285.55
380.48	369.80
380.68	285.55
380.87	315.97
381.07	222.35
381.26	285.55
381.46	266.82
381.65	358.10
381.85	306.61
382.04	362.78
382.24	304.27
382.43	320.65
382.63	283.20
382.83	339.38
383.02	348.74
383.22	449.38
383.41	327.68
383.61	379.17
383.80	383.85
384.00	304.27
384.19	337.04
384.39	330.02
384.58	379.17
384.78	337.04
384.97	358.10
385.17	362.78
385.36	325.33
385.56	393.21
385.75	320.65
385.95	351.08
386.14	395.55
386.34	402.57
386.53	390.87
386.72	360.44
386.92	505.56
387.11	411.93
387.31	484.49
387.50	433.00
387.70	447.04
387.89	360.44
388.09	430.66
388.28	470.45
388.48	418.96
388.67	557.05
388.86	414.27
389.06	367.46
389.25	451.72
389.45	374.49
389.64	409.59
389.84	491.51
390.03	416.62
390.22	500.87
390.42	519.60
390.61	463.43
390.81	463.43
391.00	503.22
391.19	454.06
391.39	435.34
391.58	493.85
391.78	557.05
391.97	521.94
392.16	559.39
392.36	573.43
392.55	554.71
392.75	486.83
392.94	561.73
393.13	535.98
393.33	550.03
393.52	613.22
393.71	557.05
393.91	564.07
394.10	601.52
394.29	610.88
394.49	526.62
394.68	568.75
394.88	554.71
395.07	603.86
395.26	557.05
395.46	627.26
395.65	730.25
395.84	636.63
396.04	704.50
396.23	685.78
396.42	650.67
396.62	692.80
396.81	685.78
397.00	641.31
397.19	655.35
397.39	695.14
397.58	636.63
397.77	629.60
397.97	718.54
398.16	671.73
398.35	704.50
398.55	770.04
398.74	713.86
398.93	739.61
399.12	791.10
399.32	660.03
399.51	678.76
399.70	671.73
399.90	688.12
400.09	739.61
400.28	730.25
400.47	681.10
400.67	718.54
400.86	741.95
401.05	730.25
401.24	709.18
401.44	777.06
401.63	833.23
401.82	770.04
402.01	863.66
402.21	770.04
402.40	837.91
402.59	938.55
402.78	842.59
402.97	894.08
403.17	828.55
403.36	835.57
403.55	901.11
403.74	828.55
403.93	866.00
404.13	842.59
404.32	833.23
404.51	882.38
404.70	884.72
404.89	947.92
405.09	945.58
405.28	917.49
405.47	943.24
405.66	987.71
405.85	940.90
406.05	936.21
406.24	926.85
406.43	980.68
406.62	997.07
406.81	1004.09
407.00	968.98
407.20	901.11
407.39	950.26
407.58	990.05
407.77	990.05
407.96	1062.60
408.15	1203.04
408.34	1071.97
408.54	1050.90
408.73	1093.03
408.92	1046.22
409.11	1196.01
409.30	1114.10
409.49	1050.90
409.68	1118.78
409.87	1086.01
410.07	1179.63
410.26	1102.39
410.45	1224.10
410.64	1294.32
410.83	1203.04
411.02	1233.46
411.21	1226.44
411.40	1245.16
411.59	1207.72
411.78	1291.98
411.98	1149.20
412.17	1301.34
412.36	1165.59
412.55	1282.61
412.74	1329.42
412.93	1301.34
413.12	1369.21
413.31	1427.73
413.50	1383.26
413.69	1397.30
413.88	1294.32
414.07	1434.75
414.26	1481.56
414.45	1409.00
414.64	1376.24
414.83	1542.41
415.02	1579.86
415.22	1598.59
415.41	1572.84
415.60	1591.56
415.79	1495.60
415.98	1462.83
416.17	1572.84
416.36	1547.09
416.55	1617.31
416.74	1568.16
416.93	1631.35
417.12	1647.74
417.31	1678.16
417.50	1715.61
417.69	1760.08
417.88	1781.15
418.07	1715.61
418.26	1739.02
418.45	1713.27
418.64	1863.07
418.83	1685.19
419.02	1781.15
419.21	1881.79
419.39	1788.17
419.58	1834.98
419.77	1902.86
419.96	1895.83
420.15	1865.41
420.34	1792.85
420.53	1921.58
420.72	1797.53
420.91	1942.64
421.10	1921.58
421.29	1919.24
421.48	1757.74
421.67	2003.50
421.86	1863.07
422.05	1959.03
422.24	1959.03
422.43	1975.41
422.61	2080.74
422.80	1912.22
422.99	1996.48
423.18	1977.75
423.37	2017.54
423.56	2050.31
423.75	1984.77
423.94	1984.77
424.13	1891.15
424.32	1909.88
424.50	2127.55
424.69	2038.61
424.88	2040.95
425.07	1905.20
425.26	1867.75
425.45	1888.81
425.64	1930.94
425.83	2050.31
426.01	2015.20
426.20	2066.69
426.39	1968.39
426.58	2036.27
426.77	2033.93
426.96	2157.97
427.15	2101.80
427.33	2139.25
427.52	2211.81
427.71	2146.27
427.90	2186.06
428.09	2211.81
428.28	2218.83
428.46	2059.67
428.65	2148.61
428.84	2202.44
429.03	2265.64
429.22	2143.93
429.40	2179.04
429.59	2225.85
429.78	2223.51
429.97	2097.12
430.16	2183.72
430.34	2291.38
430.53	2321.81
430.72	2303.09
430.91	2244.57
431.10	2282.02
431.28	2422.45
431.47	2303.09
431.66	2356.92
431.85	2328.83
432.03	2387.35
432.22	2520.76
432.41	2392.03
432.60	2445.86
432.79	2382.67
432.97	2370.96
433.16	2455.22
433.35	2429.48
433.54	2546.50
433.72	2431.82
433.91	2455.22
434.10	2525.44
434.28	2513.74
434.47	2560.55
434.66	2492.67
434.85	2614.38
435.03	2555.86
435.22	2600.34
435.41	2532.46
435.59	2518.42
435.78	2609.70
435.97	2628.42
436.16	2675.23
436.34	2614.38
436.53	2651.83
436.72	2864.82
436.90	2633.10
437.09	2747.79
437.28	2654.17
437.46	2686.94
437.65	2773.53
437.84	2761.83
438.02	2750.13
438.21	2693.96
438.40	2644.81
438.58	2818.00
438.77	3007.59
438.96	2906.95
439.14	2827.37
439.33	2967.80
439.52	2827.37
439.70	2944.39
439.89	2981.84
440.08	3061.42
440.26	2988.86
440.45	3131.64
440.63	3033.33
440.82	3054.40
441.01	3061.42
441.19	3089.51
441.38	3162.06
441.57	3126.96
441.75	3211.22
441.94	3262.71
442.12	3176.11
442.31	3361.01
442.50	3335.26
442.68	3339.94
442.87	3262.71
443.05	3346.97
443.24	3475.70
443.43	3358.67
443.61	3386.76
443.80	3424.20
443.98	3211.22
444.17	3141.00
444.35	3368.03
444.54	3393.78
444.73	3379.73
444.91	3379.73
445.10	3485.06
445.28	3344.63
445.47	3283.77
445.65	3459.31
445.84	3501.44
446.02	3461.65
446.21	3433.57
446.39	3431.23
446.58	3412.50
446.77	3489.74
446.95	3417.18
447.14	3414.84
447.32	3515.48
447.51	3574.00
447.69	3478.04
447.88	3613.79
448.06	3515.48
448.25	3428.88
448.43	3527.19
448.62	3492.08
448.80	3555.27
448.99	3480.38
449.17	3571.66
449.36	3562.30
449.54	3597.40
449.73	3653.58
449.91	3630.17
450.10	3705.07
450.28	3733.15
450.46	3712.09
450.65	3824.44
450.83	3805.71
451.02	3693.37
451.20	3723.79
451.39	3798.69
451.57	3735.50
451.76	3768.26
451.94	3763.58
452.13	3880.61
452.31	3786.99
452.49	3861.88
452.68	3763.58
452.86	3815.07
453.05	3957.85
453.23	3955.51
453.42	3812.73
453.60	3819.75
453.78	3922.74
453.97	3857.20
454.15	3852.52
454.34	3920.40
454.52	3904.01
454.70	4077.21
454.89	3976.57
455.07	3882.95
455.26	4058.49
455.44	3904.01
455.62	4042.11
455.81	4079.55
455.99	4107.64
456.17	4145.09
456.36	4135.73
456.54	4102.96
456.73	4128.70
456.91	4313.61
457.09	4271.48
457.28	4360.42
457.46	4362.76
457.64	4337.01
457.83	4372.12
458.01	4255.09
458.19	4477.44
458.38	4266.80
458.56	4514.89
458.74	4411.91
458.93	4397.87
459.11	4507.87
459.29	4367.44
459.48	4423.61
459.66	4493.83
459.84	4624.90
460.03	4608.51
460.21	4648.30
460.39	4540.64
460.57	4498.51
460.76	4346.37
460.94	4517.23
461.12	4491.49
461.31	4552.34
461.49	4517.23
461.67	4564.04
461.85	4664.69
462.04	4592.13
462.22	4770.01
462.40	4858.95
462.59	4786.40
462.77	4688.09
462.95	4816.82
463.13	4699.80
463.32	4802.78
463.50	4734.90
463.68	4798.10
463.86	4770.01
464.05	4819.16
464.23	4709.16
464.41	4840.23
464.59	4814.48
464.78	4898.74
464.96	4847.25
465.14	4765.33
465.32	4940.87
465.50	4999.38
465.69	4835.55
465.87	4945.55
466.05	4973.64
466.23	4842.57
466.41	4903.42
466.60	5174.92
466.78	5104.71
466.96	4957.25
467.14	5025.13
467.32	4985.34
467.51	5247.48
467.69	4938.53
467.87	5153.86
468.05	5123.43
468.23	5001.72
468.41	5139.82
468.60	4994.70
468.78	5245.14
468.96	5013.43
469.14	5280.25
469.32	5064.92
469.50	5160.88
469.69	5308.34
469.87	5338.76
470.05	5434.72
470.23	5401.96
470.41	5385.57
470.59	5586.86
470.77	5455.79
470.95	5465.15
471.14	5636.01
471.32	5376.21
471.50	5504.94
471.68	5589.20
471.86	5603.24
472.04	5607.92
472.22	5753.04
472.40	5591.54
472.58	5638.35
472.77	5636.01
472.95	5830.27
473.13	5947.30
473.31	5537.71
473.49	5926.24
473.67	5823.25
473.85	5792.83
474.03	5926.24
474.21	5914.53
474.39	6031.56
474.57	6012.84
474.75	5947.30
474.93	6003.47
475.12	6024.54
475.30	6104.12
475.48	6232.85
475.66	6256.25
475.84	6293.70
476.02	6282.00
476.20	6410.73
476.38	6394.34
476.56	6443.49
476.74	6518.39
476.92	6424.77
477.10	6455.20
477.28	6759.47
477.46	6497.33
477.64	6647.12
477.82	6663.51
478.00	6806.28
478.18	6825.00
478.36	6995.86
478.54	6981.82
478.72	7115.23
478.90	7037.99
479.08	7129.27
479.26	7145.66
479.44	7293.11
479.62	7363.33
479.80	7342.26
479.98	7426.52
480.16	7442.90
480.34	7585.68
480.52	7707.38
480.70	7627.81
480.88	7606.74
481.06	7831.43
481.24	7655.89
481.41	7784.62
481.59	7992.93
481.77	7906.33
481.95	8093.57
482.13	8109.96
482.31	8072.51
482.49	8210.60
482.67	8154.43
482.85	8098.25
483.03	8643.60
483.21	8557.00
483.39	8444.65
483.57	8390.82
483.74	8681.05
483.92	8762.97
484.10	8477.42
484.28	8791.05
484.46	8945.53
484.64	9018.08
484.82	8926.80
485.00	8952.55
485.18	9238.09
485.35	9350.44
485.53	9259.16
485.71	9528.32
485.89	9427.68
486.07	9348.10
486.25	9486.19
486.43	9472.15
486.61	9783.44
486.78	9825.57
486.96	9844.29
487.14	9743.65
487.32	9956.64
487.50	10167.29
487.68	10153.24
487.85	10300.70
488.03	10274.95
488.21	10370.91
488.39	10399.00
488.57	10682.20
488.75	10677.52
488.92	10890.51
489.10	10785.19
489.28	10691.57
489.46	11131.59
489.64	10764.12
489.81	11290.74
489.99	11342.24
490.17	11288.40
490.35	11286.06
490.53	11398.41
490.70	11595.01
490.88	11534.16
491.06	11845.45
491.24	11470.97
491.41	11698.00
491.59	11929.71
491.77	11616.08
491.95	11908.65
492.13	12046.74
492.30	12215.26
492.48	12341.64
492.66	12388.46
492.84	12325.26
493.01	12622.51
493.19	12432.93
493.37	12739.54
493.54	12695.07
493.72	12788.69
493.90	12863.58
494.08	12751.24
494.25	13069.55
494.43	12950.18
494.61	13207.64
494.79	13249.77
494.96	13240.41
495.14	13298.92
495.32	13444.04
495.49	13591.49
495.67	13586.81
495.85	13680.43
496.02	13633.62
496.20	13661.71
496.38	13783.41
496.55	13767.03
496.73	14094.71
496.91	14141.52
497.09	14401.32
497.26	14200.03
497.44	14249.18
497.62	14410.68
497.79	14621.33
497.97	14647.07
498.14	14743.03
498.32	14787.50
498.50	14684.52
498.67	14860.06
498.85	15154.97
499.03	14621.33
499.20	14937.30
499.38	14888.15
499.56	15126.88
499.73	15211.14
499.91	15129.22
500.08	15229.87
500.26	15049.64
500.44	15421.79
500.61	15330.51
500.79	15171.35
500.97	15733.08
501.14	15679.25
501.32	15417.11
501.49	15655.84
501.67	15672.23
501.84	15669.89
502.02	16163.74
502.20	15960.11
502.37	16098.20
502.55	15976.50
502.72	15981.18
502.90	16173.10
503.07	15964.79
503.25	16027.99
503.43	16355.66
503.60	16257.36
503.78	16056.08
503.95	16617.80
504.13	16318.22
504.30	16531.20
504.48	16524.18
504.65	16578.01
504.83	16685.68
505.01	16884.62
505.18	16954.84
505.36	17111.66
505.53	16943.14
505.71	17062.51
505.88	17083.57
506.06	17032.08
506.23	17149.11
506.41	17341.03
506.58	17436.99
506.76	17275.49
506.93	17116.34
507.11	17415.93
507.28	17394.86
507.46	17202.94
507.63	17329.33
507.81	17680.41
507.98	17558.70
508.16	17561.04
508.33	17769.35
508.50	17759.98
508.68	18005.74
508.85	18003.40
509.03	17977.65
509.20	18134.47
509.38	18326.39
509.55	18352.14
509.73	18082.98
509.90	18485.55
510.08	18251.50
510.25	18494.91
510.42	18387.25
510.60	18462.15
510.77	18340.44
510.95	18572.15
511.12	18443.42
511.30	18457.46
511.47	18757.05
511.64	18717.26
511.82	18754.71
511.99	18883.44
512.17	19030.90
512.34	19040.26
512.51	19194.73
512.69	18782.80
512.86	19103.45
513.04	19419.42
513.21	19161.97
513.38	19400.70
513.56	19491.98
513.73	19140.90
513.90	19396.02
514.08	19178.35
514.25	19522.41
514.43	19587.94
514.60	19646.46
514.77	19562.20
514.95	19424.11
515.12	19833.70
515.29	19566.88
515.47	19719.01
515.64	20013.92
515.81	19885.19
515.99	20231.59
516.16	20287.76
516.33	20168.40
516.51	20196.48
516.68	19789.23
516.85	20203.50
517.03	20311.17
517.20	20147.33
517.37	20472.67
517.54	20430.54
517.72	20432.88
517.89	20257.34
518.06	20430.54
518.24	20512.46
518.41	20446.92
518.58	20542.88
518.75	20381.38
518.93	20879.92
519.10	20493.73
519.27	20950.14
519.45	20905.66
519.62	20908.01
519.79	20938.43
519.96	20863.54
520.14	21326.96
520.31	20947.79
520.48	21160.78
520.65	21216.96
520.83	21104.61
521.00	21322.28
521.17	21142.06
521.34	20961.84
521.52	21366.75
521.69	21289.51
521.86	21495.48
522.03	21495.48
522.20	21799.75
522.38	21979.97
522.55	21703.79
522.72	21589.10
522.89	21869.97
523.07	22029.12
523.24	21855.92
523.41	22464.46
523.58	21956.57
523.75	22288.92
523.92	22111.04
524.10	21806.77
524.27	22080.61
524.44	22368.50
524.61	22324.03
524.78	22040.82
524.96	22424.67
525.13	22307.65
525.30	22600.21
525.47	22534.68
525.64	22136.79
525.81	22752.35
525.98	22609.58
526.16	22558.08
526.33	22361.48
526.50	22658.73
526.67	22342.75
526.84	22707.88
527.01	22860.01
527.18	22696.17
527.36	22817.88
527.53	23131.51
527.70	23222.80
527.87	23009.81
528.04	23199.39
528.21	23115.13
528.38	23044.91
528.55	23166.62
528.72	23204.07
528.89	23145.56
529.07	23386.63
529.24	23213.43
529.41	23454.51
529.58	23667.50
529.75	23311.74
529.92	23328.12
530.09	23604.30
530.26	23454.51
530.43	23714.31
530.60	23491.96
530.77	23658.14
530.94	23438.12
531.11	23501.32
531.28	23353.87
531.46	23356.21
531.63	23639.41
531.80	23854.74
531.97	23836.02
532.14	23978.79
532.31	23791.55
532.48	23922.62
532.65	23637.07
532.82	23623.03
532.99	24313.48
533.16	23740.05
533.33	24112.20
533.50	24332.21
533.67	24151.99
533.84	24259.65
534.01	24231.57
534.18	24159.01
534.35	24594.35
534.52	24308.80
534.69	24465.62
534.86	24489.03
535.03	24430.51
535.20	24521.79
535.37	24453.92
535.54	24498.39
535.71	24837.76
535.88	24697.33
536.05	24491.37
536.22	24704.35
536.38	24971.18
536.55	24692.65
536.72	24554.56
536.89	24781.59
537.06	24556.90
537.23	24924.36
537.40	24306.46
537.57	24847.13
537.74	24936.07
537.91	24992.24
538.08	25158.42
538.25	24943.09
538.42	25432.26
538.59	25010.96
538.75	24762.87
538.92	25039.05
539.09	25542.27
539.26	25380.77
539.43	25090.54
539.60	25301.19
539.77	25088.20
539.94	25502.48
540.11	25366.73
540.28	25139.69
540.44	25394.81
540.61	25518.86
540.78	25287.15
540.95	25593.76
541.12	25568.01
541.29	25518.86
541.46	25631.21
541.62	25422.90
541.79	25378.43
541.96	25376.09
542.13	25305.87
542.30	25682.70
542.47	25958.88
542.63	25785.68
542.80	25968.24
542.97	25834.83
543.14	26178.89
543.31	26101.65
543.48	25820.79
543.64	26033.78
543.81	26707.85
543.98	26499.55
544.15	26328.69
544.32	26347.41
544.48	26338.05
544.65	26218.68
544.82	26127.40
544.99	26096.97
545.16	26394.22
545.32	26139.10
545.49	26899.78
545.66	26342.73
545.83	26408.26
546.00	26565.08
546.16	26485.50
546.33	26551.04
546.50	26059.52
546.67	26841.26
546.83	26466.78
547.00	26270.17
547.17	26635.30
547.34	26663.38
547.50	26951.27
547.67	26960.63
547.84	27077.66
548.00	26920.84
548.17	27274.26
548.34	26953.61
548.51	27051.91
548.67	27000.42
548.84	27138.51
549.01	27061.27
549.18	27023.83
549.34	27026.17
549.51	27005.10
549.68	26766.37
549.84	26897.44
550.01	27096.38
550.18	27152.55
550.34	27405.33
550.51	27754.07
550.68	27316.39
550.84	27070.64
551.01	27318.73
551.18	27218.09
551.34	27080.00
551.51	27246.18
551.68	27468.53
551.84	27480.23
552.01	27344.48
552.18	27395.97
552.34	27587.89
552.51	27564.49
552.68	27496.61
552.84	27936.63
553.01	27550.45
553.18	27782.16
553.34	27843.01
553.51	27578.53
553.67	27845.35
553.84	27927.27
554.01	27742.37
554.17	27648.75
554.34	27632.36
554.51	27821.95
554.67	27901.53
554.84	27513.00
555.00	27800.88
555.17	27782.16
555.33	27929.61
555.50	27859.40
555.67	28283.03
555.83	27374.91
556.00	28360.27
556.16	27953.02
556.33	28210.48
556.50	27880.46
556.66	28280.69
556.83	28226.86
556.99	28311.12
557.16	28376.66
557.32	27985.79
557.49	28060.68
557.65	28023.23
557.82	28156.64
557.98	27924.93
558.15	28126.22
558.32	28397.72
558.48	28439.85
558.65	28400.06
558.81	28067.70
558.98	28556.88
559.14	28147.28
559.31	27931.95
559.47	28364.95
559.64	28215.16
559.80	28517.09
559.97	28589.64
560.13	28268.99
560.30	28634.11
560.46	28456.23
560.63	28362.61
560.79	28744.12
560.96	28671.56
561.12	28561.56
561.29	28451.55
561.45	28510.07
561.61	29024.98
561.78	28631.77
561.94	28573.26
562.11	28739.44
562.27	28657.52
562.44	28720.71
562.60	28563.90
562.77	28758.16
562.93	28442.19
563.10	28577.94
563.26	28584.96
563.42	29083.50
563.59	28987.53
563.75	28826.04
563.92	28910.30
564.08	28692.63
564.24	28854.12
564.41	28694.97
564.57	28760.50
564.74	28648.16
564.90	29186.48
565.07	29256.70
565.23	29034.35
565.39	29036.69
565.56	28797.95
565.72	28608.37
565.88	29111.58
566.05	28826.04
566.21	29006.26
566.38	29013.28
566.54	29008.60
566.70	29006.26
566.87	29244.99
567.03	28886.89
567.19	29146.69
567.36	29001.58
567.52	29076.48
567.68	29111.58
567.85	28879.87
568.01	28737.10
568.17	28959.45
568.34	29041.37
568.50	28912.64
568.66	29273.08
568.83	29387.77
568.99	29347.98
569.15	28713.69
569.32	29001.58
569.48	28989.88
569.64	29099.88
569.81	29095.20
569.97	29076.48
570.13	29226.27
570.30	29343.30
570.46	29198.18
570.62	29041.37
570.78	28905.62
570.95	29099.88
571.11	29418.19
571.27	28931.36
571.43	29095.20
571.60	29003.92
571.76	29191.16
571.92	29029.66
572.09	29151.37
572.25	29434.58
572.41	29298.83
572.57	29450.96
572.74	29656.93
572.90	29352.66
573.06	29699.06
573.22	29441.60
573.38	29593.73
573.55	29116.26
573.71	29860.55
573.87	29355.00
574.03	29106.90
574.20	29219.25
574.36	29364.36
574.52	29738.85
574.68	29043.71
574.84	29350.32
575.01	29256.70
575.17	29542.24
575.33	29333.93
575.49	29453.30
575.65	29298.83
575.82	29481.39
575.98	29273.08
576.14	29528.20
576.30	29525.86
576.46	29626.50
576.62	29013.28
576.79	29729.48
576.95	29195.84
577.11	29287.12
577.27	29558.63
577.43	29605.44
577.59	29876.94
577.75	29577.35
577.92	29500.11
578.08	29259.04
578.24	29399.47
578.40	29773.95
578.56	29523.52
578.72	29645.23
578.88	29947.15
579.04	29799.70
579.21	29701.40
579.37	29692.04
579.53	29567.99
579.69	29125.63
579.85	29544.58
580.01	29577.35
580.17	29411.17
580.33	29369.04
580.49	29319.89
580.65	29825.45
580.82	29799.70
580.98	29408.83
581.14	29956.52
581.30	29710.76
581.46	29633.52
581.62	29502.45
581.78	29666.29
581.94	29713.10
582.10	29469.69
582.26	29099.88
582.42	29570.33
582.58	29757.57
582.74	29425.22
582.90	29827.79
583.06	29670.97
583.22	29507.13
583.38	29820.77
583.54	29612.46
583.70	29418.19
583.86	29635.86
584.02	29666.29
584.18	29752.89
584.34	29823.11
584.50	29806.72
584.66	29717.78
584.82	29486.07
584.98	29516.50
585.14	29771.61
585.30	29696.72
585.46	29586.71
585.62	29715.44
585.78	29544.58
585.94	29277.76
586.10	29497.77
586.26	29844.17
586.42	29872.26
586.58	29841.83
586.74	29579.69
586.90	29715.44
587.06	29734.17
587.22	29752.89
587.38	29404.15
587.54	30218.66
587.70	30005.67
587.86	29965.88
588.02	30239.72
588.18	30225.68
588.34	30136.74
588.49	30125.04
588.65	29867.58
588.81	29841.83
588.97	29677.99
589.13	29743.53
589.29	29710.76
589.45	30110.99
589.61	29851.19
589.77	30450.37
589.93	29982.26
590.08	30309.94
590.24	30223.34
590.40	30033.75
590.56	29874.60
590.72	30036.09
590.88	29411.17
591.04	30106.31
591.20	30005.67
591.35	30340.36
591.51	30522.93
591.67	30134.40
591.83	30572.08
591.99	30305.26
