SpectraSuite Data File
++++++++++++++++++++++++++++++++++++
Date: Fri Oct 18 13:58:33 GMT-05:00 2013
User: bianchi
Dark Spectrum Present: No
Reference Spectrum Present: No
Number of Sampled Component Spectra: 1
Spectrometers: USB2+H05261
Integration Time (usec): 50000 (USB2+H05261)
Spectra Averaged: 1 (USB2+H05261)
Boxcar Smoothing: 0 (USB2+H05261)
Correct for Electrical Dark: No (USB2+H05261)
Strobe/Lamp Enabled: No (USB2+H05261)
Correct for Detector Non-linearity: No (USB2+H05261)
Correct for Stray Light: No (USB2+H05261)
Number of Pixels in Processed Spectrum: 2048
>>>>>Begin Processed Spectral Data<<<<<
365.73	0.00
365.92	0.00
366.12	0.00
366.32	0.00
366.52	0.00
366.72	0.00
366.91	0.00
367.11	0.00
367.31	0.00
367.51	0.00
367.70	0.00
367.90	0.00
368.10	0.00
368.30	0.00
368.49	0.00
368.69	0.00
368.89	0.00
369.09	0.00
369.28	0.00
369.48	0.00
369.68	0.00
369.87	0.00
370.07	0.00
370.27	0.00
370.47	0.00
370.66	102.98
370.86	9.36
371.06	135.75
371.25	140.43
371.45	105.32
371.65	227.03
371.84	180.22
372.04	138.09
372.24	98.30
372.44	182.56
372.63	229.37
372.83	196.60
373.03	212.99
373.22	175.54
373.42	250.44
373.62	201.29
373.81	269.16
374.01	208.31
374.21	264.48
374.40	266.82
374.60	290.23
374.79	205.97
374.99	222.35
375.19	231.71
375.38	255.12
375.58	210.65
375.78	266.82
375.97	210.65
376.17	292.57
376.37	191.92
376.56	196.60
376.76	222.35
376.95	320.65
377.15	285.55
377.35	248.10
377.54	320.65
377.74	220.01
377.93	212.99
378.13	241.08
378.33	287.89
378.52	257.46
378.72	369.80
378.91	318.31
379.11	327.68
379.31	266.82
379.50	257.46
379.70	313.63
379.89	325.33
380.09	304.27
380.28	266.82
380.48	278.52
380.68	318.31
380.87	313.63
381.07	341.72
381.26	245.76
381.46	341.72
381.65	365.12
381.85	325.33
382.04	355.76
382.24	353.42
382.43	283.20
382.63	271.50
382.83	313.63
383.02	301.93
383.22	376.83
383.41	358.10
383.61	362.78
383.80	402.57
384.00	311.29
384.19	393.21
384.39	339.38
384.58	337.04
384.78	313.63
384.97	390.87
385.17	414.27
385.36	322.99
385.56	341.72
385.75	386.19
385.95	425.98
386.14	362.78
386.34	449.38
386.53	386.19
386.72	433.00
386.92	465.77
387.11	444.70
387.31	416.62
387.50	400.23
387.70	425.98
387.89	444.70
388.09	507.90
388.28	447.04
388.48	404.91
388.67	482.15
388.86	440.02
389.06	433.00
389.25	435.34
389.45	461.09
389.64	451.72
389.84	510.24
390.03	552.37
390.22	510.24
390.42	559.39
390.61	524.28
390.81	472.79
391.00	447.04
391.19	582.79
391.39	449.38
391.58	496.19
391.78	477.47
391.97	449.38
392.16	526.62
392.36	566.41
392.55	531.30
392.75	528.96
392.94	561.73
393.13	512.58
393.33	533.64
393.52	498.53
393.71	575.77
393.91	564.07
394.10	505.56
394.29	580.45
394.49	589.82
394.68	557.05
394.88	634.29
395.07	554.71
395.26	554.71
395.46	608.54
395.65	596.84
395.84	613.22
396.04	589.82
396.23	624.92
396.42	603.86
396.62	615.56
396.81	655.35
397.00	692.80
397.19	739.61
397.39	660.03
397.58	695.14
397.77	636.63
397.97	587.47
398.16	730.25
398.35	725.57
398.55	699.82
398.74	741.95
398.93	755.99
399.12	704.50
399.32	798.12
399.51	716.20
399.70	709.18
399.90	744.29
400.09	777.06
400.28	802.80
400.47	723.23
400.67	814.51
400.86	844.93
401.05	760.67
401.24	772.38
401.44	873.02
401.63	802.80
401.82	891.74
402.01	706.84
402.21	753.65
402.40	840.25
402.59	767.70
402.78	791.10
402.97	894.08
403.17	912.81
403.36	791.10
403.55	891.74
403.74	898.77
403.93	910.47
404.13	882.38
404.32	924.51
404.51	959.62
404.70	912.81
404.89	908.13
405.09	875.36
405.28	905.79
405.47	957.28
405.66	964.30
405.85	964.30
406.05	954.94
406.24	908.13
406.43	980.68
406.62	873.02
406.81	1071.97
407.00	1004.09
407.20	985.37
407.39	1076.65
407.58	1102.39
407.77	1041.54
407.96	1153.88
408.15	1050.90
408.34	1109.41
408.54	1093.03
408.73	1078.99
408.92	1111.75
409.11	1116.44
409.30	1050.90
409.49	1153.88
409.68	1193.67
409.87	1184.31
410.07	1228.78
410.26	1207.72
410.45	1200.69
410.64	1137.50
410.83	1181.97
411.02	1123.46
411.21	1324.74
411.40	1266.23
411.59	1245.16
411.78	1313.04
411.98	1275.59
412.17	1238.14
412.36	1231.12
412.55	1263.89
412.74	1359.85
412.93	1299.00
413.12	1322.40
413.31	1399.64
413.50	1392.62
413.69	1437.09
413.88	1399.64
414.07	1345.81
414.26	1467.52
414.45	1406.66
414.64	1462.83
414.83	1488.58
415.02	1481.56
415.22	1537.73
415.41	1631.35
415.60	1582.20
415.79	1565.82
415.98	1577.52
416.17	1479.22
416.36	1605.61
416.55	1579.86
416.74	1659.44
416.93	1563.48
417.12	1661.78
417.31	1692.21
417.50	1736.68
417.69	1703.91
417.88	1710.93
418.07	1748.38
418.26	1727.32
418.45	1734.34
418.64	1856.04
418.83	1837.32
419.02	1823.28
419.21	1834.98
419.39	1858.39
419.58	1842.00
419.77	1804.55
419.96	1898.17
420.15	1823.28
420.34	1872.43
420.53	1886.47
420.72	1902.86
420.91	1881.79
421.10	1905.20
421.29	1977.75
421.48	1844.34
421.67	1975.41
421.86	1991.80
422.05	1975.41
422.24	1968.39
422.43	1987.11
422.61	1944.99
422.80	2125.21
422.99	2017.54
423.18	2024.56
423.37	2036.27
423.56	2083.08
423.75	2015.20
423.94	1980.09
424.13	1877.11
424.32	1806.89
424.50	2101.80
424.69	2118.18
424.88	2057.33
425.07	1949.67
425.26	2031.58
425.45	1956.69
425.64	2038.61
425.83	2054.99
426.01	2165.00
426.20	2099.46
426.39	2050.31
426.58	1996.48
426.77	2010.52
426.96	2125.21
427.15	2066.69
427.33	2148.61
427.52	2038.61
427.71	2155.63
427.90	2120.53
428.09	2193.08
428.28	2162.66
428.46	2225.85
428.65	2221.17
428.84	2335.85
429.03	2253.94
429.22	2179.04
429.40	2083.08
429.59	2296.07
429.78	2118.18
429.97	2146.27
430.16	2148.61
430.34	2270.32
430.53	2385.01
430.72	2298.41
430.91	2347.56
431.10	2319.47
431.28	2483.31
431.47	2317.13
431.66	2361.60
431.85	2399.05
432.03	2385.01
432.22	2424.80
432.41	2394.37
432.60	2443.52
432.79	2401.39
432.97	2406.07
433.16	2476.29
433.35	2530.12
433.54	2527.78
433.72	2506.71
433.91	2490.33
434.10	2434.16
434.28	2466.92
434.47	2609.70
434.66	2590.97
434.85	2548.84
435.03	2588.63
435.22	2562.89
435.41	2736.09
435.59	2530.12
435.78	2764.17
435.97	2551.18
436.16	2698.64
436.34	2623.74
436.53	2757.15
436.72	2787.58
436.90	2733.75
437.09	2750.13
437.28	2733.75
437.46	2663.53
437.65	2761.83
437.84	2715.02
438.02	2792.26
438.21	2796.94
438.40	2689.28
438.58	2864.82
438.77	2860.13
438.96	2850.77
439.14	2869.50
439.33	2829.71
439.52	3045.04
439.70	3049.72
439.89	2951.42
440.08	3049.72
440.26	3190.15
440.45	3005.25
440.63	3007.59
440.82	3110.57
441.01	3082.49
441.19	3171.43
441.38	3246.32
441.57	3166.74
441.75	3073.12
441.94	3180.79
442.12	3126.96
442.31	3248.66
442.50	3279.09
442.68	3272.07
442.87	3206.53
443.05	3403.14
443.24	3379.73
443.43	3344.63
443.61	3398.46
443.80	3426.54
443.98	3335.26
444.17	3234.62
444.35	3365.69
444.54	3492.08
444.73	3346.97
444.91	3335.26
445.10	3344.63
445.28	3426.54
445.47	3379.73
445.65	3365.69
445.84	3466.33
446.02	3442.93
446.21	3412.50
446.39	3382.07
446.58	3435.91
446.77	3459.31
446.95	3414.84
447.14	3417.18
447.32	3550.59
447.51	3543.57
447.69	3447.61
447.88	3487.40
448.06	3475.70
448.25	3398.46
448.43	3536.55
448.62	3620.81
448.80	3442.93
448.99	3545.91
449.17	3440.59
449.36	3534.21
449.54	3754.22
449.73	3723.79
449.91	3693.37
450.10	3765.92
450.28	3705.07
450.46	3789.33
450.65	3721.45
450.83	3651.24
451.02	3754.22
451.20	3850.18
451.39	3728.47
451.57	3620.81
451.76	3887.63
451.94	3847.84
452.13	3936.78
452.31	3768.26
452.49	3735.50
452.68	3955.51
452.86	3960.19
453.05	3971.89
453.23	3932.10
453.42	3716.77
453.60	3880.61
453.78	3810.39
453.97	3852.52
454.15	3941.46
454.34	3941.46
454.52	4044.45
454.70	3922.74
454.89	3960.19
455.07	4032.74
455.26	4058.49
455.44	4102.96
455.62	3927.42
455.81	4035.08
455.99	4142.75
456.17	4166.15
456.36	4044.45
456.54	4070.19
456.73	4217.65
456.91	4351.06
457.09	4248.07
457.28	4257.43
457.46	4173.18
457.64	4318.29
457.83	4332.33
458.01	4201.26
458.19	4451.70
458.38	4334.67
458.56	4358.08
458.74	4400.21
458.93	4297.22
459.11	4414.25
459.29	4510.21
459.48	4571.07
459.66	4634.26
459.84	4517.23
460.03	4514.89
460.21	4414.25
460.39	4503.19
460.57	4613.20
460.76	4557.02
460.94	4571.07
461.12	4552.34
461.31	4550.00
461.49	4594.47
461.67	4587.45
461.85	4755.97
462.04	4624.90
462.22	4739.58
462.40	4819.16
462.59	4734.90
462.77	4727.88
462.95	4880.02
463.13	4798.10
463.32	4587.45
463.50	4711.50
463.68	4718.52
463.86	4774.69
464.05	4720.86
464.23	4788.74
464.41	4889.38
464.59	4828.53
464.78	4922.15
464.96	4858.95
465.14	4924.49
465.32	4856.61
465.50	4964.28
465.69	5135.14
465.87	4891.72
466.05	4901.08
466.23	4748.95
466.41	4945.55
466.60	5149.18
466.78	5057.90
466.96	5011.09
467.14	4987.68
467.32	5217.05
467.51	5118.75
467.69	5121.09
467.87	5163.22
468.05	5015.77
468.23	5069.60
468.41	5018.11
468.60	5116.41
468.78	5219.39
468.96	5170.24
469.14	5270.89
469.32	5268.55
469.50	5142.16
469.69	5380.89
469.87	5270.89
470.05	5394.93
470.23	5432.38
470.41	5542.39
470.59	5540.05
470.77	5387.91
470.95	5523.66
471.14	5706.23
471.32	5350.46
471.50	5584.52
471.68	5600.90
471.86	5514.30
472.04	5631.33
472.22	5813.89
472.40	5638.35
472.58	5673.46
472.77	5673.46
472.95	5673.46
473.13	5982.41
473.31	5692.18
473.49	5654.73
473.67	5872.40
473.85	5865.38
474.03	5891.13
474.21	5909.85
474.39	6106.46
474.57	6162.63
474.75	6260.93
474.93	6317.11
475.12	6115.82
475.30	6087.73
475.48	6122.84
475.66	6270.30
475.84	6169.65
476.02	6267.95
476.20	6420.09
476.38	6417.75
476.56	6445.84
476.74	6703.29
476.92	6661.16
477.10	6520.73
477.28	6534.78
477.46	6583.93
477.64	6623.72
477.82	6899.90
478.00	7007.56
478.18	6820.32
478.36	6944.37
478.54	6920.96
478.72	7012.24
478.90	6981.82
479.08	7187.79
479.26	7250.98
479.44	7307.15
479.62	7356.30
479.80	7232.26
479.98	7520.14
480.16	7513.12
480.34	7449.93
480.52	7660.57
480.70	7623.12
480.88	7503.76
481.06	7716.75
481.24	7749.51
481.41	7768.24
481.59	8009.31
481.77	7852.50
481.95	7882.92
482.13	8084.21
482.31	8018.68
482.49	8184.85
482.67	8018.68
482.85	8161.45
483.03	8521.89
483.21	8521.89
483.39	8585.08
483.57	8557.00
483.74	8641.26
483.92	8608.49
484.10	8842.54
484.28	8879.99
484.46	8830.84
484.64	8954.89
484.82	8940.85
485.00	9132.77
485.18	9294.27
485.35	9312.99
485.53	9390.23
485.71	9582.15
485.89	9563.43
486.07	9458.10
486.25	9542.36
486.43	9745.99
486.61	9652.37
486.78	9898.13
486.96	9853.66
487.14	10127.50
487.32	9923.87
487.50	9970.68
487.68	10129.84
487.85	10445.81
488.03	10473.90
488.21	10619.01
488.39	10391.98
488.57	10640.08
488.75	10665.82
488.92	10920.94
489.10	10738.38
489.28	10897.53
489.46	11052.01
489.64	11185.42
489.81	11173.72
489.99	11461.60
490.17	11286.06
490.35	11332.87
490.53	11227.55
490.70	11721.40
490.88	11506.07
491.06	11695.66
491.24	11625.44
491.41	11786.94
491.59	11967.16
491.77	11836.09
491.95	12013.97
492.13	12243.34
492.30	12299.52
492.48	12060.78
492.66	12231.64
492.84	12194.19
493.01	12599.10
493.19	12711.45
493.37	12666.98
493.54	12734.85
493.72	12744.22
493.90	12807.41
494.08	12877.63
494.25	12807.41
494.43	13039.12
494.61	13434.68
494.79	13090.62
494.96	13429.99
495.14	13462.76
495.32	13542.34
495.49	13249.77
495.67	13678.09
495.85	13886.40
496.02	13785.76
496.20	13823.20
496.38	13865.33
496.55	14085.34
496.73	13994.06
496.91	14115.77
497.09	14169.60
497.26	14146.20
497.44	14321.74
497.62	14480.89
497.79	14553.45
497.97	14567.49
498.14	14581.54
498.32	15012.20
498.50	14637.71
498.67	14899.85
498.85	14775.80
499.03	14799.21
499.20	14743.03
499.38	14993.47
499.56	15154.97
499.73	15337.53
499.91	15126.88
500.08	15367.96
500.26	15094.11
500.44	15129.22
500.61	15501.37
500.79	15592.65
500.97	15866.49
501.14	15728.40
501.32	15800.96
501.49	15903.94
501.67	15882.88
501.84	15913.30
502.02	15836.06
502.20	16093.52
502.37	15925.00
502.55	16318.22
502.72	16009.26
502.90	16016.29
503.07	16107.57
503.25	16212.89
503.43	16065.44
503.60	16320.56
503.78	16416.52
503.95	16503.12
504.13	16418.86
504.30	16769.94
504.48	16549.93
504.65	16938.46
504.83	16587.38
505.01	16819.09
505.18	16837.81
505.36	17179.53
505.53	16767.60
505.71	16973.56
505.88	17226.34
506.06	17181.87
506.23	17151.45
506.41	17184.21
506.58	17326.99
506.76	17270.81
506.93	17390.18
507.11	17256.77
507.28	17406.56
507.46	17310.60
507.63	17539.97
507.81	17701.47
507.98	17598.49
508.16	17429.97
508.33	17769.35
508.50	17802.11
508.68	17778.71
508.85	18225.75
509.03	18026.81
509.20	18118.09
509.38	18190.64
509.55	18396.61
509.73	18157.88
509.90	18284.26
510.08	18197.67
510.25	18211.71
510.42	18312.35
510.60	18759.39
510.77	18792.16
510.95	18492.57
511.12	18750.03
511.30	18817.91
511.47	19009.83
511.64	18480.87
511.82	18993.45
511.99	18946.64
512.17	18920.89
512.34	19033.24
512.51	18841.31
512.69	19133.88
512.86	19133.88
513.04	19499.00
513.21	19426.45
513.38	19438.15
513.56	19241.54
513.73	19302.40
513.90	19421.77
514.08	19517.73
514.25	19557.52
514.43	19810.29
514.60	19641.78
514.77	19850.08
514.95	19838.38
515.12	19903.92
515.29	19648.80
515.47	20044.35
515.64	19939.02
515.81	19920.30
515.99	20126.27
516.16	20381.38
516.33	19941.36
516.51	20058.39
516.68	19997.54
516.85	20219.89
517.03	20016.26
517.20	20489.05
517.37	20552.24
517.54	20814.38
517.72	20402.45
517.89	20397.77
518.06	20627.14
518.24	20744.17
518.41	20650.55
518.58	20549.90
518.75	20512.46
518.93	21149.08
519.10	20893.96
519.27	21022.69
519.45	20706.72
519.62	20982.90
519.79	21146.74
519.96	21179.51
520.14	21380.79
520.31	21144.40
520.48	21118.65
520.65	21336.32
520.83	21369.09
521.00	21436.97
521.17	21371.43
521.34	21373.77
521.52	21387.82
521.69	21516.54
521.86	21781.03
522.03	21666.34
522.20	21715.49
522.38	21647.61
522.55	21783.37
522.72	21865.28
522.89	21928.48
523.07	22228.07
523.24	22085.30
523.41	22298.28
523.58	21944.86
523.75	22319.35
523.92	22120.40
524.10	21869.97
524.27	22136.79
524.44	22073.59
524.61	22356.80
524.78	22314.67
524.96	22251.47
525.13	22649.36
525.30	22609.58
525.47	22321.69
525.64	22436.38
525.81	22464.46
525.98	22965.34
526.16	22750.01
526.33	22813.20
526.50	22813.20
526.67	22705.54
526.84	22820.22
527.01	22735.96
527.18	22651.70
527.36	22948.95
527.53	22860.01
527.70	23194.71
527.87	23473.23
528.04	23297.69
528.21	23040.23
528.38	23243.86
528.55	23335.14
528.72	22974.70
528.89	23590.26
529.07	23150.24
529.24	23103.43
529.41	23527.06
529.58	23412.38
529.75	23239.18
529.92	23185.35
530.09	23374.93
530.26	23522.38
530.43	23690.90
530.60	23702.61
530.77	23613.66
530.94	23913.25
531.11	23513.02
531.28	23601.96
531.46	23388.97
531.63	24091.13
531.80	24226.89
531.97	23906.23
532.14	24173.05
532.31	24182.42
532.48	24070.07
532.65	23707.29
532.82	23864.10
532.99	23962.40
533.16	24173.05
533.33	24269.01
533.50	24219.86
533.67	24311.14
533.84	24133.26
534.01	24182.42
534.18	24278.38
534.35	24723.08
534.52	24437.53
534.69	24498.39
534.86	24767.55
535.03	24222.20
535.20	24446.90
535.37	24648.18
535.54	24542.86
535.71	24318.17
535.88	24526.47
536.05	24643.50
536.22	24950.11
536.38	25106.93
536.55	24879.89
536.72	24828.40
536.89	24996.92
537.06	24973.52
537.23	25034.37
537.40	24861.17
537.57	24917.34
537.74	25221.61
537.91	25172.46
538.08	25355.02
538.25	25039.05
538.42	25233.32
538.59	25188.85
538.75	25062.46
538.92	25022.67
539.09	25303.53
539.26	25214.59
539.43	25488.43
539.60	25539.93
539.77	25245.02
539.94	25560.99
540.11	25238.00
540.28	25296.51
540.44	25783.34
540.61	25823.13
540.78	25120.97
540.95	25855.90
541.12	25450.99
541.29	25605.46
541.46	25781.00
541.62	25575.03
541.79	25647.59
541.96	25783.34
542.13	25390.13
542.30	25659.29
542.47	26031.44
542.63	26153.15
542.80	25715.47
542.97	26031.44
543.14	26232.72
543.31	25916.75
543.48	26099.31
543.64	26370.82
543.81	26059.52
543.98	26436.35
544.15	26305.28
544.32	26513.59
544.48	26815.52
544.65	26415.29
544.82	26628.27
544.99	26118.04
545.16	26567.42
545.32	26466.78
545.49	26630.62
545.66	26445.71
545.83	26623.59
546.00	26719.56
546.16	26342.73
546.33	26349.75
546.50	26312.30
546.67	26525.29
546.83	26309.96
547.00	26363.79
547.17	26628.27
547.34	26686.79
547.50	26616.57
547.67	27318.73
547.84	26824.88
548.00	26986.38
548.17	27016.80
548.34	26906.80
548.51	27145.53
548.67	27278.94
548.84	27487.25
549.01	27353.84
549.18	27068.30
549.34	27054.25
549.51	27297.67
549.68	27136.17
549.84	27325.75
550.01	27049.57
550.18	26953.61
550.34	27487.25
550.51	27171.28
550.68	27278.94
550.84	27182.98
551.01	26883.39
551.18	27417.04
551.34	27119.79
551.51	27391.29
551.68	27290.65
551.84	27601.94
552.01	27381.93
552.18	27496.61
552.34	27374.91
552.51	27807.90
552.68	27480.23
552.84	27779.82
553.01	27700.24
553.18	27655.77
553.34	27690.88
553.51	27716.62
553.67	27590.24
553.84	27992.81
554.01	28173.03
554.17	27828.97
554.34	27948.34
554.51	27683.86
554.67	27967.06
554.84	27564.49
555.00	27878.12
555.17	27983.44
555.33	28130.90
555.50	27728.33
555.67	28088.77
555.83	28067.70
556.00	28023.23
556.16	28074.73
556.33	28067.70
556.50	28383.68
556.66	28641.14
556.83	28252.61
556.99	28591.98
557.16	28559.22
557.32	28357.93
557.49	28428.15
557.65	28313.46
557.82	28261.97
557.98	28402.40
558.15	28278.35
558.32	28217.50
558.48	28233.88
558.65	28577.94
558.81	28439.85
558.98	28313.46
559.14	28872.85
559.31	28313.46
559.47	28236.22
559.64	28484.32
559.80	29195.84
559.97	28528.79
560.13	28837.74
560.30	28861.15
560.46	28287.71
560.63	28161.33
560.79	28636.45
560.96	28723.05
561.12	28697.31
561.29	28709.01
561.45	28257.29
561.61	29069.45
561.78	28575.60
561.94	28751.14
562.11	28938.38
562.27	28943.06
562.44	28795.61
562.60	28709.01
562.77	28957.11
562.93	28723.05
563.10	28982.85
563.26	29076.48
563.42	29153.71
563.59	28994.56
563.75	29074.13
563.92	28531.13
564.08	29090.52
564.24	29172.44
564.41	28641.14
564.57	28886.89
564.74	29235.63
564.90	29493.09
565.07	29165.42
565.23	28945.41
565.39	29134.99
565.56	29043.71
565.72	29132.65
565.88	29071.79
566.05	28755.82
566.21	29200.52
566.38	29095.20
566.54	29296.49
566.70	29195.84
566.87	29181.80
567.03	29312.87
567.19	29153.71
567.36	29230.95
567.52	28929.02
567.68	29275.42
567.85	28620.07
568.01	28922.00
568.17	29544.58
568.34	29060.09
568.50	29160.73
568.66	29069.45
568.83	29343.30
568.99	29331.59
569.15	29521.18
569.32	29139.67
569.48	29132.65
569.64	29261.38
569.81	29102.22
569.97	29486.07
570.13	29748.21
570.30	29074.13
570.46	29509.47
570.62	29390.11
570.78	29200.52
570.95	29312.87
571.11	29153.71
571.27	29205.20
571.43	29074.13
571.60	29284.78
571.76	29280.10
571.92	29301.17
572.09	29207.55
572.25	29399.47
572.41	29291.80
572.57	29670.97
572.74	29750.55
572.90	29301.17
573.06	29095.20
573.22	29436.92
573.38	29670.97
573.55	29305.85
573.71	29979.92
573.87	29851.19
574.03	29528.20
574.20	29612.46
574.36	29127.97
574.52	29582.03
574.68	29509.47
574.84	29088.18
575.01	29333.93
575.17	29558.63
575.33	29593.73
575.49	29504.79
575.65	29839.49
575.82	29181.80
575.98	29647.57
576.14	29640.54
576.30	29582.03
576.46	29446.28
576.62	29392.45
576.79	29755.23
576.95	29780.98
577.11	29282.44
577.27	29792.68
577.43	29605.44
577.59	29502.45
577.75	29460.32
577.92	29326.91
578.08	29551.60
578.24	29420.53
578.40	29579.69
578.56	29582.03
578.72	29401.81
578.88	30019.71
579.04	30064.18
579.21	29633.52
579.37	29715.44
579.53	29745.87
579.69	29406.49
579.85	29727.14
580.01	29649.91
580.17	29780.98
580.33	29528.20
580.49	29457.98
580.65	29795.02
580.82	29860.55
580.98	29575.01
581.14	29551.60
581.30	29614.80
581.46	29481.39
581.62	29890.98
581.78	29394.79
581.94	29483.73
582.10	29766.93
582.26	29621.82
582.42	29537.56
582.58	29783.32
582.74	29806.72
582.90	29652.25
583.06	29710.76
583.22	29907.37
583.38	29626.50
583.54	29610.12
583.70	29706.08
583.86	29612.46
584.02	29626.50
584.18	30274.83
584.34	29998.65
584.50	30335.68
584.66	29689.70
584.82	29685.01
584.98	29940.13
585.14	29287.12
585.30	29244.99
585.46	29743.53
585.62	29305.85
585.78	29867.58
585.94	29661.61
586.10	29919.07
586.26	29935.45
586.42	30106.31
586.58	29792.68
586.74	29434.58
586.90	29750.55
587.06	29675.65
587.22	30150.78
587.38	30003.33
587.54	29706.08
587.70	30071.20
587.86	29851.19
588.02	29902.68
588.18	30408.24
588.34	29825.45
588.49	29799.70
588.65	29954.18
588.81	29518.84
588.97	29902.68
589.13	29776.30
589.29	29738.85
589.45	29867.58
589.61	29701.40
589.77	30246.74
589.93	30134.40
590.08	30087.59
590.24	30340.36
590.40	30443.35
590.56	29951.84
590.72	29832.47
590.88	29731.83
591.04	30033.75
591.20	30534.63
591.35	30408.24
591.51	30424.62
591.67	30305.26
591.83	30391.86
591.99	30108.65
