SpectraSuite Data File
++++++++++++++++++++++++++++++++++++
Date: Fri Oct 18 13:58:17 GMT-05:00 2013
User: bianchi
Dark Spectrum Present: No
Reference Spectrum Present: No
Number of Sampled Component Spectra: 1
Spectrometers: USB2+H05261
Integration Time (usec): 50000 (USB2+H05261)
Spectra Averaged: 1 (USB2+H05261)
Boxcar Smoothing: 0 (USB2+H05261)
Correct for Electrical Dark: No (USB2+H05261)
Strobe/Lamp Enabled: No (USB2+H05261)
Correct for Detector Non-linearity: No (USB2+H05261)
Correct for Stray Light: No (USB2+H05261)
Number of Pixels in Processed Spectrum: 2048
>>>>>Begin Processed Spectral Data<<<<<
365.73	0.00
365.92	0.00
366.12	0.00
366.32	0.00
366.52	0.00
366.72	0.00
366.91	0.00
367.11	0.00
367.31	0.00
367.51	0.00
367.70	0.00
367.90	0.00
368.10	0.00
368.30	0.00
368.49	0.00
368.69	0.00
368.89	0.00
369.09	0.00
369.28	0.00
369.48	0.00
369.68	0.00
369.87	0.00
370.07	0.00
370.27	0.00
370.47	0.00
370.66	53.83
370.86	100.64
371.06	105.32
371.25	142.77
371.45	145.11
371.65	196.60
371.84	131.07
372.04	114.69
372.24	194.26
372.44	194.26
372.63	203.63
372.83	234.05
373.03	140.43
373.22	196.60
373.42	217.67
373.62	173.20
373.81	217.67
374.01	187.24
374.21	241.08
374.40	278.52
374.60	222.35
374.79	283.20
374.99	170.86
375.19	271.50
375.38	236.39
375.58	184.90
375.78	280.86
375.97	252.78
376.17	294.91
376.37	283.20
376.56	220.01
376.76	299.59
376.95	285.55
377.15	227.03
377.35	248.10
377.54	290.23
377.74	259.80
377.93	262.14
378.13	241.08
378.33	283.20
378.52	348.74
378.72	252.78
378.91	353.42
379.11	278.52
379.31	241.08
379.50	294.91
379.70	322.99
379.89	229.37
380.09	313.63
380.28	273.84
380.48	306.61
380.68	297.25
380.87	285.55
381.07	283.20
381.26	330.02
381.46	259.80
381.65	276.18
381.85	325.33
382.04	322.99
382.24	332.36
382.43	315.97
382.63	365.12
382.83	320.65
383.02	337.04
383.22	353.42
383.41	353.42
383.61	362.78
383.80	355.76
384.00	358.10
384.19	397.89
384.39	297.25
384.58	386.19
384.78	414.27
384.97	395.55
385.17	442.36
385.36	437.68
385.56	353.42
385.75	379.17
385.95	379.17
386.14	334.70
386.34	348.74
386.53	425.98
386.72	409.59
386.92	390.87
387.11	376.83
387.31	428.32
387.50	395.55
387.70	360.44
387.89	428.32
388.09	428.32
388.28	418.96
388.48	435.34
388.67	430.66
388.86	388.53
389.06	414.27
389.25	479.81
389.45	423.64
389.64	470.45
389.84	496.19
390.03	517.26
390.22	433.00
390.42	468.11
390.61	514.92
390.81	514.92
391.00	423.64
391.19	526.62
391.39	538.32
391.58	489.17
391.78	561.73
391.97	491.51
392.16	613.22
392.36	526.62
392.55	568.75
392.75	498.53
392.94	496.19
393.13	575.77
393.33	561.73
393.52	568.75
393.71	634.29
393.91	538.32
394.10	557.05
394.29	615.56
394.49	631.94
394.68	662.37
394.88	535.98
395.07	587.47
395.26	617.90
395.46	552.37
395.65	620.24
395.84	690.46
396.04	662.37
396.23	627.26
396.42	697.48
396.62	575.77
396.81	709.18
397.00	711.52
397.19	683.44
397.39	653.01
397.58	660.03
397.77	664.71
397.97	784.08
398.16	695.14
398.35	610.88
398.55	699.82
398.74	727.91
398.93	737.27
399.12	709.18
399.32	732.59
399.51	688.12
399.70	760.67
399.90	807.48
400.09	755.99
400.28	779.40
400.47	716.20
400.67	760.67
400.86	741.95
401.05	821.53
401.24	786.42
401.44	734.93
401.63	823.87
401.82	767.70
402.01	795.78
402.21	830.89
402.40	765.36
402.59	788.76
402.78	833.23
402.97	863.66
403.17	896.43
403.36	940.90
403.55	866.00
403.74	894.08
403.93	880.04
404.13	903.45
404.32	873.02
404.51	978.34
404.70	919.83
404.89	847.27
405.09	915.15
405.28	985.37
405.47	938.55
405.66	1039.20
405.85	891.74
406.05	924.51
406.24	961.96
406.43	1043.88
406.62	957.28
406.81	1036.86
407.00	1004.09
407.20	1011.11
407.39	999.41
407.58	978.34
407.77	1043.88
407.96	1123.46
408.15	1172.61
408.34	1001.75
408.54	1135.16
408.73	1053.24
408.92	1004.09
409.11	1083.67
409.30	1100.05
409.49	1160.91
409.68	1132.82
409.87	1076.65
410.07	1095.37
410.26	1308.36
410.45	1125.80
410.64	1226.44
410.83	1146.86
411.02	1198.35
411.21	1252.19
411.40	1343.47
411.59	1306.02
411.78	1247.51
411.98	1291.98
412.17	1249.85
412.36	1247.51
412.55	1343.47
412.74	1425.39
412.93	1416.02
413.12	1320.06
413.31	1270.91
413.50	1327.08
413.69	1350.49
413.88	1413.68
414.07	1315.38
414.26	1434.75
414.45	1434.75
414.64	1458.15
414.83	1467.52
415.02	1563.48
415.22	1593.90
415.41	1586.88
415.60	1533.05
415.79	1540.07
415.98	1610.29
416.17	1509.65
416.36	1589.22
416.55	1507.30
416.74	1596.25
416.93	1675.82
417.12	1654.76
417.31	1746.04
417.50	1673.48
417.69	1673.48
417.88	1675.82
418.07	1696.89
418.26	1764.76
418.45	1816.26
418.64	1722.63
418.83	1781.15
419.02	1832.64
419.21	1767.10
419.39	1844.34
419.58	1769.44
419.77	1816.26
419.96	1823.28
420.15	1750.72
420.34	1795.19
420.53	1900.52
420.72	1877.11
420.91	1825.62
421.10	1792.85
421.29	2111.16
421.48	1820.94
421.67	1968.39
421.86	2017.54
422.05	1973.07
422.24	1959.03
422.43	2015.20
422.61	1944.99
422.80	2019.88
422.99	2071.37
423.18	1973.07
423.37	1928.60
423.56	1975.41
423.75	1952.01
423.94	2019.88
424.13	1968.39
424.32	1893.49
424.50	2022.22
424.69	2071.37
424.88	2036.27
425.07	1937.96
425.26	1898.17
425.45	1919.24
425.64	1926.26
425.83	1944.99
426.01	2047.97
426.20	1959.03
426.39	2005.84
426.58	1973.07
426.77	2129.89
426.96	2010.52
427.15	2092.44
427.33	2087.76
427.52	2101.80
427.71	2148.61
427.90	2064.35
428.09	2150.95
428.28	2113.50
428.46	2253.94
428.65	2146.27
428.84	2239.89
429.03	2204.78
429.22	2258.62
429.40	2228.19
429.59	2333.51
429.78	2225.85
429.97	2085.42
430.16	2181.38
430.34	2361.60
430.53	2282.02
430.72	2317.13
430.91	2331.17
431.10	2310.11
431.28	2356.92
431.47	2317.13
431.66	2452.88
431.85	2321.81
432.03	2422.45
432.22	2464.58
432.41	2403.73
432.60	2396.71
432.79	2356.92
432.97	2380.32
433.16	2387.35
433.35	2464.58
433.54	2539.48
433.72	2455.22
433.91	2443.52
434.10	2513.74
434.28	2480.97
434.47	2520.76
434.66	2633.10
434.85	2567.57
435.03	2583.95
435.22	2544.16
435.41	2717.36
435.59	2661.19
435.78	2623.74
435.97	2637.78
436.16	2682.25
436.34	2773.53
436.53	2677.57
436.72	2789.92
436.90	2605.02
437.09	2803.96
437.28	2661.19
437.46	2647.15
437.65	2633.10
437.84	2818.00
438.02	2719.70
438.21	2731.41
438.40	2729.06
438.58	2787.58
438.77	2960.78
438.96	2892.90
439.14	2928.01
439.33	2869.50
439.52	3033.33
439.70	2977.16
439.89	3148.02
440.08	3000.57
440.26	3054.40
440.45	3197.17
440.63	3112.91
440.82	3108.23
441.01	3009.93
441.19	3183.13
441.38	3173.77
441.57	3033.33
441.75	3227.60
441.94	3180.79
442.12	3265.05
442.31	3382.07
442.50	3274.41
442.68	3428.88
442.87	3335.26
443.05	3260.37
443.24	3363.35
443.43	3356.33
443.61	3290.79
443.80	3482.72
443.98	3368.03
444.17	3227.60
444.35	3513.14
444.54	3482.72
444.73	3419.52
444.91	3363.35
445.10	3335.26
445.28	3417.18
445.47	3566.98
445.65	3468.67
445.84	3555.27
446.02	3424.20
446.21	3421.86
446.39	3375.05
446.58	3520.17
446.77	3496.76
446.95	3426.54
447.14	3461.65
447.32	3403.14
447.51	3494.42
447.69	3346.97
447.88	3463.99
448.06	3494.42
448.25	3382.07
448.43	3473.36
448.62	3501.44
448.80	3478.04
448.99	3489.74
449.17	3630.17
449.36	3489.74
449.54	3515.48
449.73	3702.73
449.91	3702.73
450.10	3637.19
450.28	3808.05
450.46	3705.07
450.65	3527.19
450.83	3681.66
451.02	3728.47
451.20	3779.97
451.39	3775.28
451.57	3641.87
451.76	3618.47
451.94	3665.28
452.13	3885.29
452.31	3714.43
452.49	3709.75
452.68	3861.88
452.86	3777.62
453.05	3922.74
453.23	3894.65
453.42	3782.31
453.60	3868.91
453.78	3906.35
453.97	3847.84
454.15	3749.54
454.34	3939.12
454.52	3995.29
454.70	3941.46
454.89	4014.02
455.07	3976.57
455.26	4124.02
455.44	4084.23
455.62	4060.83
455.81	4007.00
455.99	3875.93
456.17	4126.36
456.36	4161.47
456.54	4070.19
456.73	4077.21
456.91	4241.05
457.09	4170.83
457.28	4269.14
457.46	4311.27
457.64	4290.20
457.83	4224.67
458.01	4243.39
458.19	4325.31
458.38	4390.84
458.56	4568.73
458.74	4297.22
458.93	4369.78
459.11	4468.08
459.29	4550.00
459.48	4390.84
459.66	4507.87
459.84	4479.79
460.03	4454.04
460.21	4594.47
460.39	4557.02
460.57	4409.57
460.76	4608.51
460.94	4465.74
461.12	4482.13
461.31	4559.36
461.49	4596.81
461.67	4608.51
461.85	4652.98
462.04	4727.88
462.22	4903.42
462.40	4688.09
462.59	4816.82
462.77	4620.22
462.95	4751.29
463.13	4814.48
463.32	4662.35
463.50	4800.44
463.68	4884.70
463.86	4716.18
464.05	4887.04
464.23	4847.25
464.41	4985.34
464.59	4816.82
464.78	5015.77
464.96	4882.36
465.14	4779.37
465.32	5116.41
465.50	4922.15
465.69	4889.38
465.87	5078.96
466.05	5048.54
466.23	4994.70
466.41	5132.79
466.60	5088.32
466.78	4896.40
466.96	4990.02
467.14	4983.00
467.32	5109.39
467.51	5032.15
467.69	4959.60
467.87	5116.41
468.05	4997.04
468.23	5060.24
468.41	5137.48
468.60	5060.24
468.78	5132.79
468.96	5261.52
469.14	5188.97
469.32	5242.80
469.50	5097.69
469.69	5284.93
469.87	5301.31
470.05	5577.50
470.23	5474.51
470.41	5514.30
470.59	5350.46
470.77	5413.66
470.95	5275.57
471.14	5518.98
471.32	5446.43
471.50	5556.43
471.68	5614.95
471.86	5591.54
472.04	5619.63
472.22	5650.05
472.40	5696.86
472.58	5776.44
472.77	5717.93
472.95	5844.32
473.13	5802.19
473.31	5870.06
473.49	5830.27
473.67	5856.02
473.85	5930.92
474.03	6038.58
474.21	6022.20
474.39	5944.96
474.57	6026.88
474.75	6122.84
474.93	6221.14
475.12	6078.37
475.30	6296.04
475.48	6094.76
475.66	6069.01
475.84	6169.65
476.02	6471.58
476.20	6340.51
476.38	6443.49
476.56	6630.74
476.74	6375.62
476.92	6576.91
477.10	6553.50
477.28	6703.29
477.46	6473.92
477.64	6757.13
477.82	6754.79
478.00	6785.21
478.18	6981.82
478.36	6942.03
478.54	6867.13
478.72	7091.82
478.90	7045.01
479.08	7112.89
479.26	7375.03
479.44	7169.06
479.62	7510.78
479.80	7431.20
479.98	7419.50
480.16	7349.28
480.34	7552.91
480.52	7463.97
480.70	7304.81
480.88	7527.16
481.06	7431.20
481.24	7541.21
481.41	7606.74
481.59	7925.05
481.77	8128.68
481.95	8126.34
482.13	7985.91
482.31	8037.40
482.49	8116.98
482.67	8325.29
482.85	8430.61
483.03	8461.04
483.21	8514.87
483.39	8573.38
483.57	8610.83
483.74	8617.85
483.92	8627.21
484.10	8734.88
484.28	8926.80
484.46	9100.00
484.64	9144.47
484.82	8961.91
485.00	9034.47
485.18	9240.44
485.35	9240.44
485.53	9336.40
485.71	9434.70
485.89	9504.92
486.07	9476.83
486.25	9710.88
486.43	9603.22
486.61	9715.56
486.78	9664.07
486.96	9902.81
487.14	10078.35
487.32	9980.04
487.50	10197.71
487.68	10221.12
487.85	10265.59
488.03	10504.32
488.21	10553.48
488.39	10420.06
488.57	10562.84
488.75	10630.71
488.92	10757.10
489.10	11019.24
489.28	10658.80
489.46	11084.78
489.64	10888.17
489.81	11234.57
489.99	11218.19
490.17	11253.30
490.35	11316.49
490.53	11426.50
490.70	11695.66
490.88	11431.18
491.06	11782.26
491.24	11609.06
491.41	11534.16
491.59	11913.33
491.77	11644.17
491.95	12077.16
492.13	12145.04
492.30	12100.57
492.48	12044.40
492.66	12301.86
492.84	12318.24
493.01	12631.87
493.19	12318.24
493.37	12568.68
493.54	12821.45
493.72	12882.31
493.90	13107.00
494.08	12725.49
494.25	12924.44
494.43	13226.37
494.61	13081.25
494.79	13404.25
494.96	13217.01
495.14	13474.46
495.32	13603.19
495.49	13359.78
495.67	13518.93
495.85	13888.74
496.02	13923.85
496.20	14012.79
496.38	13743.63
496.55	14054.92
496.73	14164.92
496.91	14068.96
497.09	13975.34
497.26	14443.45
497.44	14480.89
497.62	14263.22
497.79	14499.62
497.97	14630.69
498.14	14817.93
498.32	14588.56
498.50	14623.67
498.67	14824.95
498.85	14626.01
499.03	15019.22
499.20	14855.38
499.38	15047.30
499.56	14902.19
499.73	15234.55
499.91	15218.16
500.08	15424.13
500.26	15173.69
500.44	15384.34
500.61	15459.24
500.79	15220.50
500.97	15407.75
501.14	15576.27
501.32	15742.44
501.49	15840.75
501.67	15716.70
501.84	15777.55
502.02	15772.87
502.20	15995.22
502.37	16112.25
502.55	16137.99
502.72	16091.18
502.90	15974.16
503.07	16161.40
503.25	16297.15
503.43	16133.31
503.60	16255.02
503.78	16643.55
503.95	16540.57
504.13	16781.64
504.30	16688.02
504.48	16482.05
504.65	16779.30
504.83	17153.79
505.01	17053.14
505.18	16922.07
505.36	17039.10
505.53	16776.96
505.71	16652.91
505.88	16737.17
506.06	17053.14
506.23	17434.65
506.41	17479.12
506.58	17132.72
506.76	17502.53
506.93	17570.40
507.11	17179.53
507.28	17490.82
507.46	17427.63
507.63	17549.34
507.81	17834.88
507.98	17717.86
508.16	17771.69
508.33	17605.51
508.50	17788.07
508.68	17757.64
508.85	17937.87
509.03	18029.15
509.20	18162.56
509.38	18221.07
509.55	18356.82
509.73	18427.04
509.90	18132.13
510.08	18412.99
510.25	18178.94
510.42	18611.94
510.60	18735.99
510.77	18862.38
510.95	18595.56
511.12	18789.82
511.30	18469.17
511.47	18820.25
511.64	18597.90
511.82	18864.72
511.99	18967.70
512.17	18794.50
512.34	19061.32
512.51	19140.90
512.69	19000.47
512.86	18979.40
513.04	19463.90
513.21	19314.10
513.38	19044.94
513.56	19370.27
513.73	19197.07
513.90	19379.64
514.08	19461.55
514.25	19358.57
514.43	19611.35
514.60	19594.96
514.77	19929.66
514.95	20030.30
515.12	19749.44
515.29	19878.17
515.47	19782.21
515.64	19798.59
515.81	20077.12
515.99	20205.84
516.16	20016.26
516.33	20231.59
516.51	20458.62
516.68	19995.20
516.85	20308.83
517.03	20301.81
517.20	20460.96
517.37	20678.63
517.54	20592.03
517.72	20472.67
517.89	20533.52
518.06	20786.30
518.24	20336.91
518.41	20774.60
518.58	20793.32
518.75	20833.11
518.93	21008.65
519.10	21160.78
519.27	20938.43
519.45	20849.49
519.62	20795.66
519.79	20898.64
519.96	21076.52
520.14	21443.99
520.31	20966.52
520.48	21394.84
520.65	21167.80
520.83	21418.24
521.00	21355.05
521.17	21544.63
521.34	21202.91
521.52	21312.92
521.69	21315.26
521.86	21298.88
522.03	21965.93
522.20	21879.33
522.38	21694.43
522.55	21891.03
522.72	21659.32
522.89	21769.32
523.07	21937.84
523.24	22132.11
523.41	22171.89
523.58	21771.66
523.75	22073.59
523.92	21776.34
524.10	22019.76
524.27	22342.75
524.44	22349.78
524.61	22274.88
524.78	22314.67
524.96	22279.56
525.13	22401.27
525.30	22192.96
525.47	22501.91
525.64	22609.58
525.81	22808.52
525.98	22852.99
526.16	22904.48
526.33	22590.85
526.50	22693.83
526.67	22705.54
526.84	22551.06
527.01	22724.26
527.18	22742.99
527.36	22651.70
527.53	22967.68
527.70	23136.20
527.87	22946.61
528.04	23330.46
528.21	23152.58
528.38	22731.28
528.55	23178.33
528.72	23253.22
528.89	23632.39
529.07	23101.09
529.24	23403.02
529.41	23243.86
529.58	23545.79
529.75	23433.44
529.92	23761.12
530.09	23122.15
530.26	23388.97
530.43	23344.50
530.60	23763.46
530.77	23314.08
530.94	23665.16
531.11	23590.26
531.28	23445.15
531.46	23583.24
531.63	23936.66
531.80	23758.78
531.97	24067.73
532.14	24238.59
532.31	23735.37
532.48	23817.29
532.65	23920.28
532.82	23644.09
532.99	23887.51
533.16	24151.99
533.33	24278.38
533.50	24367.32
533.67	24362.64
533.84	24056.03
534.01	24205.82
534.18	24074.75
534.35	24049.00
534.52	24575.62
534.69	24173.05
534.86	24463.28
535.03	24643.50
535.20	24367.32
535.37	24683.29
535.54	24730.10
535.71	24713.72
535.88	24533.50
536.05	24713.72
536.22	24631.80
536.38	24950.11
536.55	24861.17
536.72	24961.81
536.89	24793.29
537.06	25153.74
537.23	24608.39
537.40	25027.35
537.57	24727.76
537.74	25221.61
537.91	25277.79
538.08	25263.74
538.25	24821.38
538.42	25125.65
538.59	25106.93
538.75	24795.64
538.92	24933.73
539.09	25240.34
539.26	25268.42
539.43	25610.14
539.60	25418.22
539.77	25589.08
539.94	25502.48
540.11	25336.30
540.28	25245.02
540.44	25614.82
540.61	25242.68
540.78	25287.15
540.95	25420.56
541.12	25394.81
541.29	25607.80
541.46	25699.08
541.62	25593.76
541.79	25919.09
541.96	25348.00
542.13	25663.97
542.30	25773.98
542.47	25846.54
542.63	26146.12
542.80	26555.72
542.97	25998.67
543.14	26246.77
543.31	26134.42
543.48	26256.13
543.64	26326.35
543.81	26464.44
543.98	26321.66
544.15	26630.62
544.32	26789.77
544.48	26731.26
544.65	26316.98
544.82	26377.84
544.99	26321.66
545.16	26635.30
545.32	26469.12
545.49	26675.09
545.66	26373.16
545.83	26801.47
546.00	26668.06
546.16	26567.42
546.33	26726.58
546.50	26476.14
546.67	26614.23
546.83	26487.84
547.00	26572.10
547.17	26637.64
547.34	27129.15
547.50	26778.07
547.67	27166.60
547.84	26759.34
548.00	27204.05
548.17	26969.99
548.34	26960.63
548.51	27339.80
548.67	26974.67
548.84	27520.02
549.01	27002.76
549.18	26979.36
549.34	27012.12
549.51	27150.21
549.68	27112.77
549.84	27161.92
550.01	27101.06
550.18	27166.60
550.34	27395.97
550.51	27435.76
550.68	27527.04
550.84	27040.21
551.01	27318.73
551.18	27215.75
551.34	27349.16
551.51	27470.87
551.68	27250.86
551.84	27613.64
552.01	27421.72
552.18	27342.14
552.34	27566.83
552.51	27597.26
552.68	27978.76
552.84	27686.20
553.01	27875.78
553.18	27742.37
553.34	27723.65
553.51	27604.28
553.67	28072.39
553.84	28325.16
554.01	27744.71
554.17	27889.82
554.34	28039.62
554.51	27601.94
554.67	27857.06
554.84	27803.22
555.00	27992.81
555.17	28283.03
555.33	27782.16
555.50	28163.67
555.67	28215.16
555.83	28292.40
556.00	28093.45
556.16	28353.25
556.33	28079.41
556.50	28304.10
556.66	28357.93
556.83	27817.27
556.99	28418.78
557.16	28437.51
557.32	28027.92
557.49	28311.12
557.65	28044.30
557.82	28379.00
557.98	28442.19
558.15	28292.40
558.32	28701.99
558.48	28374.31
558.65	28952.43
558.81	28889.23
558.98	28236.22
559.14	28215.16
559.31	28477.30
559.47	28348.57
559.64	28587.30
559.80	28620.07
559.97	28826.04
560.13	28474.96
560.30	28884.55
560.46	28467.94
560.63	28580.28
560.79	28816.68
560.96	28540.49
561.12	28517.09
561.29	28769.86
561.45	28458.57
561.61	28849.44
561.78	28470.28
561.94	28589.64
562.11	28645.82
562.27	28919.66
562.44	28732.42
562.60	28840.08
562.77	28486.66
562.93	28828.38
563.10	29223.93
563.26	28308.78
563.42	28985.19
563.59	29022.64
563.75	29036.69
563.92	28854.12
564.08	28678.58
564.24	28945.41
564.41	28774.55
564.57	29130.31
564.74	28753.48
564.90	29261.38
565.07	29085.84
565.23	29329.25
565.39	29275.42
565.56	28790.93
565.72	29216.91
565.88	29198.18
566.05	28594.32
566.21	28931.36
566.38	29184.14
566.54	29132.65
566.70	29465.00
566.87	29434.58
567.03	29109.24
567.19	29268.40
567.36	28957.11
567.52	28996.90
567.68	29022.64
567.85	29113.92
568.01	29736.51
568.17	29097.54
568.34	29153.71
568.50	29254.36
568.66	28879.87
568.83	29310.53
568.99	29095.20
569.15	29366.70
569.32	28875.19
569.48	28879.87
569.64	29174.78
569.81	29212.23
569.97	29207.55
570.13	29462.66
570.30	29446.28
570.46	29488.41
570.62	29682.67
570.78	28957.11
570.95	29530.54
571.11	29261.38
571.27	29324.57
571.43	28795.61
571.60	29455.64
571.76	29392.45
571.92	29563.31
572.09	29465.00
572.25	30000.99
572.41	29418.19
572.57	29125.63
572.74	29170.10
572.90	29441.60
573.06	29745.87
573.22	29446.28
573.38	29317.55
573.55	29071.79
573.71	29788.00
573.87	30183.55
574.03	29312.87
574.20	29830.13
574.36	29450.96
574.52	29626.50
574.68	28992.22
574.84	29600.76
575.01	29525.86
575.17	29450.96
575.33	30061.84
575.49	29345.64
575.65	29902.68
575.82	29743.53
575.98	29724.80
576.14	29413.51
576.30	29603.10
576.46	29308.19
576.62	29144.35
576.79	29441.60
576.95	29713.10
577.11	29553.94
577.27	29607.78
577.43	29359.68
577.59	29764.59
577.75	29816.08
577.92	29303.51
578.08	29820.77
578.24	29394.79
578.40	29724.80
578.56	29738.85
578.72	29280.10
578.88	29968.22
579.04	29888.64
579.21	29486.07
579.37	29661.61
579.53	29605.44
579.69	29359.68
579.85	29514.16
580.01	29455.64
580.17	29479.05
580.33	29593.73
580.49	29596.07
580.65	29689.70
580.82	29567.99
580.98	29598.41
581.14	30181.21
581.30	29816.08
581.46	29406.49
581.62	29858.21
581.78	29364.36
581.94	29928.43
582.10	29373.72
582.26	30068.86
582.42	29844.17
582.58	29942.47
582.74	29563.31
582.90	29656.93
583.06	30206.95
583.22	29748.21
583.38	29497.77
583.54	30036.09
583.70	29310.53
583.86	29713.10
584.02	29738.85
584.18	30244.40
584.34	29689.70
584.50	30450.37
584.66	29883.96
584.82	29816.08
584.98	29647.57
585.14	29839.49
585.30	29811.40
585.46	29902.68
585.62	29603.10
585.78	30288.87
585.94	29883.96
586.10	29916.73
586.26	29853.53
586.42	29949.50
586.58	30274.83
586.74	29689.70
586.90	29853.53
587.06	29624.16
587.22	29699.06
587.38	29525.86
587.54	30099.29
587.70	29886.30
587.86	29841.83
588.02	29968.22
588.18	30113.33
588.34	30115.67
588.49	30012.69
588.65	29752.89
588.81	29862.90
588.97	29862.90
589.13	29792.68
589.29	29741.19
589.45	30230.36
589.61	30080.56
589.77	29942.47
589.93	30253.76
590.08	30429.30
590.24	29958.86
590.40	30206.95
590.56	30536.97
590.72	30017.37
590.88	29804.38
591.04	30066.52
591.20	30375.47
591.35	30302.92
591.51	30700.81
591.67	30340.36
591.83	30485.48
591.99	30382.49
