SpectraSuite Data File
++++++++++++++++++++++++++++++++++++
Date: Fri Oct 18 13:58:28 GMT-05:00 2013
User: bianchi
Dark Spectrum Present: No
Reference Spectrum Present: No
Number of Sampled Component Spectra: 1
Spectrometers: USB2+H05261
Integration Time (usec): 50000 (USB2+H05261)
Spectra Averaged: 1 (USB2+H05261)
Boxcar Smoothing: 0 (USB2+H05261)
Correct for Electrical Dark: No (USB2+H05261)
Strobe/Lamp Enabled: No (USB2+H05261)
Correct for Detector Non-linearity: No (USB2+H05261)
Correct for Stray Light: No (USB2+H05261)
Number of Pixels in Processed Spectrum: 2048
>>>>>Begin Processed Spectral Data<<<<<
365.73	0.00
365.92	0.00
366.12	0.00
366.32	0.00
366.52	0.00
366.72	0.00
366.91	0.00
367.11	0.00
367.31	0.00
367.51	0.00
367.70	0.00
367.90	0.00
368.10	0.00
368.30	0.00
368.49	0.00
368.69	0.00
368.89	0.00
369.09	0.00
369.28	0.00
369.48	0.00
369.68	0.00
369.87	0.00
370.07	0.00
370.27	0.00
370.47	0.00
370.66	65.54
370.86	65.54
371.06	100.64
371.25	107.66
371.45	126.39
371.65	184.90
371.84	212.99
372.04	147.45
372.24	149.79
372.44	184.90
372.63	187.24
372.83	112.35
373.03	227.03
373.22	177.88
373.42	152.13
373.62	187.24
373.81	201.29
374.01	252.78
374.21	173.20
374.40	198.95
374.60	283.20
374.79	208.31
374.99	210.65
375.19	234.05
375.38	266.82
375.58	292.57
375.78	306.61
375.97	248.10
376.17	287.89
376.37	208.31
376.56	255.12
376.76	245.76
376.95	227.03
377.15	266.82
377.35	238.73
377.54	257.46
377.74	224.69
377.93	128.73
378.13	250.44
378.33	234.05
378.52	327.68
378.72	250.44
378.91	285.55
379.11	337.04
379.31	308.95
379.50	217.67
379.70	259.80
379.89	304.27
380.09	238.73
380.28	299.59
380.48	257.46
380.68	348.74
380.87	266.82
381.07	266.82
381.26	308.95
381.46	351.08
381.65	278.52
381.85	339.38
382.04	292.57
382.24	402.57
382.43	341.72
382.63	393.21
382.83	301.93
383.02	339.38
383.22	411.93
383.41	339.38
383.61	386.19
383.80	376.83
384.00	337.04
384.19	320.65
384.39	311.29
384.58	306.61
384.78	414.27
384.97	404.91
385.17	339.38
385.36	358.10
385.56	418.96
385.75	344.06
385.95	482.15
386.14	421.30
386.34	404.91
386.53	332.36
386.72	351.08
386.92	442.36
387.11	482.15
387.31	411.93
387.50	339.38
387.70	381.51
387.89	388.53
388.09	461.09
388.28	505.56
388.48	390.87
388.67	416.62
388.86	428.32
389.06	498.53
389.25	430.66
389.45	458.74
389.64	458.74
389.84	430.66
390.03	404.91
390.22	416.62
390.42	451.72
390.61	444.70
390.81	498.53
391.00	465.77
391.19	444.70
391.39	550.03
391.58	458.74
391.78	491.51
391.97	526.62
392.16	601.52
392.36	554.71
392.55	599.18
392.75	547.69
392.94	519.60
393.13	484.49
393.33	599.18
393.52	496.19
393.71	580.45
393.91	545.34
394.10	592.16
394.29	552.37
394.49	540.66
394.68	552.37
394.88	594.50
395.07	594.50
395.26	557.05
395.46	582.79
395.65	636.63
395.84	592.16
396.04	650.67
396.23	645.99
396.42	648.33
396.62	603.86
396.81	606.20
397.00	711.52
397.19	624.92
397.39	662.37
397.58	596.84
397.77	709.18
397.97	779.40
398.16	660.03
398.35	580.45
398.55	667.05
398.74	734.93
398.93	681.10
399.12	732.59
399.32	653.01
399.51	669.39
399.70	755.99
399.90	723.23
400.09	791.10
400.28	755.99
400.47	774.72
400.67	720.88
400.86	800.46
401.05	758.33
401.24	751.31
401.44	692.80
401.63	779.40
401.82	772.38
402.01	739.61
402.21	788.76
402.40	835.57
402.59	821.53
402.78	842.59
402.97	858.98
403.17	816.85
403.36	873.02
403.55	770.04
403.74	929.19
403.93	828.55
404.13	952.60
404.32	943.24
404.51	828.55
404.70	940.90
404.89	905.79
405.09	908.13
405.28	882.38
405.47	1034.52
405.66	1011.11
405.85	954.94
406.05	929.19
406.24	922.17
406.43	1015.79
406.62	980.68
406.81	992.39
407.00	961.96
407.20	964.30
407.39	976.00
407.58	961.96
407.77	891.74
407.96	1114.10
408.15	1067.28
408.34	964.30
408.54	1015.79
408.73	1048.56
408.92	1121.12
409.11	1078.99
409.30	1153.88
409.49	1132.82
409.68	1062.60
409.87	1114.10
410.07	1123.46
410.26	1128.14
410.45	1214.74
410.64	1151.54
410.83	1184.31
411.02	1231.12
411.21	1174.95
411.40	1090.69
411.59	1245.16
411.78	1261.55
411.98	1186.65
412.17	1196.01
412.36	1226.44
412.55	1341.13
412.74	1399.64
412.93	1221.76
413.12	1350.49
413.31	1324.74
413.50	1320.06
413.69	1338.79
413.88	1497.94
414.07	1448.79
414.26	1406.66
414.45	1448.79
414.64	1500.28
414.83	1474.54
415.02	1446.45
415.22	1483.90
415.41	1425.39
415.60	1479.22
415.79	1577.52
415.98	1483.90
416.17	1507.30
416.36	1563.48
416.55	1626.67
416.74	1664.12
416.93	1687.53
417.12	1631.35
417.31	1636.03
417.50	1680.50
417.69	1713.27
417.88	1806.89
418.07	1640.72
418.26	1717.95
418.45	1589.22
418.64	1675.82
418.83	1797.53
419.02	1734.34
419.21	1708.59
419.39	1739.02
419.58	1696.89
419.77	1783.49
419.96	1806.89
420.15	1947.33
420.34	1837.32
420.53	1827.96
420.72	1987.11
420.91	1975.41
421.10	1856.04
421.29	1980.09
421.48	1849.02
421.67	1937.96
421.86	1895.83
422.05	1998.82
422.24	1905.20
422.43	1884.13
422.61	1947.33
422.80	1905.20
422.99	1916.90
423.18	1937.96
423.37	2097.12
423.56	2005.84
423.75	2005.84
423.94	1975.41
424.13	1877.11
424.32	1937.96
424.50	1975.41
424.69	1954.35
424.88	2092.44
425.07	1989.46
425.26	1937.96
425.45	1980.09
425.64	1994.14
425.83	1989.46
426.01	2047.97
426.20	1935.62
426.39	1973.07
426.58	2097.12
426.77	2038.61
426.96	2036.27
427.15	2069.03
427.33	2129.89
427.52	2134.57
427.71	2143.93
427.90	2139.25
428.09	2197.76
428.28	2200.10
428.46	2136.91
428.65	2214.15
428.84	2356.92
429.03	2289.04
429.22	2132.23
429.40	2183.72
429.59	2237.55
429.78	2052.65
429.97	2120.53
430.16	2122.87
430.34	2134.57
430.53	2223.51
430.72	2228.19
430.91	2239.89
431.10	2267.98
431.28	2272.66
431.47	2239.89
431.66	2401.39
431.85	2310.11
432.03	2408.41
432.22	2370.96
432.41	2289.04
432.60	2373.30
432.79	2293.72
432.97	2396.71
433.16	2448.20
433.35	2438.84
433.54	2445.86
433.72	2495.01
433.91	2509.05
434.10	2466.92
434.28	2490.33
434.47	2555.86
434.66	2476.29
434.85	2495.01
435.03	2480.97
435.22	2532.46
435.41	2644.81
435.59	2569.91
435.78	2497.35
435.97	2651.83
436.16	2724.38
436.34	2579.27
436.53	2787.58
436.72	2621.40
436.90	2513.74
437.09	2708.00
437.28	2551.18
437.46	2703.32
437.65	2649.49
437.84	2801.62
438.02	2780.56
438.21	2780.56
438.40	2745.45
438.58	2815.66
438.77	2787.58
438.96	2754.81
439.14	2857.79
439.33	2789.92
439.52	2995.89
439.70	2972.48
439.89	2986.52
440.08	2972.48
440.26	3045.04
440.45	3103.55
440.63	2977.16
440.82	3012.27
441.01	3094.19
441.19	3110.57
441.38	3180.79
441.57	3178.45
441.75	3150.36
441.94	3096.53
442.12	3164.40
442.31	3236.96
442.50	3232.28
442.68	3192.49
442.87	3262.71
443.05	3300.16
443.24	3314.20
443.43	3286.11
443.61	3309.52
443.80	3440.59
443.98	3325.90
444.17	3150.36
444.35	3265.05
444.54	3431.23
444.73	3372.71
444.91	3342.28
445.10	3393.78
445.28	3297.81
445.47	3281.43
445.65	3225.26
445.84	3293.13
446.02	3403.14
446.21	3330.58
446.39	3365.69
446.58	3557.61
446.77	3492.08
446.95	3344.63
447.14	3307.18
447.32	3407.82
447.51	3449.95
447.69	3475.70
447.88	3618.47
448.06	3417.18
448.25	3529.53
448.43	3524.85
448.62	3485.06
448.80	3475.70
448.99	3536.55
449.17	3506.12
449.36	3515.48
449.54	3473.36
449.73	3588.04
449.91	3660.60
450.10	3728.47
450.28	3786.99
450.46	3707.41
450.65	3571.66
450.83	3721.45
451.02	3798.69
451.20	3665.28
451.39	3639.53
451.57	3691.02
451.76	3770.60
451.94	3878.27
452.13	3768.26
452.31	3684.00
452.49	3817.41
452.68	3789.33
452.86	3838.48
453.05	3831.46
453.23	3702.73
453.42	3915.72
453.60	3794.01
453.78	3833.80
453.97	3763.58
454.15	3735.50
454.34	3817.41
454.52	3936.78
454.70	3758.90
454.89	3936.78
455.07	3943.80
455.26	3988.27
455.44	4046.79
455.62	3990.61
455.81	4007.00
455.99	4095.94
456.17	3873.59
456.36	4098.28
456.54	4131.05
456.73	4236.37
456.91	4180.20
457.09	4313.61
457.28	4334.67
457.46	4341.69
457.64	4168.49
457.83	4318.29
458.01	4138.07
458.19	4304.25
458.38	4397.87
458.56	4271.48
458.74	4510.21
458.93	4362.76
459.11	4337.01
459.29	4372.12
459.48	4407.23
459.66	4386.16
459.84	4348.72
460.03	4559.36
460.21	4280.84
460.39	4519.57
460.57	4339.35
460.76	4475.10
460.94	4463.40
461.12	4432.97
461.31	4596.81
461.49	4463.40
461.67	4526.60
461.85	4697.46
462.04	4571.07
462.22	4690.43
462.40	4514.89
462.59	4629.58
462.77	4475.10
462.95	4627.24
463.13	4781.71
463.32	4734.90
463.50	4683.41
463.68	4835.55
463.86	4631.92
464.05	4634.26
464.23	4758.31
464.41	4894.06
464.59	4737.24
464.78	4833.21
464.96	4901.08
465.14	4798.10
465.32	4791.08
465.50	5029.81
465.69	5020.45
465.87	5022.79
466.05	4903.42
466.23	4894.06
466.41	4959.60
466.60	5093.01
466.78	4936.19
466.96	4910.44
467.14	4966.62
467.32	5186.63
467.51	5064.92
467.69	4844.91
467.87	5172.58
468.05	5114.07
468.23	5128.11
468.41	4809.80
468.60	5025.13
468.78	5116.41
468.96	5125.77
469.14	5085.98
469.32	5345.78
469.50	5018.11
469.69	5263.86
469.87	5334.08
470.05	5242.80
470.23	5423.02
470.41	5341.10
470.59	5458.13
470.77	5348.12
470.95	5441.75
471.14	5448.77
471.32	5373.87
471.50	5568.13
471.68	5638.35
471.86	5378.55
472.04	5671.12
472.22	5738.99
472.40	5458.13
472.58	5558.77
472.77	5654.73
472.95	5738.99
473.13	5837.30
473.31	5760.06
473.49	5841.98
473.67	5675.80
473.85	5888.79
474.03	5975.39
474.21	5853.68
474.39	5874.74
474.57	5884.11
474.75	5989.43
474.93	5973.05
475.12	6176.67
475.30	6113.48
475.48	6031.56
475.66	6104.12
475.84	6090.07
476.02	6202.42
476.20	6216.46
476.38	6427.11
476.56	6469.24
476.74	6480.94
476.92	6473.92
477.10	6532.44
477.28	6457.54
477.46	6502.01
477.64	6600.31
477.82	6562.86
478.00	6937.35
478.18	6885.86
478.36	6970.12
478.54	6848.41
478.72	6909.26
478.90	6967.77
479.08	7077.78
479.26	7239.28
479.44	7155.02
479.62	7265.02
479.80	7335.24
479.98	7288.43
480.16	7466.31
480.34	7452.27
480.52	7489.71
480.70	7611.42
480.88	7545.89
481.06	7445.24
481.24	7637.17
481.41	7686.32
481.59	7702.70
481.77	8035.06
481.95	7988.25
482.13	8013.99
482.31	7906.33
482.49	8011.65
482.67	8196.56
482.85	8208.26
483.03	8496.14
483.21	8241.03
483.39	8442.31
483.57	8400.18
483.74	8306.56
483.92	8692.75
484.10	8468.06
484.28	8809.78
484.46	8868.29
484.64	9097.66
484.82	8908.08
485.00	8978.30
485.18	9345.76
485.35	9301.29
485.53	9266.18
485.71	9277.88
485.89	9579.81
486.07	9235.75
486.25	9385.55
486.43	9533.00
486.61	9542.36
486.78	9703.86
486.96	9659.39
487.14	9832.59
487.32	9937.91
487.50	9881.74
487.68	10176.65
487.85	10054.94
488.03	10242.18
488.21	10399.00
488.39	10551.14
488.57	10228.14
488.75	10516.03
488.92	10665.82
489.10	10712.63
489.28	10516.03
489.46	10815.62
489.64	10974.77
489.81	11295.43
489.99	11169.04
490.17	11091.80
490.35	11302.45
490.53	11447.56
490.70	11339.90
490.88	11367.98
491.06	11723.74
491.24	11538.84
491.41	11576.29
491.59	11920.35
491.77	11639.48
491.95	11861.84
492.13	12086.53
492.30	12088.87
492.48	11983.54
492.66	12245.68
492.84	11957.80
493.01	12231.64
493.19	12297.17
493.37	12566.34
493.54	12503.14
493.72	12702.09
493.90	12524.21
494.08	12802.73
494.25	12950.18
494.43	12870.61
494.61	13149.13
494.79	13067.21
494.96	13245.09
495.14	13144.45
495.32	13191.26
495.49	13338.71
495.67	13301.26
495.85	13654.69
496.02	13528.30
496.20	13905.12
496.38	13797.46
496.55	13809.16
496.73	14047.90
496.91	13912.14
497.09	13907.46
497.26	14031.51
497.44	14216.41
497.62	14050.24
497.79	14518.34
497.97	14291.31
498.14	14235.14
498.32	14621.33
498.50	14567.49
498.67	15075.39
498.85	14806.23
499.03	14787.50
499.20	14717.29
499.38	14696.22
499.56	15105.82
499.73	15152.63
499.91	15253.27
500.08	15330.51
500.26	15089.43
500.44	15290.72
500.61	15321.15
500.79	15257.95
500.97	15468.60
501.14	15396.04
501.32	15583.29
501.49	15475.62
501.67	15562.22
501.84	15742.44
502.02	15548.18
502.20	15775.21
502.37	15932.03
502.55	15873.51
502.72	16013.95
502.90	16203.53
503.07	15950.75
503.25	16079.48
503.43	15777.55
503.60	16257.36
503.78	16177.78
503.95	16292.47
504.13	16589.72
504.30	16482.05
504.48	16353.32
504.65	16393.11
504.83	16458.65
505.01	16800.37
505.18	16587.38
505.36	16954.84
505.53	16573.33
505.71	16802.71
505.88	16842.50
506.06	16617.80
506.23	16837.81
506.41	16460.99
506.58	17149.11
506.76	17039.10
506.93	17291.88
507.11	17025.06
507.28	16875.26
507.46	17205.28
507.63	17455.72
507.81	17444.01
507.98	17284.86
508.16	17338.69
508.33	17771.69
508.50	17528.27
508.68	17345.71
508.85	17827.86
509.03	17867.65
509.20	17963.61
509.38	17673.39
509.55	18036.17
509.73	18277.24
509.90	18120.43
510.08	18090.00
510.25	17996.38
510.42	18300.65
510.60	18614.28
510.77	18214.05
510.95	18223.41
511.12	18431.72
511.30	18473.85
511.47	18572.15
511.64	18457.46
511.82	18621.30
511.99	18644.71
512.17	18972.38
512.34	18703.22
512.51	18775.78
512.69	18806.20
512.86	18712.58
513.04	19103.45
513.21	19171.33
513.38	19112.81
513.56	18981.74
513.73	19105.79
513.90	19276.65
514.08	19452.19
514.25	19304.74
514.43	19360.91
514.60	19290.70
514.77	19716.67
514.95	19468.58
515.12	19508.37
515.29	19503.68
515.47	19623.05
515.64	19564.54
515.81	19861.79
515.99	19733.06
516.16	19917.96
516.33	19885.19
516.51	20018.60
516.68	20030.30
516.85	19829.02
517.03	20257.34
517.20	20072.43
517.37	20432.88
517.54	20166.06
517.72	20072.43
517.89	20081.80
518.06	20074.77
518.24	20355.64
518.41	20404.79
518.58	20404.79
518.75	20336.91
518.93	20566.29
519.10	20283.08
519.27	20706.72
519.45	20545.22
519.62	20692.68
519.79	20641.18
519.96	20713.74
520.14	20943.11
520.31	20917.37
520.48	21027.37
520.65	20858.85
520.83	21109.29
521.00	21057.80
521.17	20896.30
521.34	21174.83
521.52	21219.30
521.69	21312.92
521.86	21319.94
522.03	21408.88
522.20	21242.70
522.38	21514.20
522.55	21373.77
522.72	21589.10
522.89	21404.20
523.07	21750.60
523.24	21664.00
523.41	21546.97
523.58	21476.76
523.75	22050.19
523.92	21750.60
524.10	21813.79
524.27	21781.03
524.44	22288.92
524.61	22258.49
524.78	22087.64
524.96	22153.17
525.13	22190.62
525.30	22073.59
525.47	22148.49
525.64	22176.58
525.81	22312.33
525.98	22417.65
526.16	22494.89
526.33	22024.44
526.50	22462.12
526.67	22368.50
526.84	22445.74
527.01	22501.91
527.18	22551.06
527.36	22476.16
527.53	22625.96
527.70	22845.97
527.87	22967.68
528.04	22548.72
528.21	23044.91
528.38	22752.35
528.55	23094.07
528.72	22881.08
528.89	23194.71
529.07	23173.64
529.24	22892.78
529.41	23016.83
529.58	23110.45
529.75	23089.38
529.92	23225.14
530.09	23065.98
530.26	22993.42
530.43	23285.99
530.60	23187.69
530.77	23318.76
530.94	23328.12
531.11	23353.87
531.28	23225.14
531.46	23363.23
531.63	23393.65
531.80	23248.54
531.97	23555.15
532.14	23590.26
532.31	23295.35
532.48	23812.61
532.65	23620.69
532.82	23517.70
532.99	23412.38
533.16	23817.29
533.33	23878.15
533.50	24301.78
533.67	24102.84
533.84	23857.08
534.01	24126.24
534.18	24107.52
534.35	24231.57
534.52	23814.95
534.69	24086.45
534.86	24484.34
535.03	24009.22
535.20	24194.12
535.37	24432.85
535.54	24194.12
535.71	24133.26
535.88	24666.91
536.05	24182.42
536.22	24379.02
536.38	24697.33
536.55	24589.67
536.72	25109.27
536.89	24505.41
537.06	24580.31
537.23	24528.81
537.40	24437.53
537.57	24599.03
537.74	24643.50
537.91	24765.21
538.08	24924.36
538.25	24568.60
538.42	24730.10
538.59	24737.12
538.75	24479.66
538.92	24952.45
539.09	24725.42
539.26	24982.88
539.43	25132.67
539.60	24882.24
539.77	25198.21
539.94	25275.45
540.11	25088.20
540.28	25238.00
540.44	25057.78
540.61	25060.12
540.78	25310.55
540.95	25305.87
541.12	25458.01
541.29	25418.22
541.46	25532.90
541.62	25495.46
541.79	25259.06
541.96	25305.87
542.13	24971.18
542.30	25579.71
542.47	25509.50
542.63	25542.27
542.80	25598.44
542.97	25923.77
543.14	25841.85
543.31	25984.63
543.48	25898.03
543.64	25867.60
543.81	26302.94
543.98	25951.86
544.15	26214.00
544.32	25792.70
544.48	26141.44
544.65	25996.33
544.82	25965.90
544.99	25970.58
545.16	25968.24
545.32	25956.54
545.49	26506.57
545.66	26314.64
545.83	26211.66
546.00	26401.24
546.16	26202.30
546.33	26235.06
546.50	25837.17
546.67	26412.95
546.83	26246.77
547.00	26235.06
547.17	26576.78
547.34	26291.24
547.50	26506.57
547.67	26864.67
547.84	26703.17
548.00	26588.49
548.17	26831.90
548.34	26555.72
548.51	26850.63
548.67	26696.15
548.84	26888.07
549.01	26937.23
549.18	26625.93
549.34	26600.19
549.51	26560.40
549.68	26513.59
549.84	26651.68
550.01	27016.80
550.18	26560.40
550.34	27164.26
550.51	27140.85
550.68	27190.00
550.84	26864.67
551.01	26881.05
551.18	26511.25
551.34	26948.93
551.51	27239.15
551.68	27192.34
551.84	27171.28
552.01	27407.67
552.18	27323.41
552.34	27028.51
552.51	27201.71
552.68	27124.47
552.84	27140.85
553.01	27491.93
553.18	27402.99
553.34	27475.55
553.51	27697.90
553.67	27363.20
553.84	27669.81
554.01	27498.95
554.17	27353.84
554.34	27613.64
554.51	27337.46
554.67	27655.77
554.84	27620.66
555.00	27838.33
555.17	27688.54
555.33	27810.25
555.50	27494.27
555.67	27651.09
555.83	27718.96
556.00	27770.46
556.16	27697.90
556.33	27672.15
556.50	27711.94
556.66	27779.82
556.83	27831.31
556.99	27997.49
557.16	27922.59
557.32	27828.97
557.49	27981.10
557.65	27477.89
557.82	28046.64
557.98	27555.13
558.15	27906.21
558.32	28107.49
558.48	28203.46
558.65	28290.06
558.81	28091.11
558.98	28481.98
559.14	28004.51
559.31	28142.60
559.47	28290.06
559.64	28423.47
559.80	28238.56
559.97	28442.19
560.13	28095.79
560.30	27962.38
560.46	28636.45
560.63	28453.89
560.79	28217.50
560.96	28130.90
561.12	28210.48
561.29	28119.20
561.45	27969.40
561.61	28364.95
561.78	28432.83
561.94	28421.13
562.11	28247.93
562.27	28872.85
562.44	28620.07
562.60	28276.01
562.77	28306.44
562.93	28315.80
563.10	28643.48
563.26	28238.56
563.42	28966.47
563.59	28376.66
563.75	28493.68
563.92	28575.60
564.08	28477.30
564.24	28208.14
564.41	28411.76
564.57	28474.96
564.74	28519.43
564.90	28437.51
565.07	28753.48
565.23	28755.82
565.39	28587.30
565.56	28914.98
565.72	28156.64
565.88	28697.31
566.05	28549.85
566.21	28517.09
566.38	28552.20
566.54	28311.12
566.70	29261.38
566.87	28650.50
567.03	28725.39
567.19	28907.96
567.36	28858.81
567.52	28790.93
567.68	28971.15
567.85	28868.17
568.01	28767.52
568.17	28783.91
568.34	28755.82
568.50	29144.35
568.66	28697.31
568.83	28994.56
568.99	29067.11
569.15	28701.99
569.32	28376.66
569.48	28697.31
569.64	28933.70
569.81	28950.09
569.97	28996.90
570.13	29273.08
570.30	29165.42
570.46	28933.70
570.62	29242.65
570.78	28624.75
570.95	28952.43
571.11	28889.23
571.27	28528.79
571.43	28821.36
571.60	28982.85
571.76	28968.81
571.92	28807.31
572.09	29240.31
572.25	29081.16
572.41	28980.51
572.57	29134.99
572.74	29252.02
572.90	28856.46
573.06	29167.76
573.22	29020.30
573.38	29156.05
573.55	28685.61
573.71	29331.59
573.87	29315.21
574.03	29259.04
574.20	29191.16
574.36	28929.02
574.52	29010.94
574.68	28858.81
574.84	29518.84
575.01	29106.90
575.17	28732.42
575.33	29179.46
575.49	28898.59
575.65	28973.49
575.82	29252.02
575.98	29385.43
576.14	28914.98
576.30	29207.55
576.46	29179.46
576.62	28985.19
576.79	29212.23
576.95	28914.98
577.11	29024.98
577.27	29106.90
577.43	29420.53
577.59	29153.71
577.75	29502.45
577.92	29280.10
578.08	29228.61
578.24	28975.83
578.40	29296.49
578.56	29102.22
578.72	29694.38
578.88	29146.69
579.04	29450.96
579.21	29188.82
579.37	29062.43
579.53	29724.80
579.69	28987.53
579.85	29156.05
580.01	29230.95
580.17	28978.17
580.33	29296.49
580.49	29191.16
580.65	29055.41
580.82	29441.60
580.98	29422.87
581.14	29450.96
581.30	29675.65
581.46	29156.05
581.62	29401.81
581.78	29216.91
581.94	29322.23
582.10	29252.02
582.26	28863.49
582.42	29530.54
582.58	29600.76
582.74	29689.70
582.90	29184.14
583.06	29490.75
583.22	29303.51
583.38	29514.16
583.54	29029.66
583.70	29010.94
583.86	29233.29
584.02	28701.99
584.18	29542.24
584.34	29675.65
584.50	29820.77
584.66	29399.47
584.82	29050.73
584.98	29486.07
585.14	29820.77
585.30	29406.49
585.46	29315.21
585.62	29013.28
585.78	29523.52
585.94	29308.19
586.10	29401.81
586.26	29263.72
586.42	29579.69
586.58	29102.22
586.74	29507.13
586.90	29333.93
587.06	29144.35
587.22	29589.05
587.38	29275.42
587.54	29462.66
587.70	29474.37
587.86	29284.78
588.02	30073.54
588.18	29645.23
588.34	29729.48
588.49	29275.42
588.65	29565.65
588.81	29862.90
588.97	29528.20
589.13	29603.10
589.29	29429.90
589.45	29598.41
589.61	30026.73
589.77	29572.67
589.93	30096.95
590.08	29771.61
590.24	29858.21
590.40	30274.83
590.56	29743.53
590.72	29741.19
590.88	29689.70
591.04	29350.32
591.20	29909.71
591.35	29706.08
591.51	30211.64
591.67	29582.03
591.83	29785.66
591.99	29963.54
