SpectraSuite Data File
++++++++++++++++++++++++++++++++++++
Date: Fri Oct 18 13:58:42 GMT-05:00 2013
User: bianchi
Dark Spectrum Present: No
Reference Spectrum Present: No
Number of Sampled Component Spectra: 1
Spectrometers: USB2+H05261
Integration Time (usec): 50000 (USB2+H05261)
Spectra Averaged: 1 (USB2+H05261)
Boxcar Smoothing: 0 (USB2+H05261)
Correct for Electrical Dark: No (USB2+H05261)
Strobe/Lamp Enabled: No (USB2+H05261)
Correct for Detector Non-linearity: No (USB2+H05261)
Correct for Stray Light: No (USB2+H05261)
Number of Pixels in Processed Spectrum: 2048
>>>>>Begin Processed Spectral Data<<<<<
365.73	0.00
365.92	0.00
366.12	0.00
366.32	0.00
366.52	0.00
366.72	0.00
366.91	0.00
367.11	0.00
367.31	0.00
367.51	0.00
367.70	0.00
367.90	0.00
368.10	0.00
368.30	0.00
368.49	0.00
368.69	0.00
368.89	0.00
369.09	0.00
369.28	0.00
369.48	0.00
369.68	0.00
369.87	0.00
370.07	0.00
370.27	0.00
370.47	18.72
370.66	65.54
370.86	119.37
371.06	77.24
371.25	177.88
371.45	138.09
371.65	220.01
371.84	170.86
372.04	168.52
372.24	210.65
372.44	156.82
372.63	229.37
372.83	262.14
373.03	236.39
373.22	180.22
373.42	229.37
373.62	212.99
373.81	222.35
374.01	248.10
374.21	191.92
374.40	212.99
374.60	353.42
374.79	229.37
374.99	234.05
375.19	229.37
375.38	273.84
375.58	257.46
375.78	212.99
375.97	259.80
376.17	306.61
376.37	259.80
376.56	334.70
376.76	297.25
376.95	255.12
377.15	262.14
377.35	292.57
377.54	234.05
377.74	210.65
377.93	327.68
378.13	351.08
378.33	332.36
378.52	210.65
378.72	266.82
378.91	322.99
379.11	248.10
379.31	315.97
379.50	330.02
379.70	306.61
379.89	297.25
380.09	311.29
380.28	315.97
380.48	308.95
380.68	304.27
380.87	297.25
381.07	351.08
381.26	358.10
381.46	273.84
381.65	271.50
381.85	308.95
382.04	278.52
382.24	273.84
382.43	311.29
382.63	341.72
382.83	362.78
383.02	318.31
383.22	348.74
383.41	362.78
383.61	341.72
383.80	369.80
384.00	337.04
384.19	358.10
384.39	299.59
384.58	339.38
384.78	390.87
384.97	418.96
385.17	308.95
385.36	306.61
385.56	381.51
385.75	390.87
385.95	313.63
386.14	379.17
386.34	390.87
386.53	430.66
386.72	344.06
386.92	428.32
387.11	425.98
387.31	386.19
387.50	402.57
387.70	402.57
387.89	414.27
388.09	353.42
388.28	360.44
388.48	444.70
388.67	430.66
388.86	491.51
389.06	369.80
389.25	430.66
389.45	418.96
389.64	484.49
389.84	416.62
390.03	472.79
390.22	479.81
390.42	451.72
390.61	479.81
390.81	566.41
391.00	535.98
391.19	519.60
391.39	547.69
391.58	587.47
391.78	533.64
391.97	463.43
392.16	498.53
392.36	531.30
392.55	517.26
392.75	634.29
392.94	491.51
393.13	535.98
393.33	521.94
393.52	538.32
393.71	559.39
393.91	528.96
394.10	535.98
394.29	491.51
394.49	559.39
394.68	678.76
394.88	503.22
395.07	589.82
395.26	615.56
395.46	578.11
395.65	561.73
395.84	578.11
396.04	690.46
396.23	606.20
396.42	765.36
396.62	692.80
396.81	753.65
397.00	702.16
397.19	568.75
397.39	655.35
397.58	634.29
397.77	664.71
397.97	704.50
398.16	716.20
398.35	662.37
398.55	671.73
398.74	622.58
398.93	765.36
399.12	737.27
399.32	746.63
399.51	699.82
399.70	746.63
399.90	725.57
400.09	753.65
400.28	706.84
400.47	798.12
400.67	758.33
400.86	793.44
401.05	727.91
401.24	833.23
401.44	777.06
401.63	784.08
401.82	835.57
402.01	884.72
402.21	777.06
402.40	793.44
402.59	814.51
402.78	908.13
402.97	840.25
403.17	763.01
403.36	833.23
403.55	851.96
403.74	889.40
403.93	924.51
404.13	964.30
404.32	922.17
404.51	805.14
404.70	945.58
404.89	926.85
405.09	992.39
405.28	964.30
405.47	992.39
405.66	1025.15
405.85	912.81
406.05	968.98
406.24	1008.77
406.43	950.26
406.62	947.92
406.81	1062.60
407.00	1022.81
407.20	1060.26
407.39	1020.47
407.58	1097.71
407.77	1046.22
407.96	1086.01
408.15	1076.65
408.34	976.00
408.54	1153.88
408.73	1111.75
408.92	1081.33
409.11	1177.29
409.30	1111.75
409.49	1132.82
409.68	1214.74
409.87	1151.54
410.07	1156.22
410.26	1252.19
410.45	1139.84
410.64	1156.22
410.83	1186.65
411.02	1184.31
411.21	1200.69
411.40	1181.97
411.59	1277.93
411.78	1341.13
411.98	1256.87
412.17	1385.60
412.36	1289.64
412.55	1352.83
412.74	1411.34
412.93	1338.79
413.12	1345.81
413.31	1427.73
413.50	1324.74
413.69	1273.25
413.88	1556.46
414.07	1497.94
414.26	1495.60
414.45	1465.18
414.64	1451.13
414.83	1439.43
415.02	1437.09
415.22	1504.96
415.41	1598.59
415.60	1479.22
415.79	1540.07
415.98	1671.14
416.17	1565.82
416.36	1596.25
416.55	1640.72
416.74	1600.93
416.93	1593.90
417.12	1638.38
417.31	1640.72
417.50	1678.16
417.69	1710.93
417.88	1659.44
418.07	1795.19
418.26	1804.55
418.45	1834.98
418.64	1865.41
418.83	1846.68
419.02	1818.60
419.21	1832.64
419.39	1937.96
419.58	1715.61
419.77	1881.79
419.96	1874.77
420.15	1736.68
420.34	1823.28
420.53	1820.94
420.72	1891.15
420.91	1961.37
421.10	1973.07
421.29	2022.22
421.48	1893.49
421.67	1909.88
421.86	1834.98
422.05	2094.78
422.24	2026.90
422.43	1912.22
422.61	1944.99
422.80	2090.10
422.99	2001.16
423.18	2064.35
423.37	2047.97
423.56	2078.40
423.75	1998.82
423.94	2005.84
424.13	1832.64
424.32	1797.53
424.50	1994.14
424.69	2097.12
424.88	2099.46
425.07	2029.24
425.26	1984.77
425.45	2071.37
425.64	2031.58
425.83	1928.60
426.01	2111.16
426.20	2066.69
426.39	2099.46
426.58	2097.12
426.77	2080.74
426.96	1994.14
427.15	2064.35
427.33	2143.93
427.52	2022.22
427.71	2062.01
427.90	2036.27
428.09	2237.55
428.28	2047.97
428.46	2256.28
428.65	2181.38
428.84	2352.24
429.03	2239.89
429.22	2265.64
429.40	2232.87
429.59	2267.98
429.78	2097.12
429.97	2120.53
430.16	2209.47
430.34	2286.70
430.53	2342.88
430.72	2377.98
430.91	2239.89
431.10	2284.36
431.28	2270.32
431.47	2253.94
431.66	2389.69
431.85	2356.92
432.03	2326.49
432.22	2373.30
432.41	2420.11
432.60	2471.61
432.79	2377.98
432.97	2331.17
433.16	2478.63
433.35	2464.58
433.54	2459.90
433.72	2530.12
433.91	2424.80
434.10	2525.44
434.28	2443.52
434.47	2455.22
434.66	2665.87
434.85	2647.15
435.03	2490.33
435.22	2497.35
435.41	2722.04
435.59	2576.93
435.78	2691.62
435.97	2651.83
436.16	2586.29
436.34	2654.17
436.53	2623.74
436.72	2792.26
436.90	2717.36
437.09	2700.98
437.28	2665.87
437.46	2663.53
437.65	2698.64
437.84	2764.17
438.02	2818.00
438.21	2679.91
438.40	2787.58
438.58	3066.10
438.77	2855.45
438.96	2897.58
439.14	2939.71
439.33	2902.26
439.52	3007.59
439.70	2970.14
439.89	3009.93
440.08	3009.93
440.26	3141.00
440.45	3000.57
440.63	3059.08
440.82	3180.79
441.01	3045.04
441.19	3049.72
441.38	3176.11
441.57	3129.30
441.75	3070.78
441.94	3351.65
442.12	3309.52
442.31	3222.92
442.50	3260.37
442.68	3424.20
442.87	3318.88
443.05	3421.86
443.24	3300.16
443.43	3456.97
443.61	3246.32
443.80	3482.72
443.98	3302.50
444.17	3197.17
444.35	3304.84
444.54	3353.99
444.73	3396.12
444.91	3307.18
445.10	3424.20
445.28	3337.60
445.47	3447.61
445.65	3314.20
445.84	3386.76
446.02	3513.14
446.21	3438.25
446.39	3384.41
446.58	3564.64
446.77	3478.04
446.95	3456.97
447.14	3564.64
447.32	3485.06
447.51	3489.74
447.69	3356.33
447.88	3412.50
448.06	3487.40
448.25	3459.31
448.43	3585.70
448.62	3574.00
448.80	3494.42
448.99	3515.48
449.17	3424.20
449.36	3534.21
449.54	3630.17
449.73	3571.66
449.91	3611.45
450.10	3735.50
450.28	3749.54
450.46	3728.47
450.65	3726.13
450.83	3726.13
451.02	3712.09
451.20	3892.31
451.39	3808.05
451.57	3843.16
451.76	3599.74
451.94	3861.88
452.13	3889.97
452.31	3833.80
452.49	3826.78
452.68	3777.62
452.86	3861.88
453.05	3747.20
453.23	3845.50
453.42	3852.52
453.60	3857.20
453.78	3819.75
453.97	3836.14
454.15	3950.82
454.34	3936.78
454.52	4088.92
454.70	4079.55
454.89	4074.87
455.07	3990.61
455.26	3974.23
455.44	4081.89
455.62	3981.25
455.81	3960.19
455.99	4189.56
456.17	4023.38
456.36	4170.83
456.54	4219.99
456.73	4222.33
456.91	4315.95
457.09	4297.22
457.28	4362.76
457.46	4194.24
457.64	4327.65
457.83	4360.42
458.01	4355.74
458.19	4301.90
458.38	4315.95
458.56	4470.42
458.74	4369.78
458.93	4409.57
459.11	4470.42
459.29	4524.26
459.48	4482.13
459.66	4514.89
459.84	4416.59
460.03	4603.83
460.21	4617.88
460.39	4596.81
460.57	4554.68
460.76	4507.87
460.94	4601.49
461.12	4519.57
461.31	4540.64
461.49	4559.36
461.67	4535.96
461.85	4779.37
462.04	4816.82
462.22	4676.39
462.40	4917.47
462.59	4601.49
462.77	4683.41
462.95	4767.67
463.13	4793.42
463.32	4676.39
463.50	4870.65
463.68	4748.95
463.86	4835.55
464.05	4695.11
464.23	4685.75
464.41	4931.51
464.59	4744.27
464.78	5036.83
464.96	5060.24
465.14	4706.82
465.32	5004.07
465.50	4950.23
465.69	4912.78
465.87	4997.04
466.05	4938.53
466.23	4835.55
466.41	5083.64
466.60	5013.43
466.78	5008.75
466.96	5011.09
467.14	5114.07
467.32	4978.32
467.51	5245.14
467.69	4952.57
467.87	5158.54
468.05	5191.31
468.23	5217.05
468.41	5181.95
468.60	5214.71
468.78	5212.37
468.96	5034.49
469.14	5301.31
469.32	5158.54
469.50	5231.10
469.69	5366.85
469.87	5345.78
470.05	5490.90
470.23	5406.64
470.41	5376.21
470.59	5373.87
470.77	5380.89
470.95	5376.21
471.14	5621.97
471.32	5504.94
471.50	5736.65
471.68	5528.35
471.86	5509.62
472.04	5579.84
472.22	5687.50
472.40	5563.45
472.58	5624.31
472.77	5879.43
472.95	5944.96
473.13	5820.91
473.31	5834.96
473.49	5760.06
473.67	5851.34
473.85	5956.66
474.03	5947.30
474.21	5951.98
474.39	5966.03
474.57	6193.06
474.75	6143.91
474.93	6193.06
475.12	6214.12
475.30	6305.40
475.48	6090.07
475.66	6204.76
475.84	6211.78
476.02	6235.19
476.20	6235.19
476.38	6384.98
476.56	6630.74
476.74	6581.59
476.92	6417.75
477.10	6672.87
477.28	6663.51
477.46	6616.69
477.64	6686.91
477.82	6740.74
478.00	6876.49
478.18	6876.49
478.36	6850.75
478.54	6991.18
478.72	6871.81
478.90	7073.10
479.08	7023.95
479.26	7171.40
479.44	7190.13
479.62	7368.01
479.80	7536.52
479.98	7222.89
480.16	7513.12
480.34	7440.56
480.52	7714.41
480.70	7581.00
480.88	7595.04
481.06	7789.30
481.24	7683.98
481.41	7744.83
481.59	7784.62
481.77	7784.62
481.95	8051.44
482.13	8182.51
482.31	8128.68
482.49	8280.82
482.67	8147.40
482.85	8388.48
483.03	8439.97
483.21	8517.21
483.39	8383.80
483.57	8486.78
483.74	8592.11
483.92	8573.38
484.10	8725.52
484.28	8725.52
484.46	9067.24
484.64	8990.00
484.82	8954.89
485.00	9191.28
485.18	9144.47
485.35	9371.50
485.53	9469.81
485.71	9612.58
485.89	9612.58
486.07	9561.09
486.25	9493.21
486.43	9619.60
486.61	9872.38
486.78	9769.40
486.96	9795.14
487.14	9989.41
487.32	10043.24
487.50	10115.80
487.68	10188.35
487.85	10214.10
488.03	10319.42
488.21	10581.56
488.39	10626.03
488.57	10726.68
488.75	10663.48
488.92	10843.70
489.10	10841.36
489.28	10993.50
489.46	11056.69
489.64	11002.86
489.81	11131.59
489.99	11171.38
490.17	11349.26
490.35	11522.46
490.53	11419.47
490.70	11658.21
490.88	11466.28
491.06	11903.96
491.24	11618.42
491.41	11836.09
491.59	11777.58
491.77	11651.19
491.95	12114.61
492.13	12299.52
492.30	12046.74
492.48	12416.54
492.66	12166.10
492.84	12145.04
493.01	12416.54
493.19	12615.49
493.37	12716.13
493.54	12695.07
493.72	12844.86
493.90	12805.07
494.08	12842.52
494.25	12994.65
494.43	13050.83
494.61	13343.39
494.79	13270.84
494.96	13256.79
495.14	13202.96
495.32	13806.82
495.49	13446.38
495.67	13415.95
495.85	13797.46
496.02	13930.87
496.20	13823.20
496.38	13961.30
496.55	14008.11
496.73	14326.42
496.91	14132.15
497.09	14066.62
497.26	14204.71
497.44	14232.80
497.62	14338.12
497.79	14581.54
497.97	14422.38
498.14	14759.42
498.32	14855.38
498.50	14806.23
498.67	14979.43
498.85	15044.96
499.03	14874.10
499.20	14855.38
499.38	14750.06
499.56	15056.67
499.73	15377.32
499.91	15166.67
500.08	15506.05
500.26	15204.12
500.44	15421.79
500.61	15396.04
500.79	15424.13
500.97	15573.92
501.14	15747.12
501.32	15786.91
501.49	15765.85
501.67	15831.38
501.84	16159.06
502.02	15920.32
502.20	16039.69
502.37	16149.70
502.55	16123.95
502.72	16329.92
502.90	16231.62
503.07	16266.72
503.25	16468.01
503.43	16486.73
503.60	16334.60
503.78	16189.49
503.95	16460.99
504.13	16783.98
504.30	16585.04
504.48	16444.60
504.65	16814.41
504.83	16842.50
505.01	17036.76
505.18	16636.53
505.36	17015.69
505.53	16901.01
505.71	17095.27
505.88	17413.59
506.06	16601.42
506.23	17380.82
506.41	17324.65
506.58	17231.02
506.76	17312.94
506.93	17537.63
507.11	17387.84
507.28	17479.12
507.46	17572.74
507.63	17659.34
507.81	17724.88
507.98	17310.60
508.16	17991.70
508.33	18040.85
508.50	17858.29
508.68	17923.82
508.85	17956.59
509.03	18099.36
509.20	18092.34
509.38	18300.65
509.55	18288.95
509.73	18427.04
509.90	18403.63
510.08	18078.30
510.25	18417.68
510.42	18635.35
510.60	18860.04
510.77	18640.03
510.95	18841.31
511.12	18618.96
511.30	18506.62
511.47	18785.14
511.64	18689.18
511.82	19007.49
511.99	19007.49
512.17	19286.01
512.34	18773.44
512.51	18890.46
512.69	19218.14
512.86	19136.22
513.04	19267.29
513.21	19482.62
513.38	19372.61
513.56	19353.89
513.73	19562.20
513.90	19318.78
514.08	19564.54
514.25	19569.22
514.43	19747.10
514.60	19782.21
514.77	19817.32
514.95	19939.02
515.12	19646.46
515.29	19777.53
515.47	20182.44
515.64	20170.74
515.81	20023.28
515.99	20119.24
516.16	20266.70
516.33	20339.26
516.51	20149.67
516.68	20121.59
516.85	20224.57
517.03	20100.52
517.20	20540.54
517.37	20287.76
517.54	20418.83
517.72	20425.86
517.89	20283.08
518.06	20503.09
518.24	20713.74
518.41	20652.89
518.58	20676.29
518.75	20510.11
518.93	21057.80
519.10	20814.38
519.27	20844.81
519.45	20676.29
519.62	21055.46
519.79	20900.98
519.96	20989.92
520.14	20919.71
520.31	21195.89
520.48	21310.58
520.65	21558.67
520.83	21392.50
521.00	21212.28
521.17	21439.31
521.34	21621.87
521.52	21348.03
521.69	21324.62
521.86	21738.90
522.03	21865.28
522.20	21675.70
522.38	21694.43
522.55	21909.75
522.72	21851.24
522.89	21570.38
523.07	22317.01
523.24	22157.85
523.41	22026.78
523.58	22026.78
523.75	22005.72
523.92	21965.93
524.10	22246.79
524.27	22246.79
524.44	22228.07
524.61	22511.27
524.78	22293.60
524.96	22403.61
525.13	22658.73
525.30	22398.93
525.47	22513.61
525.64	22218.71
525.81	22824.90
525.98	22728.94
526.16	22860.01
526.33	22806.18
526.50	22766.39
526.67	22862.35
526.84	22562.76
527.01	22740.64
527.18	22988.74
527.36	22829.59
527.53	22883.42
527.70	23154.92
527.87	23229.82
528.04	23105.77
528.21	23197.05
528.38	22885.76
528.55	23115.13
528.72	23281.31
528.89	23227.48
529.07	23414.72
529.24	23276.63
529.41	23379.61
529.58	23571.54
529.75	23246.20
529.92	23587.92
530.09	23297.69
530.26	23538.77
530.43	23779.84
530.60	23690.90
530.77	23585.58
530.94	23618.35
531.11	23882.83
531.28	23641.75
531.46	23765.80
531.63	23981.13
531.80	24374.34
531.97	23882.83
532.14	24198.80
532.31	23936.66
532.48	23948.36
532.65	24271.36
532.82	23985.81
532.99	24114.54
533.16	24060.71
533.33	24114.54
533.50	24503.07
533.67	24538.18
533.84	24140.29
534.01	24332.21
534.18	24130.92
534.35	24467.96
534.52	24109.86
534.69	24400.08
534.86	24641.16
535.03	24472.64
535.20	24790.95
535.37	24484.34
535.54	24554.56
535.71	24531.15
535.88	24758.19
536.05	24891.60
536.22	24765.21
536.38	24950.11
536.55	24975.86
536.72	24987.56
536.89	24999.26
537.06	24999.26
537.23	25125.65
537.40	25092.88
537.57	24938.41
537.74	25223.95
537.91	25308.21
538.08	25151.40
538.25	25137.35
538.42	25252.04
538.59	25467.37
538.75	24950.11
538.92	24973.52
539.09	25317.57
539.26	25483.75
539.43	25259.06
539.60	25406.52
539.77	25671.00
539.94	25486.09
540.11	25493.12
540.28	25638.23
540.44	25448.64
540.61	25467.37
540.78	25259.06
540.95	25600.78
541.12	25336.30
541.29	25795.04
541.46	25645.25
541.62	25661.63
541.79	25699.08
541.96	25795.04
542.13	25568.01
542.30	25898.03
542.47	25738.87
542.63	25820.79
542.80	26249.11
542.97	26295.92
543.14	25811.43
543.31	26164.85
543.48	26178.89
543.64	26560.40
543.81	26623.59
543.98	26574.44
544.15	26565.08
544.32	26808.50
544.48	26551.04
544.65	26588.49
544.82	26190.59
544.99	26305.28
545.16	26429.33
545.32	26286.56
545.49	26977.01
545.66	26747.64
545.83	27044.89
546.00	26778.07
546.16	26534.65
546.33	26897.44
546.50	26096.97
546.67	26473.80
546.83	26590.83
547.00	26764.03
547.17	27087.02
547.34	26855.31
547.50	26946.59
547.67	26857.65
547.84	26892.76
548.00	27089.36
548.17	26813.18
548.34	27014.46
548.51	27185.32
548.67	27084.68
548.84	27267.24
549.01	27269.58
549.18	27152.55
549.34	27026.17
549.51	27028.51
549.68	27051.91
549.84	27115.11
550.01	27012.12
550.18	27372.57
550.34	27440.44
550.51	27520.02
550.68	27590.24
550.84	27363.20
551.01	27620.66
551.18	27215.75
551.34	27412.35
551.51	27513.00
551.68	27604.28
551.84	27330.44
552.01	27632.36
552.18	27910.89
552.34	27672.15
552.51	27847.69
552.68	27763.43
552.84	27824.29
553.01	27936.63
553.18	27981.10
553.34	28067.70
553.51	27929.61
553.67	28037.28
553.84	27854.72
554.01	28407.08
554.17	27957.70
554.34	27899.19
554.51	28166.01
554.67	27854.72
554.84	27997.49
555.00	27910.89
555.17	27733.01
555.33	28257.29
555.50	28095.79
555.67	27859.40
555.83	28011.53
556.00	27938.97
556.16	28549.85
556.33	27955.36
556.50	28067.70
556.66	28418.78
556.83	28212.82
556.99	28154.30
557.16	28339.21
557.32	28280.69
557.49	28465.60
557.65	28077.07
557.82	28636.45
557.98	28367.29
558.15	28257.29
558.32	28222.18
558.48	28535.81
558.65	28390.70
558.81	28481.98
558.98	28730.08
559.14	28479.64
559.31	28219.84
559.47	28161.33
559.64	28549.85
559.80	28526.45
559.97	28709.01
560.13	28762.84
560.30	28687.95
560.46	29015.62
560.63	28407.08
560.79	28458.57
560.96	28849.44
561.12	28826.04
561.29	28458.57
561.45	28671.56
561.61	28914.98
561.78	28657.52
561.94	29003.92
562.11	28856.46
562.27	28795.61
562.44	28437.51
562.60	28608.37
562.77	28851.78
562.93	28877.53
563.10	29055.41
563.26	29113.92
563.42	29240.31
563.59	29120.95
563.75	28947.75
563.92	28659.86
564.08	28924.34
564.24	28821.36
564.41	28959.45
564.57	28650.50
564.74	28950.09
564.90	28985.19
565.07	29125.63
565.23	29259.04
565.39	28943.06
565.56	28954.77
565.72	29193.50
565.88	28912.64
566.05	29013.28
566.21	29109.24
566.38	29296.49
566.54	28907.96
566.70	29275.42
566.87	29074.13
567.03	29230.95
567.19	29474.37
567.36	29490.75
567.52	29392.45
567.68	29556.28
567.85	29493.09
568.01	29144.35
568.17	29219.25
568.34	29539.90
568.50	29301.17
568.66	29266.06
568.83	29670.97
568.99	29298.83
569.15	29106.90
569.32	29340.96
569.48	29282.44
569.64	29050.73
569.81	29497.77
569.97	29074.13
570.13	29064.77
570.30	28926.68
570.46	29294.14
570.62	29273.08
570.78	29139.67
570.95	29127.97
571.11	29235.63
571.27	29078.82
571.43	29198.18
571.60	29413.51
571.76	29312.87
571.92	29579.69
572.09	29373.72
572.25	29556.28
572.41	29624.16
572.57	29284.78
572.74	29605.44
572.90	29151.37
573.06	29289.46
573.22	29259.04
573.38	29198.18
573.55	29511.81
573.71	29439.26
573.87	29795.02
574.03	29165.42
574.20	29631.18
574.36	29340.96
574.52	29757.57
574.68	29053.07
574.84	29640.54
575.01	29401.81
575.17	29399.47
575.33	29380.74
575.49	29743.53
575.65	29699.06
575.82	29434.58
575.98	29577.35
576.14	29560.97
576.30	29734.17
576.46	29848.85
576.62	29511.81
576.79	29757.57
576.95	29289.46
577.11	29474.37
577.27	29703.74
577.43	29773.95
577.59	29537.56
577.75	29612.46
577.92	29530.54
578.08	29406.49
578.24	29701.40
578.40	29783.32
578.56	29593.73
578.72	29663.95
578.88	29584.37
579.04	30059.50
579.21	29532.88
579.37	30005.67
579.53	29708.42
579.69	29638.20
579.85	29624.16
580.01	29736.51
580.17	29355.00
580.33	29743.53
580.49	29708.42
580.65	29511.81
580.82	29912.05
580.98	30115.67
581.14	29729.48
581.30	29544.58
581.46	29687.36
581.62	29736.51
581.78	29371.38
581.94	29584.37
582.10	29453.30
582.26	29680.33
582.42	30050.14
582.58	29769.27
582.74	29635.86
582.90	29619.48
583.06	29792.68
583.22	29357.34
583.38	29837.15
583.54	30019.71
583.70	29607.78
583.86	29841.83
584.02	29956.52
584.18	29912.05
584.34	29846.51
584.50	30157.80
584.66	29675.65
584.82	29479.05
584.98	29539.90
585.14	29663.95
585.30	29390.11
585.46	29993.97
585.62	29521.18
585.78	30008.01
585.94	30040.78
586.10	29977.58
586.26	29790.34
586.42	29907.37
586.58	29738.85
586.74	29582.03
586.90	29420.53
587.06	29661.61
587.22	29806.72
587.38	29766.93
587.54	30181.21
587.70	30136.74
587.86	30316.96
588.02	29666.29
588.18	30178.87
588.34	30061.84
588.49	30141.42
588.65	29783.32
588.81	29844.17
588.97	29846.51
589.13	29689.70
589.29	29722.46
589.45	30080.56
589.61	30092.27
589.77	30375.47
589.93	29940.13
590.08	30326.32
590.24	30295.89
590.40	30101.63
590.56	30260.79
590.72	30012.69
590.88	29766.93
591.04	30235.04
591.20	30361.43
591.35	30225.68
591.51	30331.00
591.67	30260.79
591.83	30169.51
591.99	30527.61
