SpectraSuite Data File
++++++++++++++++++++++++++++++++++++
Date: Fri Oct 18 13:58:32 GMT-05:00 2013
User: bianchi
Dark Spectrum Present: No
Reference Spectrum Present: No
Number of Sampled Component Spectra: 1
Spectrometers: USB2+H05261
Integration Time (usec): 50000 (USB2+H05261)
Spectra Averaged: 1 (USB2+H05261)
Boxcar Smoothing: 0 (USB2+H05261)
Correct for Electrical Dark: No (USB2+H05261)
Strobe/Lamp Enabled: No (USB2+H05261)
Correct for Detector Non-linearity: No (USB2+H05261)
Correct for Stray Light: No (USB2+H05261)
Number of Pixels in Processed Spectrum: 2048
>>>>>Begin Processed Spectral Data<<<<<
365.73	0.00
365.92	0.00
366.12	0.00
366.32	0.00
366.52	0.00
366.72	0.00
366.91	0.00
367.11	0.00
367.31	0.00
367.51	0.00
367.70	0.00
367.90	0.00
368.10	0.00
368.30	0.00
368.49	0.00
368.69	0.00
368.89	0.00
369.09	0.00
369.28	0.00
369.48	0.00
369.68	0.00
369.87	0.00
370.07	0.00
370.27	0.00
370.47	0.00
370.66	93.62
370.86	100.64
371.06	140.43
371.25	175.54
371.45	91.28
371.65	95.96
371.84	105.32
372.04	212.99
372.24	88.94
372.44	177.88
372.63	217.67
372.83	168.52
373.03	255.12
373.22	198.95
373.42	196.60
373.62	313.63
373.81	245.76
374.01	273.84
374.21	257.46
374.40	175.54
374.60	236.39
374.79	220.01
374.99	266.82
375.19	299.59
375.38	278.52
375.58	189.58
375.78	210.65
375.97	285.55
376.17	308.95
376.37	212.99
376.56	306.61
376.76	215.33
376.95	241.08
377.15	259.80
377.35	264.48
377.54	325.33
377.74	278.52
377.93	313.63
378.13	341.72
378.33	355.76
378.52	341.72
378.72	287.89
378.91	234.05
379.11	262.14
379.31	266.82
379.50	229.37
379.70	339.38
379.89	238.73
380.09	330.02
380.28	278.52
380.48	287.89
380.68	227.03
380.87	283.20
381.07	156.82
381.26	276.18
381.46	278.52
381.65	395.55
381.85	320.65
382.04	320.65
382.24	308.95
382.43	341.72
382.63	301.93
382.83	397.89
383.02	322.99
383.22	425.98
383.41	353.42
383.61	437.68
383.80	344.06
384.00	308.95
384.19	365.12
384.39	421.30
384.58	339.38
384.78	430.66
384.97	376.83
385.17	299.59
385.36	339.38
385.56	437.68
385.75	395.55
385.95	416.62
386.14	400.23
386.34	376.83
386.53	404.91
386.72	440.02
386.92	400.23
387.11	414.27
387.31	442.36
387.50	404.91
387.70	416.62
387.89	376.83
388.09	367.46
388.28	437.68
388.48	433.00
388.67	472.79
388.86	491.51
389.06	550.03
389.25	442.36
389.45	484.49
389.64	486.83
389.84	552.37
390.03	468.11
390.22	475.13
390.42	423.64
390.61	498.53
390.81	428.32
391.00	477.47
391.19	449.38
391.39	503.22
391.58	489.17
391.78	498.53
391.97	489.17
392.16	465.77
392.36	500.87
392.55	500.87
392.75	568.75
392.94	526.62
393.13	526.62
393.33	491.51
393.52	561.73
393.71	559.39
393.91	617.90
394.10	531.30
394.29	578.11
394.49	543.00
394.68	585.13
394.88	580.45
395.07	669.39
395.26	594.50
395.46	587.47
395.65	599.18
395.84	678.76
396.04	631.94
396.23	690.46
396.42	634.29
396.62	603.86
396.81	624.92
397.00	627.26
397.19	610.88
397.39	624.92
397.58	645.99
397.77	610.88
397.97	758.33
398.16	777.06
398.35	660.03
398.55	620.24
398.74	671.73
398.93	751.31
399.12	681.10
399.32	671.73
399.51	744.29
399.70	737.27
399.90	688.12
400.09	793.44
400.28	716.20
400.47	676.41
400.67	772.38
400.86	805.14
401.05	723.23
401.24	795.78
401.44	784.08
401.63	730.25
401.82	788.76
402.01	781.74
402.21	800.46
402.40	816.85
402.59	905.79
402.78	828.55
402.97	835.57
403.17	809.83
403.36	835.57
403.55	844.93
403.74	933.87
403.93	917.49
404.13	968.98
404.32	880.04
404.51	950.26
404.70	854.30
404.89	873.02
405.09	908.13
405.28	866.00
405.47	898.77
405.66	880.04
405.85	884.72
406.05	873.02
406.24	980.68
406.43	971.32
406.62	1015.79
406.81	1029.84
407.00	990.05
407.20	987.71
407.39	997.07
407.58	1057.92
407.77	1022.81
407.96	1097.71
408.15	1039.20
408.34	1060.26
408.54	1123.46
408.73	1100.05
408.92	1069.62
409.11	1188.99
409.30	1149.20
409.49	1081.33
409.68	1071.97
409.87	1135.16
410.07	1116.44
410.26	1167.93
410.45	1221.76
410.64	1214.74
410.83	1203.04
411.02	1219.42
411.21	1139.84
411.40	1221.76
411.59	1217.08
411.78	1254.53
411.98	1186.65
412.17	1301.34
412.36	1315.38
412.55	1270.91
412.74	1320.06
412.93	1404.32
413.12	1310.70
413.31	1320.06
413.50	1352.83
413.69	1376.24
413.88	1413.68
414.07	1329.42
414.26	1453.47
414.45	1406.66
414.64	1488.58
414.83	1448.79
415.02	1523.69
415.22	1526.03
415.41	1495.60
415.60	1495.60
415.79	1504.96
415.98	1514.33
416.17	1575.18
416.36	1535.39
416.55	1584.54
416.74	1600.93
416.93	1610.29
417.12	1657.10
417.31	1722.63
417.50	1689.87
417.69	1748.38
417.88	1710.93
418.07	1802.21
418.26	1715.61
418.45	1799.87
418.64	1900.52
418.83	1839.66
419.02	1706.25
419.21	1743.70
419.39	1767.10
419.58	1799.87
419.77	1732.00
419.96	1778.81
420.15	1874.77
420.34	1806.89
420.53	1811.57
420.72	1900.52
420.91	1842.00
421.10	1937.96
421.29	1923.92
421.48	1926.26
421.67	1853.70
421.86	1987.11
422.05	1921.58
422.24	1994.14
422.43	2033.93
422.61	2015.20
422.80	1982.43
422.99	1891.15
423.18	2033.93
423.37	1982.43
423.56	2017.54
423.75	2047.97
423.94	1919.24
424.13	1837.32
424.32	1966.05
424.50	1970.73
424.69	2080.74
424.88	2120.53
425.07	1961.37
425.26	1926.26
425.45	1944.99
425.64	2024.56
425.83	2001.16
426.01	2047.97
426.20	2005.84
426.39	2043.29
426.58	2092.44
426.77	2125.21
426.96	2008.18
427.15	2087.76
427.33	2125.21
427.52	2120.53
427.71	2106.48
427.90	2064.35
428.09	2073.71
428.28	2169.68
428.46	2160.31
428.65	2155.63
428.84	2200.10
429.03	2174.36
429.22	2141.59
429.40	2265.64
429.59	2340.54
429.78	2038.61
429.97	2195.42
430.16	2195.42
430.34	2438.84
430.53	2310.11
430.72	2382.67
430.91	2324.15
431.10	2244.57
431.28	2251.60
431.47	2366.28
431.66	2356.92
431.85	2317.13
432.03	2445.86
432.22	2417.77
432.41	2417.77
432.60	2377.98
432.79	2392.03
432.97	2403.73
433.16	2361.60
433.35	2377.98
433.54	2469.27
433.72	2455.22
433.91	2513.74
434.10	2551.18
434.28	2455.22
434.47	2401.39
434.66	2588.63
434.85	2541.82
435.03	2679.91
435.22	2658.85
435.41	2682.25
435.59	2637.78
435.78	2583.95
435.97	2626.08
436.16	2623.74
436.34	2782.90
436.53	2656.51
436.72	2647.15
436.90	2602.68
437.09	2719.70
437.28	2670.55
437.46	2581.61
437.65	2729.06
437.84	2764.17
438.02	2729.06
438.21	2724.38
438.40	2757.15
438.58	2848.43
438.77	2743.11
438.96	2686.94
439.14	2890.56
439.33	2974.82
439.52	2932.69
439.70	3082.49
439.89	3023.97
440.08	3040.36
440.26	2958.44
440.45	2911.63
440.63	2902.26
440.82	3145.68
441.01	3227.60
441.19	3290.79
441.38	3183.13
441.57	3084.83
441.75	3166.74
441.94	3321.22
442.12	3325.90
442.31	3382.07
442.50	3253.34
442.68	3300.16
442.87	3229.94
443.05	3311.86
443.24	3342.28
443.43	3384.41
443.61	3295.47
443.80	3449.95
443.98	3328.24
444.17	3178.45
444.35	3398.46
444.54	3375.05
444.73	3468.67
444.91	3349.31
445.10	3438.25
445.28	3346.97
445.47	3243.98
445.65	3342.28
445.84	3335.26
446.02	3468.67
446.21	3407.82
446.39	3438.25
446.58	3438.25
446.77	3461.65
446.95	3407.82
447.14	3428.88
447.32	3428.88
447.51	3515.48
447.69	3552.93
447.88	3440.59
448.06	3543.57
448.25	3424.20
448.43	3590.38
448.62	3555.27
448.80	3552.93
448.99	3503.78
449.17	3421.86
449.36	3527.19
449.54	3637.19
449.73	3693.37
449.91	3574.00
450.10	3777.62
450.28	3768.26
450.46	3695.71
450.65	3641.87
450.83	3716.77
451.02	3695.71
451.20	3726.13
451.39	3672.30
451.57	3819.75
451.76	3758.90
451.94	3747.20
452.13	3854.86
452.31	3726.13
452.49	3758.90
452.68	3744.86
452.86	3721.45
453.05	3941.46
453.23	3889.97
453.42	3857.20
453.60	3915.72
453.78	3784.65
453.97	3845.50
454.15	3901.67
454.34	3899.33
454.52	4037.42
454.70	3932.10
454.89	4011.68
455.07	4060.83
455.26	3957.85
455.44	3918.06
455.62	4030.40
455.81	4065.51
455.99	4147.43
456.17	4287.86
456.36	4105.30
456.54	4154.45
456.73	4257.43
456.91	4383.82
457.09	4203.60
457.28	4416.59
457.46	4234.03
457.64	4156.79
457.83	4358.08
458.01	4236.37
458.19	4304.25
458.38	4161.47
458.56	4360.42
458.74	4358.08
458.93	4351.06
459.11	4510.21
459.29	4283.18
459.48	4379.14
459.66	4484.47
459.84	4496.17
460.03	4400.21
460.21	4404.89
460.39	4435.32
460.57	4514.89
460.76	4550.00
460.94	4697.46
461.12	4409.57
461.31	4655.33
461.49	4510.21
461.67	4688.09
461.85	4760.65
462.04	4592.13
462.22	4671.71
462.40	4617.88
462.59	4652.98
462.77	4732.56
462.95	4798.10
463.13	4645.96
463.32	4688.09
463.50	4667.03
463.68	4842.57
463.86	4870.65
464.05	4828.53
464.23	4821.50
464.41	4765.33
464.59	4898.74
464.78	4873.00
464.96	4746.61
465.14	4758.31
465.32	4887.04
465.50	4910.44
465.69	4877.68
465.87	4952.57
466.05	4762.99
466.23	4917.47
466.41	5027.47
466.60	5219.39
466.78	4947.89
466.96	4952.57
467.14	5123.43
467.32	5097.69
467.51	5111.73
467.69	4957.25
467.87	5165.56
468.05	5074.28
468.23	5093.01
468.41	5111.73
468.60	5174.92
468.78	5170.24
468.96	5090.67
469.14	5132.79
469.32	5315.36
469.50	5167.90
469.69	5280.25
469.87	5355.15
470.05	5394.93
470.23	5317.70
470.41	5357.49
470.59	5291.95
470.77	5198.33
470.95	5413.66
471.14	5369.19
471.32	5212.37
471.50	5523.66
471.68	5713.25
471.86	5570.48
472.04	5699.20
472.22	5643.03
472.40	5633.67
472.58	5518.98
472.77	5621.97
472.95	5907.51
473.13	6064.33
473.31	5888.79
473.49	5795.17
473.67	5781.12
473.85	5741.33
474.03	5987.09
474.21	5886.45
474.39	6078.37
474.57	5982.41
474.75	6040.92
474.93	6120.50
475.12	6005.81
475.30	6005.81
475.48	6324.13
475.66	6204.76
475.84	6125.18
476.02	6352.21
476.20	6387.32
476.38	6445.84
476.56	6436.47
476.74	6377.96
476.92	6541.80
477.10	6408.39
477.28	6483.28
477.46	6649.46
477.64	6689.25
477.82	6726.70
478.00	6822.66
478.18	6817.98
478.36	6937.35
478.54	6995.86
478.72	6937.35
478.90	6953.73
479.08	7005.22
479.26	7098.84
479.44	7300.13
479.62	7253.32
479.80	7346.94
479.98	7410.14
480.16	7449.93
480.34	7307.15
480.52	7609.08
480.70	7506.10
480.88	7393.75
481.06	7583.34
481.24	7375.03
481.41	7602.06
481.59	7758.88
481.77	8021.02
481.95	7875.90
482.13	7974.21
482.31	7971.86
482.49	8238.69
482.67	8116.98
482.85	8365.07
483.03	8439.97
483.21	8767.65
483.39	8535.93
483.57	8325.29
483.74	8512.53
483.92	8578.06
484.10	8493.80
484.28	8833.18
484.46	8879.99
484.64	9270.86
484.82	9036.81
485.00	9195.96
485.18	9205.33
485.35	9336.40
485.53	9397.25
485.71	9268.52
485.89	9488.53
486.07	9437.04
486.25	9486.19
486.43	9614.92
486.61	9680.46
486.78	9872.38
486.96	9755.35
487.14	9961.32
487.32	9795.14
487.50	10146.22
487.68	10134.52
487.85	10178.99
488.03	10356.87
488.21	10342.83
488.39	10410.70
488.57	10609.65
488.75	10333.47
488.92	10691.57
489.10	10897.53
489.28	10672.84
489.46	10874.13
489.64	11030.94
489.81	11054.35
489.99	11154.99
490.17	11204.14
490.35	11314.15
490.53	11382.03
490.70	11702.68
490.88	11646.51
491.06	11506.07
491.24	11431.18
491.41	11681.61
491.59	11873.54
491.77	11908.65
491.95	11934.39
492.13	12086.53
492.30	12278.45
492.48	12116.95
492.66	12135.68
492.84	12229.30
493.01	12484.42
493.19	12545.27
493.37	12664.64
493.54	12517.18
493.72	12697.41
493.90	12863.58
494.08	12774.64
494.25	12858.90
494.43	13144.45
494.61	13305.95
494.79	12968.91
494.96	13104.66
495.14	13282.54
495.32	13317.65
495.49	13411.27
495.67	13378.50
495.85	13385.52
496.02	13554.04
496.20	13696.82
496.38	13586.81
496.55	13795.12
496.73	14029.17
496.91	14277.27
497.09	14281.95
497.26	14239.82
497.44	14106.41
497.62	14230.46
497.79	14225.78
497.97	14267.91
498.14	14532.39
498.32	14771.12
498.50	14754.74
498.67	14630.69
498.85	14583.88
499.03	14939.64
499.20	14927.94
499.38	14761.76
499.56	14773.46
499.73	15257.95
499.91	15288.38
500.08	15253.27
500.26	15154.97
500.44	15211.14
500.61	15311.78
500.79	15379.66
500.97	15468.60
501.14	15693.29
501.32	15468.60
501.49	15800.96
501.67	15517.75
501.84	15875.85
502.02	15651.16
502.20	15957.77
502.37	16035.01
502.55	15995.22
502.72	15880.53
502.90	16067.78
503.07	16224.59
503.25	15997.56
503.43	16189.49
503.60	16215.23
503.78	16449.28
503.95	16524.18
504.13	16578.01
504.30	16395.45
504.48	16166.08
504.65	16411.84
504.83	16805.05
505.01	16776.96
505.18	16737.17
505.36	16828.45
505.53	16844.84
505.71	16961.86
505.88	16872.92
506.06	17008.67
506.23	17172.51
506.41	16933.78
506.58	17202.94
506.76	17177.19
506.93	17022.72
507.11	17191.23
507.28	17401.88
507.46	17156.13
507.63	17642.96
507.81	17472.10
507.98	17741.26
508.16	17755.30
508.33	17614.87
508.50	17591.47
508.68	17736.58
508.85	18162.56
509.03	17748.28
509.20	17982.34
509.38	18251.50
509.55	17989.36
509.73	18078.30
509.90	18251.50
510.08	18045.53
510.25	18146.17
510.42	18190.64
510.60	18338.10
510.77	18412.99
510.95	18403.63
511.12	18403.63
511.30	18459.81
511.47	18574.49
511.64	18621.30
511.82	18675.13
511.99	19061.32
512.17	18853.02
512.34	18834.29
512.51	19077.71
512.69	18644.71
512.86	18867.06
513.04	18810.89
513.21	19220.48
513.38	19573.90
513.56	19367.93
513.73	19257.93
513.90	18981.74
514.08	19227.50
514.25	19225.16
514.43	19358.57
514.60	19695.61
514.77	19716.67
514.95	19555.18
515.12	19761.14
515.29	19903.92
515.47	19798.59
515.64	19910.94
515.81	19929.66
515.99	19903.92
516.16	19882.85
516.33	20020.94
516.51	19978.81
516.68	19719.01
516.85	19908.60
517.03	20257.34
517.20	20304.15
517.37	20058.39
517.54	20503.09
517.72	20273.72
517.89	20013.92
518.06	20407.13
518.24	20343.94
518.41	20273.72
518.58	20416.49
518.75	20418.83
518.93	20886.94
519.10	20863.54
519.27	20741.83
519.45	20711.40
519.62	20762.89
519.79	20973.54
519.96	20800.34
520.14	21060.14
520.31	21078.86
520.48	21238.02
520.65	20854.17
520.83	21170.15
521.00	21057.80
521.17	21144.40
521.34	21392.50
521.52	21352.71
521.69	21132.70
521.86	21202.91
522.03	21380.79
522.20	21736.56
522.38	21441.65
522.55	21579.74
522.72	21296.53
522.89	21561.02
523.07	21696.77
523.24	21991.67
523.41	21940.18
523.58	21582.08
523.75	21905.07
523.92	21553.99
524.10	21671.02
524.27	21776.34
524.44	22066.57
524.61	22281.90
524.78	22148.49
524.96	21930.82
525.13	22221.05
525.30	22361.48
525.47	22160.19
525.64	22324.03
525.81	22658.73
525.98	22553.40
526.16	22464.46
526.33	22721.92
526.50	22726.60
526.67	22448.08
526.84	22513.61
527.01	22532.34
527.18	22429.35
527.36	22640.00
527.53	23110.45
527.70	22864.69
527.87	22845.97
528.04	23190.03
528.21	22595.53
528.38	22803.84
528.55	23133.86
528.72	22944.27
528.89	23021.51
529.07	23140.88
529.24	22909.16
529.41	23094.07
529.58	23075.34
529.75	23281.31
529.92	23358.55
530.09	23496.64
530.26	23227.48
530.43	23433.44
530.60	23180.67
530.77	23496.64
530.94	23718.99
531.11	23517.70
531.28	23381.95
531.46	23686.22
531.63	23693.24
531.80	23768.14
531.97	23676.86
532.14	23770.48
532.31	23936.66
532.48	23953.04
532.65	23461.53
532.82	23662.82
532.99	24072.41
533.16	23637.07
533.33	23903.89
533.50	24074.75
533.67	24091.13
533.84	24025.60
534.01	24137.94
534.18	24063.05
534.35	24617.75
534.52	24273.70
534.69	24470.30
534.86	24376.68
535.03	24180.07
535.20	24418.81
535.37	24575.62
535.54	24596.69
535.71	24020.92
535.88	24587.33
536.05	24739.46
536.22	24479.66
536.38	24479.66
536.55	24924.36
536.72	24821.38
536.89	24795.64
537.06	24631.80
537.23	25001.60
537.40	24875.21
537.57	25029.69
537.74	24989.90
537.91	24751.17
538.08	24737.12
538.25	24727.76
538.42	24898.62
538.59	25191.19
538.75	24907.98
538.92	24896.28
539.09	24802.66
539.26	24655.20
539.43	25083.52
539.60	25287.15
539.77	24828.40
539.94	25113.95
540.11	24987.56
540.28	25088.20
540.44	25022.67
540.61	25113.95
540.78	25120.97
540.95	25242.68
541.12	25411.20
541.29	25565.67
541.46	25446.30
541.62	24940.75
541.79	25582.06
541.96	24907.98
542.13	25277.79
542.30	25825.47
542.47	25968.24
542.63	25879.30
542.80	25743.55
542.97	26026.76
543.14	26295.92
543.31	26080.59
543.48	26125.06
543.64	26230.38
543.81	26099.31
543.98	26141.44
544.15	26047.82
544.32	26221.02
544.48	26223.36
544.65	25979.95
544.82	26616.57
544.99	25902.71
545.16	26314.64
545.32	26228.04
545.49	26305.28
545.66	26771.05
545.83	26569.76
546.00	26391.88
546.16	26405.92
546.33	26150.81
546.50	25916.75
546.67	26567.42
546.83	25977.61
547.00	26529.97
547.17	26497.20
547.34	26478.48
547.50	26565.08
547.67	27082.34
547.84	26817.86
548.00	26590.83
548.17	27033.19
548.34	26747.64
548.51	26782.75
548.67	26998.08
548.84	26607.21
549.01	26927.86
549.18	26787.43
549.34	27042.55
549.51	26773.39
549.68	26717.22
549.84	27012.12
550.01	27072.98
550.18	26499.55
550.34	27402.99
550.51	27498.95
550.68	27192.34
550.84	26965.31
551.01	27194.68
551.18	26801.47
551.34	26932.54
551.51	27124.47
551.68	27285.97
551.84	27220.43
552.01	27489.59
552.18	27098.72
552.34	27384.27
552.51	27395.97
552.68	27754.07
552.84	27087.02
553.01	27646.41
553.18	27576.19
553.34	27658.11
553.51	27454.48
553.67	27529.38
553.84	28011.53
554.01	27831.31
554.17	27782.16
554.34	27517.68
554.51	27697.90
554.67	27697.90
554.84	27747.05
555.00	27543.42
555.17	27672.15
555.33	27962.38
555.50	27793.86
555.67	27733.01
555.83	27618.32
556.00	28030.26
556.16	28435.17
556.33	28063.02
556.50	27681.52
556.66	27931.95
556.83	28077.07
556.99	28315.80
557.16	28032.60
557.32	28320.48
557.49	28187.07
557.65	27814.93
557.82	27974.08
557.98	28163.67
558.15	28013.87
558.32	28250.27
558.48	28100.47
558.65	28233.88
558.81	28334.53
558.98	28259.63
559.14	28205.80
559.31	27992.81
559.47	28070.04
559.64	28465.60
559.80	28236.22
559.97	28343.89
560.13	27922.59
560.30	28589.64
560.46	28709.01
560.63	28311.12
560.79	28350.91
560.96	28442.19
561.12	28257.29
561.29	28308.78
561.45	28470.28
561.61	28402.40
561.78	28641.14
561.94	28208.14
562.11	28781.57
562.27	28638.80
562.44	28804.97
562.60	28512.41
562.77	28617.73
562.93	28430.49
563.10	28809.65
563.26	28395.38
563.42	28781.57
563.59	28975.83
563.75	28526.45
563.92	28807.31
564.08	28486.66
564.24	28386.02
564.41	28709.01
564.57	28591.98
564.74	28217.50
564.90	28772.21
565.07	29172.44
565.23	28760.50
565.39	28755.82
565.56	28924.34
565.72	28500.70
565.88	28830.72
566.05	28524.11
566.21	28680.92
566.38	28732.42
566.54	28903.28
566.70	29027.32
566.87	29282.44
567.03	28950.09
567.19	29048.39
567.36	28603.69
567.52	29413.51
567.68	29050.73
567.85	28638.80
568.01	28912.64
568.17	29291.80
568.34	29067.11
568.50	28741.78
568.66	28989.88
568.83	29249.67
568.99	28762.84
569.15	28734.76
569.32	28994.56
569.48	28648.16
569.64	28996.90
569.81	28751.14
569.97	28924.34
570.13	29280.10
570.30	29230.95
570.46	29083.50
570.62	29109.24
570.78	28957.11
570.95	29186.48
571.11	29104.56
571.27	28870.51
571.43	28933.70
571.60	28945.41
571.76	29137.33
571.92	29266.06
572.09	29369.04
572.25	29177.12
572.41	28966.47
572.57	29233.29
572.74	29064.77
572.90	28931.36
573.06	29191.16
573.22	29214.57
573.38	29383.09
573.55	29144.35
573.71	29287.12
573.87	29329.25
574.03	29448.62
574.20	29078.82
574.36	29010.94
574.52	29429.90
574.68	29385.43
574.84	29116.26
575.01	29277.76
575.17	29509.47
575.33	29120.95
575.49	29134.99
575.65	29350.32
575.82	29097.54
575.98	29273.08
576.14	29621.82
576.30	29170.10
576.46	29134.99
576.62	29092.86
576.79	29565.65
576.95	29425.22
577.11	29434.58
577.27	29263.72
577.43	29160.73
577.59	29076.48
577.75	29481.39
577.92	29104.56
578.08	29340.96
578.24	29277.76
578.40	29376.06
578.56	29619.48
578.72	29488.41
578.88	29577.35
579.04	29509.47
579.21	29284.78
579.37	29535.22
579.53	29380.74
579.69	29493.09
579.85	29010.94
580.01	29507.13
580.17	29434.58
580.33	28875.19
580.49	29427.56
580.65	29689.70
580.82	29481.39
580.98	29841.83
581.14	29567.99
581.30	29792.68
581.46	29277.76
581.62	29619.48
581.78	29013.28
581.94	28980.51
582.10	29567.99
582.26	29579.69
582.42	29301.17
582.58	29329.25
582.74	29347.98
582.90	29600.76
583.06	29727.14
583.22	29722.46
583.38	29385.43
583.54	29097.54
583.70	29397.13
583.86	29177.12
584.02	29247.33
584.18	29722.46
584.34	29692.04
584.50	29614.80
584.66	29422.87
584.82	29661.61
584.98	29626.50
585.14	29689.70
585.30	29340.96
585.46	29834.81
585.62	29539.90
585.78	29525.86
585.94	29247.33
586.10	29539.90
586.26	29687.36
586.42	29919.07
586.58	29741.19
586.74	29890.98
586.90	29560.97
587.06	29184.14
587.22	29380.74
587.38	29500.11
587.54	29579.69
587.70	29333.93
587.86	30106.31
588.02	29617.14
588.18	29692.04
588.34	29525.86
588.49	29928.43
588.65	29631.18
588.81	29500.11
588.97	29673.31
589.13	29762.25
589.29	29663.95
589.45	29638.20
589.61	29755.23
589.77	30026.73
589.93	29928.43
590.08	29830.13
590.24	29813.74
590.40	30089.93
590.56	30120.35
590.72	29926.09
590.88	30132.06
591.04	29504.79
591.20	29951.84
591.35	29940.13
591.51	30106.31
591.67	29982.26
591.83	30213.98
591.99	29762.25
