SpectraSuite Data File
++++++++++++++++++++++++++++++++++++
Date: Fri Oct 18 13:58:20 GMT-05:00 2013
User: bianchi
Dark Spectrum Present: No
Reference Spectrum Present: No
Number of Sampled Component Spectra: 1
Spectrometers: USB2+H05261
Integration Time (usec): 50000 (USB2+H05261)
Spectra Averaged: 1 (USB2+H05261)
Boxcar Smoothing: 0 (USB2+H05261)
Correct for Electrical Dark: No (USB2+H05261)
Strobe/Lamp Enabled: No (USB2+H05261)
Correct for Detector Non-linearity: No (USB2+H05261)
Correct for Stray Light: No (USB2+H05261)
Number of Pixels in Processed Spectrum: 2048
>>>>>Begin Processed Spectral Data<<<<<
365.73	0.00
365.92	0.00
366.12	0.00
366.32	0.00
366.52	0.00
366.72	0.00
366.91	0.00
367.11	0.00
367.31	0.00
367.51	0.00
367.70	0.00
367.90	0.00
368.10	0.00
368.30	0.00
368.49	0.00
368.69	0.00
368.89	0.00
369.09	0.00
369.28	0.00
369.48	0.00
369.68	0.00
369.87	0.00
370.07	0.00
370.27	0.00
370.47	0.00
370.66	86.60
370.86	60.85
371.06	170.86
371.25	126.39
371.45	133.41
371.65	124.05
371.84	121.71
372.04	138.09
372.24	156.82
372.44	152.13
372.63	156.82
372.83	212.99
373.03	215.33
373.22	191.92
373.42	166.18
373.62	322.99
373.81	203.63
374.01	187.24
374.21	208.31
374.40	252.78
374.60	290.23
374.79	227.03
374.99	259.80
375.19	290.23
375.38	273.84
375.58	182.56
375.78	255.12
375.97	262.14
376.17	294.91
376.37	271.50
376.56	252.78
376.76	280.86
376.95	243.42
377.15	257.46
377.35	285.55
377.54	243.42
377.74	250.44
377.93	259.80
378.13	257.46
378.33	308.95
378.52	252.78
378.72	262.14
378.91	266.82
379.11	224.69
379.31	276.18
379.50	250.44
379.70	315.97
379.89	339.38
380.09	276.18
380.28	346.40
380.48	301.93
380.68	273.84
380.87	376.83
381.07	273.84
381.26	346.40
381.46	327.68
381.65	381.51
381.85	217.67
382.04	313.63
382.24	322.99
382.43	313.63
382.63	339.38
382.83	278.52
383.02	407.25
383.22	440.02
383.41	381.51
383.61	407.25
383.80	334.70
384.00	330.02
384.19	411.93
384.39	388.53
384.58	311.29
384.78	442.36
384.97	418.96
385.17	383.85
385.36	374.49
385.56	388.53
385.75	360.44
385.95	433.00
386.14	425.98
386.34	358.10
386.53	444.70
386.72	414.27
386.92	470.45
387.11	400.23
387.31	423.64
387.50	379.17
387.70	482.15
387.89	433.00
388.09	421.30
388.28	451.72
388.48	337.04
388.67	484.49
388.86	475.13
389.06	528.96
389.25	435.34
389.45	521.94
389.64	519.60
389.84	491.51
390.03	559.39
390.22	505.56
390.42	425.98
390.61	447.04
390.81	486.83
391.00	470.45
391.19	409.59
391.39	505.56
391.58	491.51
391.78	477.47
391.97	470.45
392.16	510.24
392.36	540.66
392.55	496.19
392.75	601.52
392.94	547.69
393.13	561.73
393.33	603.86
393.52	498.53
393.71	573.43
393.91	613.22
394.10	547.69
394.29	596.84
394.49	568.75
394.68	638.97
394.88	674.07
395.07	678.76
395.26	524.28
395.46	566.41
395.65	620.24
395.84	669.39
396.04	690.46
396.23	688.12
396.42	636.63
396.62	645.99
396.81	566.41
397.00	657.69
397.19	695.14
397.39	601.52
397.58	622.58
397.77	681.10
397.97	629.60
398.16	662.37
398.35	784.08
398.55	713.86
398.74	685.78
398.93	711.52
399.12	667.05
399.32	727.91
399.51	730.25
399.70	699.82
399.90	716.20
400.09	730.25
400.28	786.42
400.47	823.87
400.67	842.59
400.86	812.17
401.05	755.99
401.24	671.73
401.44	734.93
401.63	828.55
401.82	828.55
402.01	812.17
402.21	833.23
402.40	884.72
402.59	774.72
402.78	795.78
402.97	910.47
403.17	849.61
403.36	826.21
403.55	840.25
403.74	875.36
403.93	870.68
404.13	880.04
404.32	954.94
404.51	763.01
404.70	915.15
404.89	945.58
405.09	929.19
405.28	856.64
405.47	966.64
405.66	1048.56
405.85	887.06
406.05	940.90
406.24	1086.01
406.43	936.21
406.62	1025.15
406.81	1032.18
407.00	966.64
407.20	1039.20
407.39	1018.13
407.58	1067.28
407.77	1057.92
407.96	1095.37
408.15	1062.60
408.34	1123.46
408.54	1041.54
408.73	1088.35
408.92	1050.90
409.11	1121.12
409.30	1062.60
409.49	1203.04
409.68	1177.29
409.87	1135.16
410.07	1165.59
410.26	1135.16
410.45	1165.59
410.64	1093.03
410.83	1238.14
411.02	1254.53
411.21	1224.10
411.40	1226.44
411.59	1165.59
411.78	1294.32
411.98	1369.21
412.17	1317.72
412.36	1306.02
412.55	1242.82
412.74	1369.21
412.93	1352.83
413.12	1268.57
413.31	1355.17
413.50	1399.64
413.69	1437.09
413.88	1483.90
414.07	1495.60
414.26	1404.32
414.45	1437.09
414.64	1434.75
414.83	1535.39
415.02	1598.59
415.22	1427.73
415.41	1554.12
415.60	1584.54
415.79	1610.29
415.98	1636.03
416.17	1605.61
416.36	1600.93
416.55	1549.43
416.74	1650.08
416.93	1582.20
417.12	1619.65
417.31	1722.63
417.50	1710.93
417.69	1682.85
417.88	1802.21
418.07	1678.16
418.26	1778.81
418.45	1811.57
418.64	1774.13
418.83	1760.08
419.02	1771.79
419.21	1799.87
419.39	1837.32
419.58	1748.38
419.77	1830.30
419.96	1865.41
420.15	1970.73
420.34	1844.34
420.53	1874.77
420.72	1996.48
420.91	1919.24
421.10	1926.26
421.29	1947.33
421.48	1839.66
421.67	1909.88
421.86	1961.37
422.05	2019.88
422.24	1961.37
422.43	1975.41
422.61	1919.24
422.80	2038.61
422.99	1994.14
423.18	2001.16
423.37	1940.30
423.56	2012.86
423.75	2087.76
423.94	2012.86
424.13	1926.26
424.32	1820.94
424.50	2090.10
424.69	2087.76
424.88	2057.33
425.07	2012.86
425.26	1968.39
425.45	2003.50
425.64	2033.93
425.83	1937.96
426.01	2111.16
426.20	2057.33
426.39	2122.87
426.58	2165.00
426.77	1991.80
426.96	2024.56
427.15	1959.03
427.33	2129.89
427.52	2235.21
427.71	2134.57
427.90	2200.10
428.09	2139.25
428.28	2071.37
428.46	2197.76
428.65	2153.29
428.84	2293.72
429.03	2211.81
429.22	2256.28
429.40	2183.72
429.59	2349.90
429.78	2160.31
429.97	2092.44
430.16	2270.32
430.34	2237.55
430.53	2450.54
430.72	2380.32
430.91	2204.78
431.10	2286.70
431.28	2394.37
431.47	2431.82
431.66	2427.14
431.85	2310.11
432.03	2359.26
432.22	2478.63
432.41	2385.01
432.60	2403.73
432.79	2349.90
432.97	2466.92
433.16	2392.03
433.35	2480.97
433.54	2513.74
433.72	2518.42
433.91	2569.91
434.10	2537.14
434.28	2471.61
434.47	2630.76
434.66	2534.80
434.85	2520.76
435.03	2569.91
435.22	2469.27
435.41	2672.89
435.59	2590.97
435.78	2626.08
435.97	2726.72
436.16	2621.40
436.34	2553.52
436.53	2612.04
436.72	2740.77
436.90	2597.99
437.09	2871.84
437.28	2689.28
437.46	2684.59
437.65	2754.81
437.84	2773.53
438.02	2836.73
438.21	2832.05
438.40	2754.81
438.58	2932.69
438.77	2839.07
438.96	2909.29
439.14	2984.18
439.33	3021.63
439.52	2995.89
439.70	2984.18
439.89	3000.57
440.08	3028.65
440.26	3000.57
440.45	3054.40
440.63	3183.13
440.82	3143.34
441.01	3047.38
441.19	3047.38
441.38	3218.24
441.57	3183.13
441.75	3229.94
441.94	3251.00
442.12	3171.43
442.31	3265.05
442.50	3353.99
442.68	3218.24
442.87	3248.66
443.05	3508.46
443.24	3316.54
443.43	3321.22
443.61	3279.09
443.80	3328.24
443.98	3300.16
444.17	3293.13
444.35	3445.27
444.54	3353.99
444.73	3417.18
444.91	3400.80
445.10	3412.50
445.28	3344.63
445.47	3356.33
445.65	3463.99
445.84	3541.23
446.02	3604.42
446.21	3550.59
446.39	3445.27
446.58	3442.93
446.77	3510.80
446.95	3606.77
447.14	3548.25
447.32	3485.06
447.51	3555.27
447.69	3545.91
447.88	3548.25
448.06	3475.70
448.25	3646.55
448.43	3611.45
448.62	3555.27
448.80	3508.46
448.99	3578.68
449.17	3644.21
449.36	3527.19
449.54	3651.24
449.73	3772.94
449.91	3707.41
450.10	3676.98
450.28	3744.86
450.46	3719.11
450.65	3885.29
450.83	3819.75
451.02	3721.45
451.20	3817.41
451.39	3744.86
451.57	3599.74
451.76	3599.74
451.94	3768.26
452.13	3822.09
452.31	3819.75
452.49	3882.95
452.68	3892.31
452.86	3857.20
453.05	3941.46
453.23	3836.14
453.42	3899.33
453.60	3913.38
453.78	4063.17
453.97	3976.57
454.15	3995.29
454.34	3976.57
454.52	3922.74
454.70	3974.23
454.89	4044.45
455.07	4049.13
455.26	4039.76
455.44	4084.23
455.62	4154.45
455.81	4065.51
455.99	4234.03
456.17	4168.49
456.36	4128.70
456.54	4227.01
456.73	4346.37
456.91	4381.48
457.09	4255.09
457.28	4311.27
457.46	4346.37
457.64	4381.48
457.83	4447.02
458.01	4255.09
458.19	4461.06
458.38	4440.00
458.56	4496.17
458.74	4409.57
458.93	4411.91
459.11	4428.29
459.29	4435.32
459.48	4421.27
459.66	4505.53
459.84	4442.34
460.03	4538.30
460.21	4638.94
460.39	4512.55
460.57	4578.09
460.76	4526.60
460.94	4702.14
461.12	4545.32
461.31	4594.47
461.49	4589.79
461.67	4531.28
461.85	4802.78
462.04	4725.54
462.22	5085.98
462.40	4858.95
462.59	4737.24
462.77	4844.91
462.95	4882.36
463.13	4720.86
463.32	4800.44
463.50	4917.47
463.68	5039.17
463.86	4903.42
464.05	4877.68
464.23	4891.72
464.41	4889.38
464.59	4823.84
464.78	4924.49
464.96	4840.23
465.14	4936.19
465.32	4936.19
465.50	5107.05
465.69	5114.07
465.87	5053.22
466.05	4926.83
466.23	5008.75
466.41	5022.79
466.60	5139.82
466.78	5025.13
466.96	5167.90
467.14	5067.26
467.32	5085.98
467.51	5097.69
467.69	5130.45
467.87	5107.05
468.05	5193.65
468.23	5186.63
468.41	5146.84
468.60	5205.35
468.78	5240.46
468.96	5228.76
469.14	5275.57
469.32	5465.15
469.50	5207.69
469.69	5266.21
469.87	5357.49
470.05	5455.79
470.23	5540.05
470.41	5458.13
470.59	5596.22
470.77	5399.62
470.95	5488.56
471.14	5533.03
471.32	5465.15
471.50	5591.54
471.68	5572.82
471.86	5802.19
472.04	5738.99
472.22	5879.43
472.40	5530.69
472.58	5781.12
472.77	5790.49
472.95	5954.32
473.13	5949.64
473.31	5645.37
473.49	5865.38
473.67	5900.49
473.85	5926.24
474.03	6150.93
474.21	5942.62
474.39	6132.20
474.57	6251.57
474.75	6228.17
474.93	6223.48
475.12	6153.27
475.30	6059.65
475.48	6221.14
475.66	6291.36
475.84	6347.53
476.02	6289.02
476.20	6455.20
476.38	6431.79
476.56	6544.14
476.74	6368.60
476.92	6471.58
477.10	6560.52
477.28	6808.62
477.46	6843.73
477.64	6665.85
477.82	6853.09
478.00	7068.42
478.18	7091.82
478.36	6970.12
478.54	7005.22
478.72	7016.93
478.90	6967.77
479.08	7028.63
479.26	7297.79
479.44	7454.61
479.62	7321.20
479.80	7468.65
479.98	7503.76
480.16	7515.46
480.34	7405.46
480.52	7641.85
480.70	7714.41
480.88	7651.21
481.06	7765.90
481.24	7793.98
481.41	7995.27
481.59	7831.43
481.77	7953.14
481.95	8105.28
482.13	8044.42
482.31	8060.80
482.49	8259.75
482.67	8393.16
482.85	8566.36
483.03	8575.72
483.21	8491.46
483.39	8540.61
483.57	8624.87
483.74	8540.61
483.92	8858.93
484.10	8587.43
484.28	8966.59
484.46	9221.71
484.64	9380.87
484.82	8868.29
485.00	9060.21
485.18	9217.03
485.35	9310.65
485.53	9336.40
485.71	9430.02
485.89	9799.82
486.07	9547.05
486.25	9434.70
486.43	9671.09
486.61	9750.67
486.78	9837.27
486.96	9977.70
487.14	10211.76
487.32	10169.63
487.50	10129.84
487.68	10207.08
487.85	10230.48
488.03	10466.88
488.21	10487.94
488.39	10750.08
488.57	10857.75
488.75	10544.11
488.92	10918.60
489.10	11005.20
489.28	10930.30
489.46	11304.79
489.64	11044.99
489.81	11309.47
489.99	11398.41
490.17	11316.49
490.35	11522.46
490.53	11616.08
490.70	11838.43
490.88	11637.14
491.06	11728.42
491.24	11737.79
491.41	12020.99
491.59	11847.79
491.77	12058.44
491.95	12009.29
492.13	12468.03
492.30	12250.36
492.48	12299.52
492.66	12290.15
492.84	12491.44
493.01	12641.23
493.19	12758.26
493.37	12484.42
493.54	12727.83
493.72	12952.52
493.90	12683.36
494.08	13032.10
494.25	13139.77
494.43	13336.37
494.61	13359.78
494.79	13280.20
494.96	13387.86
495.14	13338.71
495.32	13432.33
495.49	13621.92
495.67	13741.29
495.85	13593.83
496.02	13870.01
496.20	14022.15
496.38	14115.77
496.55	14122.79
496.73	14448.13
496.91	14146.20
497.09	14354.51
497.26	14293.65
497.44	14167.26
497.62	14593.24
497.79	14548.77
497.97	14654.09
498.14	14820.27
498.32	14963.04
498.50	14972.41
498.67	15012.20
498.85	15176.03
499.03	14927.94
499.20	15166.67
499.38	15035.60
499.56	15246.25
499.73	15260.29
499.91	15513.07
500.08	15623.08
500.26	15459.24
500.44	15438.17
500.61	15323.49
500.79	15225.18
500.97	15709.68
501.14	15822.02
501.32	15763.51
501.49	15709.68
501.67	15854.79
501.84	15927.35
502.02	16137.99
502.20	16044.37
502.37	16074.80
502.55	15894.58
502.72	16149.70
502.90	16336.94
503.07	16556.95
503.25	16322.90
503.43	16453.97
503.60	16662.27
503.78	16828.45
503.95	16161.40
504.13	16570.99
504.30	16617.80
504.48	16905.69
504.65	16772.28
504.83	17022.72
505.01	17142.08
505.18	17310.60
505.36	17238.05
505.53	17156.13
505.71	17163.15
505.88	16648.23
506.06	16748.87
506.23	17357.41
506.41	17460.40
506.58	17476.78
506.76	17310.60
506.93	17502.53
507.11	17432.31
507.28	17121.02
507.46	17631.26
507.63	17804.46
507.81	17928.50
507.98	17661.68
508.16	18040.85
508.33	17671.04
508.50	17965.95
508.68	17745.94
508.85	18192.98
509.03	18197.67
509.20	18312.35
509.38	18225.75
509.55	18230.43
509.73	18492.57
509.90	18361.50
510.08	18017.44
510.25	18600.24
510.42	18597.90
510.60	18544.06
510.77	19199.41
510.95	18796.84
511.12	18551.09
511.30	18810.89
511.47	18899.83
511.64	18977.06
511.82	18932.59
511.99	19159.63
512.17	19475.60
512.34	19014.51
512.51	19253.25
512.69	19391.34
512.86	19264.95
513.04	19314.10
513.21	19372.61
513.38	19681.56
513.56	19609.01
513.73	19381.98
513.90	19590.28
514.08	19400.70
514.25	19585.60
514.43	19580.92
514.60	19922.64
514.77	19908.60
514.95	19967.11
515.12	19985.83
515.29	19702.63
515.47	20184.78
515.64	20063.07
515.81	19927.32
515.99	20414.15
516.16	20341.60
516.33	20449.26
516.51	20425.86
516.68	20226.91
516.85	20109.88
517.03	20294.79
517.20	20585.01
517.37	20559.27
517.54	20510.11
517.72	20418.83
517.89	20765.23
518.06	20582.67
518.24	20549.90
518.41	20388.41
518.58	20821.41
518.75	20795.66
518.93	21078.86
519.10	20790.98
519.27	21226.32
519.45	21025.03
519.62	20980.56
519.79	20802.68
519.96	21394.84
520.14	21460.37
520.31	21039.08
520.48	21436.97
520.65	21172.49
520.83	21223.98
521.00	21422.92
521.17	21132.70
521.34	21486.12
521.52	21521.23
521.69	21495.48
521.86	21884.01
522.03	21977.63
522.20	21633.57
522.38	21874.65
522.55	21970.61
522.72	21830.18
522.89	21958.91
523.07	22209.34
523.24	22050.19
523.41	22101.68
523.58	22085.30
523.75	22272.54
523.92	22155.51
524.10	21972.95
524.27	22146.15
524.44	22391.91
524.61	22705.54
524.78	22682.13
524.96	22885.76
525.13	22363.82
525.30	22857.67
525.47	22567.45
525.64	22801.50
525.81	22867.03
525.98	22988.74
526.16	22820.22
526.33	22857.67
526.50	22955.97
526.67	22813.20
526.84	22771.07
527.01	23124.49
527.18	22948.95
527.36	22998.10
527.53	23150.24
527.70	23192.37
527.87	23229.82
528.04	23482.59
528.21	23468.55
528.38	23260.24
528.55	23527.06
528.72	23583.24
528.89	23613.66
529.07	23442.81
529.24	23405.36
529.41	23646.43
529.58	23318.76
529.75	23403.02
529.92	23438.12
530.09	23681.54
530.26	23777.50
530.43	23803.25
530.60	23594.94
530.77	23400.68
530.94	23828.99
531.11	23555.15
531.28	23763.46
531.46	23950.70
531.63	23931.98
531.80	23910.91
531.97	24379.02
532.14	24203.48
532.31	24112.20
532.48	23887.51
532.65	24084.11
532.82	23718.99
532.99	24285.40
533.16	24116.88
533.33	24720.74
533.50	24577.97
533.67	24601.37
533.84	24273.70
534.01	24465.62
534.18	24215.18
534.35	24692.65
534.52	24311.14
534.69	24737.12
534.86	24573.28
535.03	24828.40
535.20	24657.54
535.37	24685.63
535.54	24755.85
535.71	24709.04
535.88	25017.99
536.05	24769.89
536.22	25132.67
536.38	25081.18
536.55	25270.76
536.72	25296.51
536.89	24774.57
537.06	24947.77
537.23	25364.39
537.40	25053.09
537.57	24924.36
537.74	25369.07
537.91	25755.26
538.08	25387.79
538.25	25010.96
538.42	25200.55
538.59	25188.85
538.75	25235.66
538.92	25404.17
539.09	25329.28
539.26	25689.72
539.43	25680.36
539.60	25642.91
539.77	26127.40
539.94	25755.26
540.11	25717.81
540.28	25673.34
540.44	25865.26
540.61	25818.45
540.78	25378.43
540.95	25785.68
541.12	25745.89
541.29	25488.43
541.46	26129.74
541.62	25713.13
541.79	25916.75
541.96	25764.62
542.13	25656.95
542.30	26085.27
542.47	26309.96
542.63	26202.30
542.80	26164.85
542.97	26373.16
543.14	26155.49
543.31	26228.04
543.48	26375.50
543.64	26981.70
543.81	26459.76
543.98	26654.02
544.15	26656.36
544.32	26380.18
544.48	26696.15
544.65	26686.79
544.82	26656.36
544.99	26263.15
545.16	26576.78
545.32	26560.40
545.49	27290.65
545.66	26794.45
545.83	26988.72
546.00	26974.67
546.16	27133.83
546.33	26665.72
546.50	26319.32
546.67	26939.57
546.83	26541.68
547.00	26848.29
547.17	26740.62
547.34	26974.67
547.50	27171.28
547.67	27644.07
547.84	27030.85
548.00	26995.74
548.17	27541.08
548.34	27442.78
548.51	27393.63
548.67	27311.71
548.84	27314.05
549.01	27302.35
549.18	27414.69
549.34	27271.92
549.51	27250.86
549.68	27400.65
549.84	27421.72
550.01	27496.61
550.18	26979.36
550.34	27592.58
550.51	27660.45
550.68	27283.62
550.84	27466.19
551.01	27648.75
551.18	27414.69
551.34	27412.35
551.51	27587.89
551.68	27557.47
551.84	27744.71
552.01	27363.20
552.18	27915.57
552.34	28112.17
552.51	27655.77
552.68	27716.62
552.84	27723.65
553.01	28067.70
553.18	27929.61
553.34	28046.64
553.51	27826.63
553.67	28009.19
553.84	28196.43
554.01	28074.73
554.17	28154.30
554.34	28056.00
554.51	27779.82
554.67	28416.44
554.84	28065.36
555.00	28542.83
555.17	28121.54
555.33	28245.58
555.50	28086.43
555.67	28025.57
555.83	28243.24
556.00	28128.56
556.16	28182.39
556.33	28280.69
556.50	28648.16
556.66	28521.77
556.83	28746.46
556.99	28725.39
557.16	29013.28
557.32	28692.63
557.49	28678.58
557.65	28430.49
557.82	28463.25
557.98	28407.08
558.15	28744.12
558.32	28811.99
558.48	28589.64
558.65	28999.24
558.81	28177.71
558.98	28713.69
559.14	28884.55
559.31	28418.78
559.47	28709.01
559.64	28919.66
559.80	28624.75
559.97	28861.15
560.13	29032.00
560.30	28781.57
560.46	28610.71
560.63	28989.88
560.79	28821.36
560.96	28701.99
561.12	29010.94
561.29	29130.31
561.45	28671.56
561.61	29397.13
561.78	28978.17
561.94	29118.60
562.11	29092.86
562.27	29032.00
562.44	29120.95
562.60	29118.60
562.77	28760.50
562.93	28669.22
563.10	28961.79
563.26	28804.97
563.42	29186.48
563.59	29198.18
563.75	28858.81
563.92	29252.02
564.08	29233.29
564.24	28622.41
564.41	28865.83
564.57	29134.99
564.74	28992.22
564.90	29425.22
565.07	29078.82
565.23	28905.62
565.39	29010.94
565.56	29184.14
565.72	29481.39
565.88	29127.97
566.05	29315.21
566.21	29242.65
566.38	28732.42
566.54	29294.14
566.70	29467.34
566.87	29666.29
567.03	29390.11
567.19	29645.23
567.36	29303.51
567.52	28933.70
567.68	29493.09
567.85	29212.23
568.01	29617.14
568.17	29095.20
568.34	29280.10
568.50	29766.93
568.66	29778.64
568.83	29528.20
568.99	29481.39
569.15	29640.54
569.32	29523.52
569.48	29460.32
569.64	29324.57
569.81	29277.76
569.97	29319.89
570.13	29675.65
570.30	29610.12
570.46	29818.42
570.62	29244.99
570.78	29488.41
570.95	29153.71
571.11	29291.80
571.27	29408.83
571.43	29673.31
571.60	29977.58
571.76	29738.85
571.92	29706.08
572.09	29584.37
572.25	29589.05
572.41	29926.09
572.57	29692.04
572.74	29944.81
572.90	29535.22
573.06	29369.04
573.22	29579.69
573.38	29928.43
573.55	29687.36
573.71	30258.45
573.87	29675.65
574.03	29441.60
574.20	29514.16
574.36	29729.48
574.52	29841.83
574.68	29954.18
574.84	29661.61
575.01	29394.79
575.17	29947.15
575.33	29912.05
575.49	29743.53
575.65	29951.84
575.82	30017.37
575.98	29851.19
576.14	29818.42
576.30	29670.97
576.46	29982.26
576.62	30190.57
576.79	29898.00
576.95	29666.29
577.11	29940.13
577.27	29874.60
577.43	29893.32
577.59	30068.86
577.75	30033.75
577.92	29422.87
578.08	29465.00
578.24	29635.86
578.40	29898.00
578.56	30211.64
578.72	29663.95
578.88	29954.18
579.04	29736.51
579.21	30008.01
579.37	29933.11
579.53	30258.45
579.69	29729.48
579.85	29453.30
580.01	29935.45
580.17	29785.66
580.33	29844.17
580.49	29883.96
580.65	30099.29
580.82	30059.50
580.98	29954.18
581.14	30017.37
581.30	30031.41
581.46	29509.47
581.62	30066.52
581.78	29937.79
581.94	29914.39
582.10	29764.59
582.26	30045.46
582.42	29773.95
582.58	30003.33
582.74	30155.46
582.90	29823.11
583.06	30218.66
583.22	29607.78
583.38	30202.27
583.54	29724.80
583.70	29844.17
583.86	29743.53
584.02	29839.49
584.18	29869.92
584.34	30298.23
584.50	29795.02
584.66	30101.63
584.82	29530.54
584.98	30251.42
585.14	29937.79
585.30	29621.82
585.46	30237.38
585.62	29469.69
585.78	29900.34
585.94	29509.47
586.10	29659.27
586.26	30249.08
586.42	30309.94
586.58	30302.92
586.74	30099.29
586.90	29996.31
587.06	29785.66
587.22	29935.45
587.38	30223.34
587.54	30092.27
587.70	30452.71
587.86	30600.16
588.02	30405.90
588.18	30436.33
588.34	29628.84
588.49	30162.48
588.65	30080.56
588.81	29909.71
588.97	29970.56
589.13	29851.19
589.29	30008.01
589.45	30122.69
589.61	30071.20
589.77	30373.13
589.93	30024.39
590.08	30391.86
590.24	30213.98
590.40	30171.85
590.56	30525.27
590.72	30047.80
590.88	30033.75
591.04	30054.82
591.20	29993.97
591.35	30529.95
591.51	30654.00
591.67	30469.09
591.83	30871.67
591.99	30993.37
