SpectraSuite Data File
++++++++++++++++++++++++++++++++++++
Date: Fri Oct 18 13:57:55 GMT-05:00 2013
User: bianchi
Dark Spectrum Present: No
Reference Spectrum Present: No
Number of Sampled Component Spectra: 1
Spectrometers: USB2+H05261
Integration Time (usec): 50000 (USB2+H05261)
Spectra Averaged: 1 (USB2+H05261)
Boxcar Smoothing: 0 (USB2+H05261)
Correct for Electrical Dark: No (USB2+H05261)
Strobe/Lamp Enabled: No (USB2+H05261)
Correct for Detector Non-linearity: No (USB2+H05261)
Correct for Stray Light: No (USB2+H05261)
Number of Pixels in Processed Spectrum: 2048
>>>>>Begin Processed Spectral Data<<<<<
365.73	0.00
365.92	0.00
366.12	0.00
366.32	0.00
366.52	0.00
366.72	0.00
366.91	0.00
367.11	0.00
367.31	0.00
367.51	0.00
367.70	0.00
367.90	0.00
368.10	0.00
368.30	0.00
368.49	0.00
368.69	0.00
368.89	0.00
369.09	0.00
369.28	0.00
369.48	0.00
369.68	0.00
369.87	0.00
370.07	0.00
370.27	0.00
370.47	0.00
370.66	46.81
370.86	72.56
371.06	86.60
371.25	168.52
371.45	140.43
371.65	266.82
371.84	84.26
372.04	201.29
372.24	145.11
372.44	105.32
372.63	170.86
372.83	292.57
373.03	208.31
373.22	220.01
373.42	215.33
373.62	245.76
373.81	250.44
374.01	337.04
374.21	217.67
374.40	255.12
374.60	215.33
374.79	203.63
374.99	259.80
375.19	229.37
375.38	346.40
375.58	304.27
375.78	212.99
375.97	241.08
376.17	248.10
376.37	222.35
376.56	301.93
376.76	308.95
376.95	203.63
377.15	255.12
377.35	264.48
377.54	294.91
377.74	311.29
377.93	262.14
378.13	273.84
378.33	252.78
378.52	273.84
378.72	266.82
378.91	341.72
379.11	259.80
379.31	264.48
379.50	283.20
379.70	273.84
379.89	231.71
380.09	276.18
380.28	383.85
380.48	304.27
380.68	306.61
380.87	285.55
381.07	393.21
381.26	287.89
381.46	362.78
381.65	379.17
381.85	337.04
382.04	299.59
382.24	374.49
382.43	360.44
382.63	372.15
382.83	360.44
383.02	409.59
383.22	358.10
383.41	308.95
383.61	339.38
383.80	386.19
384.00	393.21
384.19	383.85
384.39	360.44
384.58	341.72
384.78	428.32
384.97	435.34
385.17	365.12
385.36	334.70
385.56	395.55
385.75	346.40
385.95	409.59
386.14	444.70
386.34	395.55
386.53	437.68
386.72	411.93
386.92	456.40
387.11	369.80
387.31	528.96
387.50	423.64
387.70	421.30
387.89	447.04
388.09	430.66
388.28	390.87
388.48	447.04
388.67	454.06
388.86	491.51
389.06	447.04
389.25	425.98
389.45	444.70
389.64	470.45
389.84	571.09
390.03	477.47
390.22	496.19
390.42	543.00
390.61	514.92
390.81	451.72
391.00	447.04
391.19	547.69
391.39	482.15
391.58	620.24
391.78	517.26
391.97	528.96
392.16	514.92
392.36	571.09
392.55	470.45
392.75	585.13
392.94	592.16
393.13	587.47
393.33	524.28
393.52	559.39
393.71	564.07
393.91	578.11
394.10	617.90
394.29	645.99
394.49	575.77
394.68	634.29
394.88	601.52
395.07	512.58
395.26	692.80
395.46	629.60
395.65	718.54
395.84	596.84
396.04	727.91
396.23	727.91
396.42	606.20
396.62	723.23
396.81	645.99
397.00	575.77
397.19	678.76
397.39	716.20
397.58	631.94
397.77	730.25
397.97	681.10
398.16	596.84
398.35	730.25
398.55	695.14
398.74	713.86
398.93	779.40
399.12	748.97
399.32	781.74
399.51	753.65
399.70	702.16
399.90	741.95
400.09	716.20
400.28	755.99
400.47	828.55
400.67	753.65
400.86	737.27
401.05	781.74
401.24	837.91
401.44	788.76
401.63	823.87
401.82	938.55
402.01	823.87
402.21	800.46
402.40	823.87
402.59	770.04
402.78	901.11
402.97	795.78
403.17	901.11
403.36	877.70
403.55	842.59
403.74	880.04
403.93	945.58
404.13	957.28
404.32	938.55
404.51	875.36
404.70	924.51
404.89	840.25
405.09	1015.79
405.28	933.87
405.47	1050.90
405.66	973.66
405.85	997.07
406.05	976.00
406.24	999.41
406.43	950.26
406.62	999.41
406.81	1022.81
407.00	1060.26
407.20	985.37
407.39	1025.15
407.58	1172.61
407.77	1081.33
407.96	1151.54
408.15	1165.59
408.34	1114.10
408.54	1036.86
408.73	1221.76
408.92	1111.75
409.11	1132.82
409.30	1203.04
409.49	1200.69
409.68	1170.27
409.87	1172.61
410.07	1053.24
410.26	1153.88
410.45	1188.99
410.64	1245.16
410.83	1301.34
411.02	1273.25
411.21	1184.31
411.40	1270.91
411.59	1343.47
411.78	1308.36
411.98	1369.21
412.17	1282.61
412.36	1434.75
412.55	1467.52
412.74	1446.45
412.93	1432.41
413.12	1331.76
413.31	1528.37
413.50	1495.60
413.69	1427.73
413.88	1533.05
414.07	1523.69
414.26	1535.39
414.45	1462.83
414.64	1502.62
414.83	1509.65
415.02	1568.16
415.22	1598.59
415.41	1673.48
415.60	1579.86
415.79	1645.40
415.98	1666.46
416.17	1699.23
416.36	1535.39
416.55	1696.89
416.74	1795.19
416.93	1633.69
417.12	1687.53
417.31	1692.21
417.50	1722.63
417.69	1727.32
417.88	1888.81
418.07	1809.23
418.26	1781.15
418.45	1713.27
418.64	1799.87
418.83	1785.83
419.02	1804.55
419.21	1963.71
419.39	1762.42
419.58	1860.73
419.77	1898.17
419.96	1970.73
420.15	1942.64
420.34	1961.37
420.53	1954.35
420.72	1966.05
420.91	1966.05
421.10	1952.01
421.29	1987.11
421.48	1879.45
421.67	1940.30
421.86	2022.22
422.05	2029.24
422.24	2045.63
422.43	1923.92
422.61	2059.67
422.80	2136.91
422.99	2005.84
423.18	2069.03
423.37	2087.76
423.56	2031.58
423.75	2019.88
423.94	2024.56
424.13	2015.20
424.32	2005.84
424.50	2085.42
424.69	2167.34
424.88	2076.06
425.07	2019.88
425.26	1982.43
425.45	2122.87
425.64	2099.46
425.83	2022.22
426.01	2047.97
426.20	2111.16
426.39	2101.80
426.58	2094.78
426.77	2092.44
426.96	2115.84
427.15	2040.95
427.33	2174.36
427.52	2267.98
427.71	2204.78
427.90	2291.38
428.09	2270.32
428.28	2223.51
428.46	2237.55
428.65	2298.41
428.84	2232.87
429.03	2373.30
429.22	2263.30
429.40	2361.60
429.59	2244.57
429.78	2242.23
429.97	2244.57
430.16	2256.28
430.34	2410.75
430.53	2293.72
430.72	2492.67
430.91	2396.71
431.10	2303.09
431.28	2373.30
431.47	2363.94
431.66	2410.75
431.85	2296.07
432.03	2520.76
432.22	2551.18
432.41	2382.67
432.60	2520.76
432.79	2560.55
432.97	2499.69
433.16	2534.80
433.35	2534.80
433.54	2574.59
433.72	2602.68
433.91	2583.95
434.10	2672.89
434.28	2530.12
434.47	2626.08
434.66	2586.29
434.85	2670.55
435.03	2619.06
435.22	2551.18
435.41	2808.64
435.59	2663.53
435.78	2773.53
435.97	2715.02
436.16	2682.25
436.34	2761.83
436.53	2834.39
436.72	2806.30
436.90	2731.41
437.09	2848.43
437.28	2710.34
437.46	2885.88
437.65	2825.03
437.84	2869.50
438.02	2918.65
438.21	2960.78
438.40	2860.13
438.58	2951.42
438.77	2918.65
438.96	2878.86
439.14	2850.77
439.33	3136.32
439.52	3019.29
439.70	3061.42
439.89	3171.43
440.08	3112.91
440.26	3089.51
440.45	3208.87
440.63	3225.26
440.82	3155.04
441.01	3061.42
441.19	3215.90
441.38	3328.24
441.57	3131.64
441.75	3180.79
441.94	3311.86
442.12	3330.58
442.31	3337.60
442.50	3349.31
442.68	3527.19
442.87	3449.95
443.05	3403.14
443.24	3555.27
443.43	3361.01
443.61	3332.92
443.80	3527.19
443.98	3288.45
444.17	3300.16
444.35	3372.71
444.54	3578.68
444.73	3538.89
444.91	3471.01
445.10	3571.66
445.28	3543.57
445.47	3431.23
445.65	3466.33
445.84	3529.53
446.02	3599.74
446.21	3459.31
446.39	3492.08
446.58	3730.81
446.77	3571.66
446.95	3508.46
447.14	3653.58
447.32	3566.98
447.51	3705.07
447.69	3641.87
447.88	3655.92
448.06	3534.21
448.25	3695.71
448.43	3595.06
448.62	3588.04
448.80	3506.12
448.99	3637.19
449.17	3791.67
449.36	3684.00
449.54	3684.00
449.73	3808.05
449.91	3789.33
450.10	3744.86
450.28	3899.33
450.46	3763.58
450.65	3873.59
450.83	3772.94
451.02	3852.52
451.20	3901.67
451.39	3805.71
451.57	3819.75
451.76	3789.33
451.94	3985.93
452.13	3985.93
452.31	4023.38
452.49	3939.12
452.68	4021.04
452.86	3920.40
453.05	3971.89
453.23	4131.05
453.42	3950.82
453.60	4044.45
453.78	3932.10
453.97	3964.87
454.15	4016.36
454.34	4159.13
454.52	4109.98
454.70	4128.70
454.89	4276.16
455.07	4145.09
455.26	4112.32
455.44	4161.47
455.62	4231.69
455.81	4191.90
455.99	4224.67
456.17	4191.90
456.36	4292.54
456.54	4290.20
456.73	4346.37
456.91	4456.38
457.09	4542.98
457.28	4533.62
457.46	4407.23
457.64	4421.27
457.83	4425.95
458.01	4486.81
458.19	4437.66
458.38	4449.36
458.56	4573.41
458.74	4521.92
458.93	4540.64
459.11	4500.85
459.29	4503.19
459.48	4482.13
459.66	4636.60
459.84	4561.70
460.03	4732.56
460.21	4652.98
460.39	4751.29
460.57	4620.22
460.76	4657.67
460.94	4716.18
461.12	4542.98
461.31	4634.26
461.49	4905.76
461.67	4720.86
461.85	5027.47
462.04	4968.96
462.22	5071.94
462.40	5039.17
462.59	5015.77
462.77	4711.50
462.95	4945.55
463.13	4865.97
463.32	4877.68
463.50	4957.25
463.68	4999.38
463.86	5029.81
464.05	4784.06
464.23	5008.75
464.41	5139.82
464.59	4931.51
464.78	5128.11
464.96	5146.84
465.14	5011.09
465.32	5097.69
465.50	5118.75
465.69	5144.50
465.87	5160.88
466.05	5135.14
466.23	5142.16
466.41	5151.52
466.60	5406.64
466.78	5153.86
466.96	5242.80
467.14	5057.90
467.32	5298.97
467.51	5238.12
467.69	5256.84
467.87	5376.21
468.05	5404.30
468.23	5378.55
468.41	5242.80
468.60	5500.26
468.78	5451.11
468.96	5336.42
469.14	5387.91
469.32	5434.72
469.50	5231.10
469.69	5556.43
469.87	5432.38
470.05	5509.62
470.23	5547.07
470.41	5544.73
470.59	5720.27
470.77	5514.30
470.95	5720.27
471.14	5771.76
471.32	5540.05
471.50	5710.91
471.68	5757.72
471.86	5841.98
472.04	5813.89
472.22	5902.83
472.40	5736.65
472.58	5830.27
472.77	5905.17
472.95	5970.71
473.13	6260.93
473.31	6010.50
473.49	5856.02
473.67	5951.98
473.85	6134.54
474.03	6225.82
474.21	6136.88
474.39	6120.50
474.57	6214.12
474.75	6267.95
474.93	6363.92
475.12	6270.30
475.30	6541.80
475.48	6469.24
475.66	6572.22
475.84	6359.24
476.02	6459.88
476.20	6485.62
476.38	6581.59
476.56	6712.66
476.74	6836.70
476.92	6647.12
477.10	6649.46
477.28	6963.09
477.46	6867.13
477.64	6878.83
477.82	6967.77
478.00	7192.47
478.18	7250.98
478.36	7131.61
478.54	7258.00
478.72	7325.88
478.90	7297.79
479.08	7548.23
479.26	7473.33
479.44	7410.14
479.62	7555.25
479.80	7686.32
479.98	7735.47
480.16	7815.05
480.34	7723.77
480.52	7843.14
480.70	8107.62
480.88	7777.60
481.06	8002.29
481.24	7922.71
481.41	7889.95
481.59	8093.57
481.77	8074.85
481.95	8446.99
482.13	8374.44
482.31	8276.13
482.49	8397.84
482.67	8580.40
482.85	8339.33
483.03	8730.20
483.21	8872.97
483.39	8985.32
483.57	8875.31
483.74	9011.06
483.92	9100.00
484.10	8990.00
484.28	9013.40
484.46	9434.70
484.64	9472.15
484.82	9275.54
485.00	9364.48
485.18	9586.83
485.35	9715.56
485.53	9687.48
485.71	9591.52
485.89	9825.57
486.07	9825.57
486.25	10019.83
486.43	9757.69
486.61	10202.40
486.78	10223.46
486.96	10244.52
487.14	10134.52
487.32	10567.52
487.50	10464.54
487.68	10532.41
487.85	10675.18
488.03	10665.82
488.21	10806.25
488.39	10843.70
488.57	10958.39
488.75	10970.09
488.92	11131.59
489.10	11023.92
489.28	11176.06
489.46	11206.48
489.64	11201.80
489.81	11651.19
489.99	11686.29
490.17	11819.71
490.35	11700.34
490.53	11929.71
490.70	11990.56
490.88	11936.73
491.06	12376.75
491.24	11995.25
491.41	12348.67
491.59	12409.52
491.77	12393.14
491.95	12491.44
492.13	12760.60
492.30	12524.21
492.48	12692.73
492.66	12704.43
492.84	12748.90
493.01	12849.54
493.19	13034.44
493.37	13008.70
493.54	13158.49
493.72	13399.57
493.90	13202.96
494.08	13380.84
494.25	13525.96
494.43	13530.64
494.61	13689.79
494.79	13729.58
494.96	13832.57
495.14	13956.61
495.32	14022.15
495.49	13982.36
495.67	13970.66
495.85	14314.72
496.02	14434.08
496.20	14441.11
496.38	14295.99
496.55	14384.93
496.73	14534.73
496.91	14284.29
497.09	14904.53
497.26	14956.02
497.44	14602.60
497.62	14836.66
497.79	15236.89
497.97	15080.07
498.14	15257.95
498.32	15328.17
498.50	15496.69
498.67	15276.68
498.85	15316.47
499.03	15616.05
499.20	15454.56
499.38	15681.59
499.56	15686.27
499.73	15845.43
499.91	15946.07
500.08	15857.13
500.26	15864.15
500.44	15868.83
500.61	15955.43
500.79	15899.26
500.97	16350.98
501.14	16446.94
501.32	16512.48
501.49	16346.30
501.67	16163.74
501.84	16423.54
502.02	16306.51
502.20	16599.08
502.37	16538.23
502.55	16533.54
502.72	16772.28
502.90	16980.59
503.07	16889.31
503.25	16645.89
503.43	16690.36
503.60	16936.12
503.78	17001.65
503.95	16903.35
504.13	17039.10
504.30	16954.84
504.48	17240.39
504.65	17373.80
504.83	17366.78
505.01	17331.67
505.18	17561.04
505.36	17977.65
505.53	17649.98
505.71	17582.10
505.88	17935.53
506.06	17823.18
506.23	17937.87
506.41	17734.24
506.58	17982.34
506.76	18108.72
506.93	18134.47
507.11	18207.03
507.28	18230.43
507.46	18356.82
507.63	18635.35
507.81	18384.91
507.98	18228.09
508.16	18448.10
508.33	18429.38
508.50	18487.89
508.68	18499.59
508.85	18593.22
509.03	18764.07
509.20	18623.64
509.38	19075.37
509.55	19094.09
509.73	18939.62
509.90	19122.18
510.08	18899.83
510.25	19019.19
510.42	18785.14
510.60	19297.72
510.77	19262.61
510.95	19421.77
511.12	19295.38
511.30	19513.05
511.47	19573.90
511.64	19508.37
511.82	19634.75
511.99	19496.66
512.17	19697.95
512.34	19667.52
512.51	19850.08
512.69	20042.01
512.86	19756.46
513.04	20128.61
513.21	20226.91
513.38	20149.67
513.56	19948.39
513.73	20128.61
513.90	20018.60
514.08	20177.76
514.25	20339.26
514.43	20449.26
514.60	20355.64
514.77	20292.44
514.95	20748.85
515.12	20528.84
515.29	20702.04
515.47	20409.47
515.64	20425.86
515.81	20627.14
515.99	21071.84
516.16	20968.86
516.33	21179.51
516.51	20971.20
516.68	21055.46
516.85	20795.66
517.03	20952.48
517.20	21226.32
517.37	21427.60
517.54	21422.92
517.72	21067.16
517.89	21142.06
518.06	21294.19
518.24	21296.53
518.41	21326.96
518.58	21326.96
518.75	21329.30
518.93	21589.10
519.10	21743.58
519.27	21635.91
519.45	21891.03
519.62	21958.91
519.79	21710.81
519.96	21652.30
520.14	22094.66
520.31	21909.75
520.48	22134.45
520.65	22017.42
520.83	22010.40
521.00	22211.68
521.17	22001.04
521.34	21844.22
521.52	22307.65
521.69	22225.73
521.86	22153.17
522.03	22691.49
522.20	22424.67
522.38	22576.81
522.55	22539.36
522.72	22522.98
522.89	22537.02
523.07	23173.64
523.24	22265.52
523.41	22799.16
523.58	22892.78
523.75	22656.39
523.92	23197.05
524.10	22890.44
524.27	22932.57
524.44	23370.25
524.61	23367.91
524.78	23452.17
524.96	23414.72
525.13	22946.61
525.30	23290.67
525.47	23147.90
525.64	23250.88
525.81	23508.34
525.98	23513.02
526.16	23431.10
526.33	23192.37
526.50	23562.17
526.67	23538.77
526.84	23665.16
527.01	23845.38
527.18	23901.55
527.36	23632.39
527.53	23836.02
527.70	23765.80
527.87	23969.43
528.04	23955.38
528.21	24098.16
528.38	24187.10
528.55	24531.15
528.72	24194.12
528.89	24156.67
529.07	24049.00
529.24	24144.97
529.41	24500.73
529.58	24027.94
529.75	24236.25
529.92	24500.73
530.09	24294.76
530.26	24219.86
530.43	24343.91
530.60	24556.90
530.77	24449.24
530.94	24664.57
531.11	24680.95
531.28	24168.37
531.46	24423.49
531.63	24851.81
531.80	25074.16
531.97	24723.08
532.14	25085.86
532.31	24863.51
532.48	24931.39
532.65	24889.26
532.82	24779.25
532.99	25104.59
533.16	25289.49
533.33	25591.42
533.50	25642.91
533.67	24692.65
533.84	25142.03
534.01	25127.99
534.18	25055.43
534.35	25528.22
534.52	25357.36
534.69	25619.50
534.86	25654.61
535.03	25380.77
535.20	25486.09
535.37	25404.17
535.54	25652.27
535.71	25624.18
535.88	25621.84
536.05	25633.55
536.22	25883.98
536.38	25947.18
536.55	26270.17
536.72	25769.30
536.89	25968.24
537.06	25701.42
537.23	26370.82
537.40	25834.83
537.57	26022.08
537.74	26211.66
537.91	25923.77
538.08	26359.11
538.25	26066.55
538.42	25893.35
538.59	26017.40
538.75	26160.17
538.92	26183.57
539.09	26394.22
539.26	26258.47
539.43	26698.49
539.60	26485.50
539.77	26436.35
539.94	26136.76
540.11	26209.32
540.28	26647.00
540.44	26436.35
540.61	26569.76
540.78	26387.20
540.95	26808.50
541.12	26534.65
541.29	26731.26
541.46	26504.23
541.62	26785.09
541.79	26951.27
541.96	26501.89
542.13	26579.12
542.30	26698.49
542.47	27131.49
542.63	26859.99
542.80	26852.97
542.97	27351.50
543.14	27243.84
543.31	26806.16
543.48	27349.16
543.64	27494.27
543.81	27459.16
543.98	27391.29
544.15	27513.00
544.32	27550.45
544.48	27679.18
544.65	27590.24
544.82	27566.83
544.99	27136.17
545.16	27482.57
545.32	27613.64
545.49	27702.58
545.66	28009.19
545.83	27964.72
546.00	27845.35
546.16	27803.22
546.33	27821.95
546.50	27241.50
546.67	27737.69
546.83	27592.58
547.00	27723.65
547.17	27971.74
547.34	27590.24
547.50	27843.01
547.67	28041.96
547.84	28301.76
548.00	28151.96
548.17	28032.60
548.34	27498.95
548.51	28210.48
548.67	28336.87
548.84	28238.56
549.01	28044.30
549.18	27943.66
549.34	28334.53
549.51	27981.10
549.68	28203.46
549.84	27957.70
550.01	28414.10
550.18	28086.43
550.34	28804.97
550.51	28507.72
550.68	28730.08
550.84	28617.73
551.01	28400.06
551.18	28297.08
551.34	28341.55
551.51	28217.50
551.68	28568.58
551.84	28713.69
552.01	28737.10
552.18	28699.65
552.34	28498.36
552.51	28790.93
552.68	28966.47
552.84	28591.98
553.01	29001.58
553.18	28545.17
553.34	28701.99
553.51	28678.58
553.67	29104.56
553.84	29137.33
554.01	28929.02
554.17	29266.06
554.34	29109.24
554.51	28701.99
554.67	29085.84
554.84	29046.05
555.00	28910.30
555.17	28978.17
555.33	29249.67
555.50	29214.57
555.67	29472.03
555.83	29317.55
556.00	29413.51
556.16	29841.83
556.33	29329.25
556.50	29329.25
556.66	29450.96
556.83	29268.40
556.99	29357.34
557.16	29479.05
557.32	29792.68
557.49	29544.58
557.65	29137.33
557.82	29455.64
557.98	29481.39
558.15	29542.24
558.32	29734.17
558.48	29315.21
558.65	29977.58
558.81	29729.48
558.98	29788.00
559.14	29144.35
559.31	29621.82
559.47	29773.95
559.64	29785.66
559.80	29443.94
559.97	30153.12
560.13	29596.07
560.30	29813.74
560.46	30197.59
560.63	30354.41
560.79	29762.25
560.96	29977.58
561.12	29607.78
561.29	29986.94
561.45	29703.74
561.61	30272.49
561.78	30092.27
561.94	30132.06
562.11	30272.49
562.27	29855.87
562.44	29902.68
562.60	29844.17
562.77	30157.80
562.93	29879.28
563.10	30483.14
563.26	29673.31
563.42	30630.59
563.59	30525.27
563.75	30291.21
563.92	30265.47
564.08	30253.76
564.24	30052.48
564.41	30291.21
564.57	30338.02
564.74	30574.42
564.90	30756.98
565.07	30347.39
565.23	30302.92
565.39	30581.44
565.56	30197.59
565.72	30153.12
565.88	30263.13
566.05	30176.53
566.21	30354.41
566.38	30410.58
566.54	30529.95
566.70	30497.18
566.87	30668.04
567.03	30539.31
567.19	30993.37
567.36	30221.00
567.52	30415.26
567.68	30307.60
567.85	30455.05
568.01	30110.99
568.17	30155.46
568.34	30417.60
568.50	30518.25
568.66	30389.52
568.83	30529.95
568.99	30431.65
569.15	30242.06
569.32	30785.07
569.48	30630.59
569.64	30735.92
569.81	30352.07
569.97	30600.16
570.13	30480.80
570.30	30429.30
570.46	30492.50
570.62	30675.06
570.78	30593.14
570.95	30597.82
571.11	30618.89
571.27	30574.42
571.43	30373.13
571.60	30366.11
571.76	30684.42
571.92	30728.89
572.09	30871.67
572.25	30668.04
572.41	30780.39
572.57	30981.67
572.74	31019.12
572.90	30586.12
573.06	30506.54
573.22	30693.79
573.38	30881.03
573.55	31178.28
573.71	31241.47
573.87	31124.44
574.03	30724.21
574.20	30799.11
574.36	30527.61
574.52	30745.28
574.68	30930.18
574.84	31138.49
575.01	30637.61
575.17	30625.91
575.33	30967.63
575.49	30679.74
575.65	30991.03
575.82	30738.26
575.98	30745.28
576.14	30747.62
576.30	30859.96
576.46	30913.80
576.62	30831.88
576.79	30824.86
576.95	30644.63
577.11	30991.03
577.27	30859.96
577.43	31211.04
577.59	31033.16
577.75	30761.66
577.92	30951.24
578.08	31159.55
578.24	30984.01
578.40	30778.04
578.56	31199.34
578.72	31119.76
578.88	30850.60
579.04	31049.55
579.21	30932.52
579.37	31087.00
579.53	30937.20
579.69	30625.91
579.85	31016.78
580.01	30948.90
580.17	30836.56
580.33	31182.96
580.49	31365.52
580.65	30974.65
580.82	31089.34
580.98	30824.86
581.14	30925.50
581.30	31056.57
581.46	30785.07
581.62	30735.92
581.78	30984.01
581.94	30874.01
582.10	30480.80
582.26	30871.67
582.42	31005.08
582.58	31070.61
582.74	30916.14
582.90	31159.55
583.06	31253.17
583.22	30979.33
583.38	30993.37
583.54	31576.17
583.70	31061.25
583.86	30969.97
584.02	31260.20
584.18	31292.96
584.34	31079.97
584.50	31246.15
584.66	30972.31
584.82	30895.07
584.98	31166.57
585.14	31077.63
585.30	30920.82
585.46	30717.19
585.62	31096.36
585.78	31337.43
585.94	31005.08
586.10	31295.30
586.26	31688.51
586.42	31622.98
586.58	31386.58
586.74	30986.35
586.90	30586.12
587.06	31173.60
587.22	31009.76
587.38	30969.97
587.54	30639.95
587.70	31510.63
587.86	31470.84
588.02	31749.37
588.18	31550.42
588.34	31220.41
588.49	31445.10
588.65	31110.40
588.81	31391.26
588.97	30848.26
589.13	31194.66
589.29	31208.70
589.45	31409.99
589.61	31393.61
589.77	31758.73
589.93	31512.97
590.08	31524.68
590.24	31314.03
590.40	31690.85
590.56	31735.32
590.72	31496.59
590.88	31166.57
591.04	31730.64
591.20	31882.78
591.35	31515.31
591.51	31915.54
591.67	31381.90
591.83	32037.25
591.99	31592.55
