SpectraSuite Data File
++++++++++++++++++++++++++++++++++++
Date: Fri Oct 18 13:58:26 GMT-05:00 2013
User: bianchi
Dark Spectrum Present: No
Reference Spectrum Present: No
Number of Sampled Component Spectra: 1
Spectrometers: USB2+H05261
Integration Time (usec): 50000 (USB2+H05261)
Spectra Averaged: 1 (USB2+H05261)
Boxcar Smoothing: 0 (USB2+H05261)
Correct for Electrical Dark: No (USB2+H05261)
Strobe/Lamp Enabled: No (USB2+H05261)
Correct for Detector Non-linearity: No (USB2+H05261)
Correct for Stray Light: No (USB2+H05261)
Number of Pixels in Processed Spectrum: 2048
>>>>>Begin Processed Spectral Data<<<<<
365.73	0.00
365.92	0.00
366.12	0.00
366.32	0.00
366.52	0.00
366.72	0.00
366.91	0.00
367.11	0.00
367.31	0.00
367.51	0.00
367.70	0.00
367.90	0.00
368.10	0.00
368.30	0.00
368.49	0.00
368.69	0.00
368.89	0.00
369.09	0.00
369.28	0.00
369.48	0.00
369.68	0.00
369.87	0.00
370.07	0.00
370.27	0.00
370.47	0.00
370.66	105.32
370.86	72.56
371.06	163.84
371.25	135.75
371.45	77.24
371.65	138.09
371.84	145.11
372.04	189.58
372.24	238.73
372.44	138.09
372.63	220.01
372.83	257.46
373.03	212.99
373.22	208.31
373.42	245.76
373.62	196.60
373.81	234.05
374.01	203.63
374.21	241.08
374.40	344.06
374.60	278.52
374.79	252.78
374.99	262.14
375.19	212.99
375.38	222.35
375.58	248.10
375.78	299.59
375.97	217.67
376.17	292.57
376.37	283.20
376.56	292.57
376.76	245.76
376.95	220.01
377.15	280.86
377.35	252.78
377.54	271.50
377.74	348.74
377.93	177.88
378.13	301.93
378.33	299.59
378.52	278.52
378.72	255.12
378.91	292.57
379.11	292.57
379.31	273.84
379.50	299.59
379.70	292.57
379.89	301.93
380.09	306.61
380.28	273.84
380.48	245.76
380.68	369.80
380.87	280.86
381.07	306.61
381.26	313.63
381.46	311.29
381.65	301.93
381.85	308.95
382.04	304.27
382.24	318.31
382.43	297.25
382.63	252.78
382.83	421.30
383.02	360.44
383.22	341.72
383.41	351.08
383.61	318.31
383.80	358.10
384.00	376.83
384.19	353.42
384.39	365.12
384.58	334.70
384.78	386.19
384.97	388.53
385.17	383.85
385.36	339.38
385.56	421.30
385.75	360.44
385.95	372.15
386.14	386.19
386.34	376.83
386.53	339.38
386.72	416.62
386.92	360.44
387.11	430.66
387.31	423.64
387.50	397.89
387.70	447.04
387.89	416.62
388.09	465.77
388.28	496.19
388.48	409.59
388.67	493.85
388.86	463.43
389.06	463.43
389.25	428.32
389.45	491.51
389.64	491.51
389.84	425.98
390.03	482.15
390.22	517.26
390.42	477.47
390.61	484.49
390.81	510.24
391.00	486.83
391.19	461.09
391.39	535.98
391.58	531.30
391.78	479.81
391.97	493.85
392.16	528.96
392.36	517.26
392.55	449.38
392.75	561.73
392.94	580.45
393.13	622.58
393.33	468.11
393.52	578.11
393.71	559.39
393.91	521.94
394.10	505.56
394.29	517.26
394.49	557.05
394.68	622.58
394.88	631.94
395.07	582.79
395.26	608.54
395.46	645.99
395.65	638.97
395.84	552.37
396.04	624.92
396.23	587.47
396.42	678.76
396.62	610.88
396.81	601.52
397.00	629.60
397.19	648.33
397.39	688.12
397.58	739.61
397.77	599.18
397.97	681.10
398.16	683.44
398.35	641.31
398.55	643.65
398.74	688.12
398.93	746.63
399.12	620.24
399.32	706.84
399.51	851.96
399.70	751.31
399.90	802.80
400.09	805.14
400.28	671.73
400.47	748.97
400.67	774.72
400.86	814.51
401.05	805.14
401.24	709.18
401.44	779.40
401.63	828.55
401.82	840.25
402.01	819.19
402.21	840.25
402.40	823.87
402.59	791.10
402.78	847.27
402.97	770.04
403.17	805.14
403.36	880.04
403.55	908.13
403.74	898.77
403.93	901.11
404.13	870.68
404.32	786.42
404.51	821.53
404.70	929.19
404.89	940.90
405.09	945.58
405.28	887.06
405.47	868.34
405.66	1008.77
405.85	924.51
406.05	950.26
406.24	961.96
406.43	1015.79
406.62	1078.99
406.81	1156.22
407.00	1067.28
407.20	961.96
407.39	1053.24
407.58	999.41
407.77	1090.69
407.96	1142.18
408.15	1057.92
408.34	1107.07
408.54	1078.99
408.73	1132.82
408.92	1179.63
409.11	1123.46
409.30	1167.93
409.49	1100.05
409.68	1156.22
409.87	1200.69
410.07	1130.48
410.26	1128.14
410.45	1130.48
410.64	1214.74
410.83	1242.82
411.02	1242.82
411.21	1245.16
411.40	1163.25
411.59	1198.35
411.78	1350.49
411.98	1188.99
412.17	1308.36
412.36	1177.29
412.55	1327.08
412.74	1401.98
412.93	1345.81
413.12	1336.45
413.31	1338.79
413.50	1401.98
413.69	1366.87
413.88	1495.60
414.07	1409.00
414.26	1455.81
414.45	1439.43
414.64	1462.83
414.83	1460.49
415.02	1418.36
415.22	1600.93
415.41	1589.22
415.60	1465.18
415.79	1530.71
415.98	1631.35
416.17	1605.61
416.36	1570.50
416.55	1554.12
416.74	1638.38
416.93	1638.38
417.12	1629.01
417.31	1631.35
417.50	1645.40
417.69	1818.60
417.88	1680.50
418.07	1776.47
418.26	1729.66
418.45	1839.66
418.64	1856.04
418.83	1727.32
419.02	1748.38
419.21	1717.95
419.39	1905.20
419.58	1902.86
419.77	1846.68
419.96	1820.94
420.15	1795.19
420.34	1839.66
420.53	1769.44
420.72	1966.05
420.91	1926.26
421.10	1881.79
421.29	1952.01
421.48	1942.64
421.67	1942.64
421.86	1989.46
422.05	1996.48
422.24	1895.83
422.43	1881.79
422.61	1912.22
422.80	2040.95
422.99	2008.18
423.18	2019.88
423.37	2036.27
423.56	1975.41
423.75	2008.18
423.94	1916.90
424.13	1966.05
424.32	1858.39
424.50	2047.97
424.69	2024.56
424.88	2076.06
425.07	1947.33
425.26	2001.16
425.45	2050.31
425.64	2045.63
425.83	2010.52
426.01	2125.21
426.20	2064.35
426.39	2111.16
426.58	2057.33
426.77	2036.27
426.96	2085.42
427.15	2143.93
427.33	2078.40
427.52	1973.07
427.71	2132.23
427.90	2211.81
428.09	2172.02
428.28	2111.16
428.46	2249.25
428.65	2216.49
428.84	2162.66
429.03	2272.66
429.22	2239.89
429.40	2270.32
429.59	2422.45
429.78	2200.10
429.97	2150.95
430.16	2232.87
430.34	2335.85
430.53	2408.41
430.72	2214.15
430.91	2251.60
431.10	2249.25
431.28	2410.75
431.47	2324.15
431.66	2457.56
431.85	2368.62
432.03	2530.12
432.22	2495.01
432.41	2399.05
432.60	2352.24
432.79	2312.45
432.97	2408.41
433.16	2471.61
433.35	2401.39
433.54	2523.10
433.72	2443.52
433.91	2394.37
434.10	2476.29
434.28	2605.02
434.47	2654.17
434.66	2607.36
434.85	2469.27
435.03	2619.06
435.22	2609.70
435.41	2628.42
435.59	2558.21
435.78	2661.19
435.97	2616.72
436.16	2644.81
436.34	2588.63
436.53	2656.51
436.72	2703.32
436.90	2726.72
437.09	2829.71
437.28	2679.91
437.46	2799.28
437.65	2717.36
437.84	2867.16
438.02	2778.22
438.21	2698.64
438.40	2881.20
438.58	2759.49
438.77	2890.56
438.96	2855.45
439.14	2911.63
439.33	3002.91
439.52	2869.50
439.70	2981.84
439.89	3021.63
440.08	3108.23
440.26	2965.46
440.45	3075.46
440.63	3197.17
440.82	3117.59
441.01	2937.37
441.19	3033.33
441.38	3122.27
441.57	3150.36
441.75	3178.45
441.94	3187.81
442.12	3304.84
442.31	3365.69
442.50	3288.45
442.68	3176.11
442.87	3279.09
443.05	3323.56
443.24	3421.86
443.43	3318.88
443.61	3445.27
443.80	3435.91
443.98	3302.50
444.17	3143.34
444.35	3197.17
444.54	3492.08
444.73	3620.81
444.91	3452.29
445.10	3494.42
445.28	3487.40
445.47	3389.10
445.65	3353.99
445.84	3459.31
446.02	3524.85
446.21	3449.95
446.39	3349.31
446.58	3555.27
446.77	3529.53
446.95	3471.01
447.14	3520.17
447.32	3503.78
447.51	3501.44
447.69	3459.31
447.88	3517.83
448.06	3562.30
448.25	3407.82
448.43	3440.59
448.62	3466.33
448.80	3473.36
448.99	3478.04
449.17	3681.66
449.36	3529.53
449.54	3585.70
449.73	3714.43
449.91	3751.88
450.10	3571.66
450.28	3702.73
450.46	3597.40
450.65	3658.26
450.83	3681.66
451.02	3749.54
451.20	3864.22
451.39	3810.39
451.57	3775.28
451.76	3669.96
451.94	3721.45
452.13	3988.27
452.31	3822.09
452.49	3639.53
452.68	3913.38
452.86	3929.76
453.05	3805.71
453.23	4119.34
453.42	3929.76
453.60	3871.25
453.78	3927.42
453.97	3892.31
454.15	3974.23
454.34	3990.61
454.52	4032.74
454.70	4128.70
454.89	4002.32
455.07	3932.10
455.26	3927.42
455.44	4109.98
455.62	4198.92
455.81	4133.39
455.99	4039.76
456.17	4180.20
456.36	4121.68
456.54	4271.48
456.73	4208.28
456.91	4290.20
457.09	4102.96
457.28	4411.91
457.46	4191.90
457.64	4337.01
457.83	4416.59
458.01	4273.82
458.19	4390.84
458.38	4418.93
458.56	4390.84
458.74	4400.21
458.93	4416.59
459.11	4442.34
459.29	4512.55
459.48	4395.53
459.66	4428.29
459.84	4636.60
460.03	4578.09
460.21	4622.56
460.39	4603.83
460.57	4519.57
460.76	4643.62
460.94	4739.58
461.12	4702.14
461.31	4503.19
461.49	4585.11
461.67	4732.56
461.85	4849.59
462.04	4704.48
462.22	4781.71
462.40	4643.62
462.59	4805.12
462.77	4650.64
462.95	4875.34
463.13	4896.40
463.32	4809.80
463.50	4683.41
463.68	4793.42
463.86	4950.23
464.05	4753.63
464.23	4896.40
464.41	5001.72
464.59	4727.88
464.78	5018.11
464.96	4915.12
465.14	4791.08
465.32	4901.08
465.50	5069.60
465.69	4964.28
465.87	4990.02
466.05	5060.24
466.23	4997.04
466.41	5149.18
466.60	5109.39
466.78	5013.43
466.96	4971.30
467.14	4987.68
467.32	5039.17
467.51	5114.07
467.69	5048.54
467.87	5198.33
468.05	5280.25
468.23	5198.33
468.41	5093.01
468.60	5078.96
468.78	5137.48
468.96	5160.88
469.14	5205.35
469.32	5221.74
469.50	5053.22
469.69	5331.74
469.87	5467.49
470.05	5308.34
470.23	5322.38
470.41	5231.10
470.59	5483.88
470.77	5401.96
470.95	5465.15
471.14	5472.17
471.32	5357.49
471.50	5643.03
471.68	5570.48
471.86	5441.75
472.04	5640.69
472.22	5762.40
472.40	5504.94
472.58	5678.14
472.77	5729.63
472.95	6017.52
473.13	5968.37
473.31	5834.96
473.49	5879.43
473.67	5818.57
473.85	5891.13
474.03	5830.27
474.21	5998.79
474.39	6052.63
474.57	5870.06
474.75	6085.39
474.93	6080.71
475.12	5984.75
475.30	6265.61
475.48	6188.38
475.66	6272.64
475.84	6410.73
476.02	6375.62
476.20	6300.72
476.38	6237.53
476.56	6696.27
476.74	6534.78
476.92	6396.68
477.10	6527.75
477.28	6740.74
477.46	6590.95
477.64	6682.23
477.82	6771.17
478.00	6846.07
478.18	6850.75
478.36	7096.50
478.54	7002.88
478.72	6867.13
478.90	7190.13
479.08	7089.48
479.26	7173.74
479.44	7325.88
479.62	7403.11
479.80	7447.58
479.98	7412.48
480.16	7660.57
480.34	7524.82
480.52	7700.36
480.70	7655.89
480.88	7606.74
481.06	7578.65
481.24	7581.00
481.41	7777.60
481.59	8131.02
481.77	7995.27
481.95	8112.30
482.13	8173.15
482.31	7992.93
482.49	8219.96
482.67	8322.94
482.85	8444.65
483.03	8404.86
483.21	8634.24
483.39	8451.67
483.57	8416.57
483.74	8678.71
483.92	8884.67
484.10	8723.18
484.28	8936.17
484.46	9004.04
484.64	9214.69
484.82	8947.87
485.00	8898.72
485.18	9315.33
485.35	9357.46
485.53	9224.05
485.71	9453.42
485.89	9577.47
486.07	9525.98
486.25	9692.16
486.43	9717.90
486.61	9804.50
486.78	9989.41
486.96	9996.43
487.14	9961.32
487.32	9877.06
487.50	9944.94
487.68	10061.96
487.85	10253.89
488.03	10319.42
488.21	10609.65
488.39	10490.28
488.57	10626.03
488.75	10731.36
488.92	10848.38
489.10	10684.55
489.28	10988.82
489.46	11138.61
489.64	11080.10
489.81	11309.47
489.99	11241.59
490.17	10981.79
490.35	11365.64
490.53	11599.70
490.70	11555.22
490.88	11693.32
491.06	11545.86
491.24	11653.53
491.41	11847.79
491.59	11920.35
491.77	11885.24
491.95	12032.69
492.13	11988.22
492.30	12301.86
492.48	12273.77
492.66	12325.26
492.84	12311.22
493.01	12594.42
493.19	12617.83
493.37	12606.13
493.54	12784.01
493.72	12938.48
493.90	12765.28
494.08	13043.81
494.25	13254.45
494.43	13055.51
494.61	12957.21
494.79	13329.35
494.96	13001.68
495.14	13664.05
495.32	13547.02
495.49	13540.00
495.67	13757.67
495.85	13743.63
496.02	13853.63
496.20	13989.38
496.38	13642.98
496.55	13834.91
496.73	14312.38
496.91	14183.65
497.09	14216.41
497.26	14427.06
497.44	14295.99
497.62	14611.96
497.79	14836.66
497.97	14380.25
498.14	14745.38
498.32	14640.05
498.50	14651.75
498.67	14927.94
498.85	14860.06
499.03	14789.85
499.20	14892.83
499.38	14958.36
499.56	14988.79
499.73	15161.99
499.91	15215.82
500.08	15297.74
500.26	15002.83
500.44	15358.60
500.61	15339.87
500.79	15496.69
500.97	15861.81
501.14	15639.46
501.32	15688.61
501.49	15686.27
501.67	15861.81
501.84	15894.58
502.02	15761.17
502.20	15967.13
502.37	16049.05
502.55	16088.84
502.72	16002.24
502.90	16287.79
503.07	16222.25
503.25	16147.36
503.43	16327.58
503.60	16252.68
503.78	16517.16
503.95	16470.35
504.13	16521.84
504.30	16673.98
504.48	16683.34
504.65	16725.47
504.83	16690.36
505.01	17092.93
505.18	16856.54
505.36	17104.64
505.53	16865.90
505.71	16753.55
505.88	17249.75
506.06	16868.24
506.23	17226.34
506.41	17507.21
506.58	17212.30
506.76	17158.47
506.93	17502.53
507.11	17184.21
507.28	17561.04
507.46	17165.49
507.63	17671.04
507.81	17844.24
507.98	17467.42
508.16	17874.67
508.33	17455.72
508.50	17989.36
508.68	17755.30
508.85	17980.00
509.03	18059.57
509.20	18239.79
509.38	18335.76
509.55	18366.18
509.73	18405.97
509.90	18228.09
510.08	18415.34
510.25	18153.20
510.42	18230.43
510.60	18370.86
510.77	18527.68
510.95	18925.57
511.12	18347.46
511.30	18572.15
511.47	18675.13
511.64	18586.19
511.82	19222.82
511.99	18951.32
512.17	18792.16
512.34	18829.61
512.51	19124.52
512.69	19325.80
512.86	19206.44
513.04	19456.87
513.21	19562.20
513.38	19515.39
513.56	19328.14
513.73	19278.99
513.90	19634.75
514.08	19161.97
514.25	19445.17
514.43	19704.97
514.60	19719.01
514.77	19761.14
514.95	20044.35
515.12	19658.16
515.29	19836.04
515.47	19896.89
515.64	19955.41
515.81	19981.15
515.99	20446.92
516.16	20357.98
516.33	20297.13
516.51	20545.22
516.68	20421.17
516.85	20322.87
517.03	20184.78
517.20	20212.87
517.37	20589.69
517.54	20800.34
517.72	20554.58
517.89	20540.54
518.06	20798.00
518.24	20585.01
518.41	20599.05
518.58	20905.66
518.75	20570.97
518.93	20790.98
519.10	20659.91
519.27	20774.60
519.45	20889.28
519.62	21046.10
519.79	20769.91
519.96	20666.93
520.14	21167.80
520.31	21067.16
520.48	21109.29
520.65	21228.66
520.83	21308.24
521.00	21081.21
521.17	21245.04
521.34	21097.59
521.52	21516.54
521.69	21668.68
521.86	21717.83
522.03	21549.31
522.20	21715.49
522.38	21638.25
522.55	21586.76
522.72	21792.73
522.89	21970.61
523.07	22113.38
523.24	21994.01
523.41	22080.61
523.58	21944.86
523.75	21942.52
523.92	22087.64
524.10	22223.39
524.27	22319.35
524.44	22256.15
524.61	22253.81
524.78	22190.62
524.96	22239.77
525.13	22464.46
525.30	22654.05
525.47	22153.17
525.64	22354.46
525.81	22726.60
525.98	23019.17
526.16	22438.72
526.33	22623.62
526.50	22862.35
526.67	22628.30
526.84	23012.15
527.01	22764.05
527.18	22815.54
527.36	22874.06
527.53	23166.62
527.70	23398.34
527.87	23447.49
528.04	22806.18
528.21	23145.56
528.38	22827.24
528.55	23403.02
528.72	23278.97
528.89	23342.16
529.07	23311.74
529.24	23363.23
529.41	23882.83
529.58	23632.39
529.75	23300.03
529.92	23587.92
530.09	23555.15
530.26	23513.02
530.43	23800.91
530.60	23180.67
530.77	23578.56
530.94	23763.46
531.11	23489.62
531.28	23637.07
531.46	23786.86
531.63	23960.06
531.80	23587.92
531.97	24313.48
532.14	24025.60
532.31	24044.32
532.48	23915.59
532.65	24201.14
532.82	24159.01
532.99	24276.04
533.16	24355.61
533.33	24049.00
533.50	24692.65
533.67	24531.15
533.84	24084.11
534.01	24451.58
534.18	24442.21
534.35	24510.09
534.52	24629.46
534.69	24477.32
534.86	24512.43
535.03	24297.10
535.20	24510.09
535.37	24622.44
535.54	24711.38
535.71	24114.54
535.88	24671.59
536.05	24418.81
536.22	24842.45
536.38	24781.59
536.55	25139.69
536.72	24800.32
536.89	24606.05
537.06	24734.78
537.23	24978.20
537.40	25015.65
537.57	24807.34
537.74	25408.86
537.91	25371.41
538.08	25289.49
538.25	25130.33
538.42	25212.25
538.59	25294.17
538.75	25106.93
538.92	25123.31
539.09	25350.34
539.26	25329.28
539.43	25481.41
539.60	25266.08
539.77	25741.21
539.94	25453.33
540.11	25582.06
540.28	25521.20
540.44	25221.61
540.61	25635.89
540.78	25628.87
540.95	25301.19
541.12	25743.55
541.29	25605.46
541.46	25649.93
541.62	25432.26
541.79	25458.01
541.96	25404.17
542.13	25809.09
542.30	25874.62
542.47	25886.32
542.63	26036.12
542.80	26398.90
542.97	25933.14
543.14	26429.33
543.31	25647.59
543.48	25769.30
543.64	26705.51
543.81	26333.37
543.98	26632.96
544.15	26321.66
544.32	26424.65
544.48	26300.60
544.65	26148.46
544.82	26525.29
544.99	26492.52
545.16	26340.39
545.32	26284.22
545.49	26754.66
545.66	26948.93
545.83	26803.82
546.00	26703.17
546.16	26644.66
546.33	26529.97
546.50	26389.54
546.67	26913.82
546.83	26356.77
547.00	26845.94
547.17	26927.86
547.34	26333.37
547.50	26773.39
547.67	26684.45
547.84	26977.01
548.00	27302.35
548.17	26972.33
548.34	26862.33
548.51	27000.42
548.67	26871.69
548.84	27084.68
549.01	27122.13
549.18	27136.17
549.34	27276.60
549.51	27234.47
549.68	27278.94
549.84	27133.83
550.01	26991.06
550.18	26918.50
550.34	27346.82
550.51	27112.77
550.68	27431.08
550.84	27178.30
551.01	27290.65
551.18	27253.20
551.34	27271.92
551.51	27213.41
551.68	27110.43
551.84	27513.00
552.01	27655.77
552.18	27569.17
552.34	27534.06
552.51	27461.51
552.68	27489.59
552.84	27878.12
553.01	27454.48
553.18	27477.89
553.34	27793.86
553.51	28032.60
553.67	28140.26
553.84	27969.40
554.01	27756.41
554.17	27974.08
554.34	27716.62
554.51	27889.82
554.67	27784.50
554.84	27758.75
555.00	28025.57
555.17	27946.00
555.33	27995.15
555.50	28058.34
555.67	28009.19
555.83	27967.06
556.00	27768.12
556.16	28407.08
556.33	28034.94
556.50	28252.61
556.66	28369.63
556.83	28271.33
556.99	28606.03
557.16	28540.49
557.32	28716.03
557.49	28386.02
557.65	28329.84
557.82	28545.17
557.98	28222.18
558.15	28439.85
558.32	28386.02
558.48	28320.48
558.65	28500.70
558.81	28409.42
558.98	28423.47
559.14	28580.28
559.31	28477.30
559.47	28463.25
559.64	28137.92
559.80	28865.83
559.97	28751.14
560.13	28449.21
560.30	28573.26
560.46	28081.75
560.63	28460.91
560.79	28411.76
560.96	28746.46
561.12	28599.01
561.29	28538.15
561.45	28868.17
561.61	28889.23
561.78	28552.20
561.94	28870.51
562.11	28673.90
562.27	29013.28
562.44	28746.46
562.60	28540.49
562.77	28706.67
562.93	28655.18
563.10	29008.60
563.26	28872.85
563.42	29076.48
563.59	28788.59
563.75	28835.40
563.92	28699.65
564.08	28861.15
564.24	28865.83
564.41	28936.04
564.57	28828.38
564.74	28989.88
564.90	28952.43
565.07	28975.83
565.23	28992.22
565.39	28849.44
565.56	29048.39
565.72	29333.93
565.88	29134.99
566.05	28680.92
566.21	28793.27
566.38	29036.69
566.54	28903.28
566.70	29156.05
566.87	29376.06
567.03	29383.09
567.19	29523.52
567.36	29228.61
567.52	29319.89
567.68	29032.00
567.85	29202.86
568.01	29507.13
568.17	29184.14
568.34	29528.20
568.50	29071.79
568.66	29156.05
568.83	29273.08
568.99	29336.27
569.15	29207.55
569.32	28919.66
569.48	28678.58
569.64	29532.88
569.81	29481.39
569.97	29481.39
570.13	29422.87
570.30	29263.72
570.46	29076.48
570.62	29570.33
570.78	28905.62
570.95	29186.48
571.11	29415.85
571.27	29151.37
571.43	29338.62
571.60	29151.37
571.76	29284.78
571.92	29633.52
572.09	29237.97
572.25	29289.46
572.41	29362.02
572.57	29804.38
572.74	29469.69
572.90	29282.44
573.06	29172.44
573.22	29425.22
573.38	29207.55
573.55	29373.72
573.71	29376.06
573.87	29329.25
574.03	29013.28
574.20	29795.02
574.36	29174.78
574.52	29570.33
574.68	29572.67
574.84	29436.92
575.01	29556.28
575.17	29621.82
575.33	29352.66
575.49	29322.23
575.65	29715.44
575.82	29876.94
575.98	29331.59
576.14	29666.29
576.30	29516.50
576.46	29516.50
576.62	29443.94
576.79	29755.23
576.95	29446.28
577.11	30150.78
577.27	29635.86
577.43	29811.40
577.59	29624.16
577.75	29699.06
577.92	29235.63
578.08	29331.59
578.24	29235.63
578.40	29479.05
578.56	29685.01
578.72	29738.85
578.88	29598.41
579.04	29874.60
579.21	29563.31
579.37	29806.72
579.53	29567.99
579.69	29942.47
579.85	29235.63
580.01	29415.85
580.17	29350.32
580.33	29766.93
580.49	29310.53
580.65	29855.87
580.82	29682.67
580.98	29563.31
581.14	29675.65
581.30	29928.43
581.46	29689.70
581.62	29558.63
581.78	29493.09
581.94	29551.60
582.10	29336.27
582.26	29745.87
582.42	29902.68
582.58	29514.16
582.74	30092.27
582.90	29741.19
583.06	29855.87
583.22	29979.92
583.38	29654.59
583.54	29628.84
583.70	29575.01
583.86	30047.80
584.02	29631.18
584.18	30115.67
584.34	29888.64
584.50	30071.20
584.66	29951.84
584.82	29429.90
584.98	29579.69
585.14	29715.44
585.30	29605.44
585.46	29668.63
585.62	29642.88
585.78	29769.27
585.94	29902.68
586.10	29851.19
586.26	29827.79
586.42	29993.97
586.58	29961.20
586.74	29663.95
586.90	29582.03
587.06	29385.43
587.22	29699.06
587.38	29780.98
587.54	29923.75
587.70	29855.87
587.86	29954.18
588.02	30260.79
588.18	30366.11
588.34	29940.13
588.49	30082.91
588.65	29656.93
588.81	29965.88
588.97	29682.67
589.13	29696.72
589.29	29530.54
589.45	29972.90
589.61	30164.82
589.77	30057.16
589.93	30314.62
590.08	30469.09
590.24	30487.82
590.40	30391.86
590.56	29867.58
590.72	29851.19
590.88	30089.93
591.04	30396.54
591.20	30272.49
591.35	29865.24
591.51	30153.12
591.67	30370.79
591.83	30101.63
591.99	30347.39
