SpectraSuite Data File
++++++++++++++++++++++++++++++++++++
Date: Fri Oct 18 13:57:54 GMT-05:00 2013
User: bianchi
Dark Spectrum Present: No
Reference Spectrum Present: No
Number of Sampled Component Spectra: 1
Spectrometers: USB2+H05261
Integration Time (usec): 50000 (USB2+H05261)
Spectra Averaged: 1 (USB2+H05261)
Boxcar Smoothing: 0 (USB2+H05261)
Correct for Electrical Dark: No (USB2+H05261)
Strobe/Lamp Enabled: No (USB2+H05261)
Correct for Detector Non-linearity: No (USB2+H05261)
Correct for Stray Light: No (USB2+H05261)
Number of Pixels in Processed Spectrum: 2048
>>>>>Begin Processed Spectral Data<<<<<
365.73	0.00
365.92	0.00
366.12	0.00
366.32	0.00
366.52	0.00
366.72	0.00
366.91	0.00
367.11	0.00
367.31	0.00
367.51	0.00
367.70	0.00
367.90	0.00
368.10	0.00
368.30	0.00
368.49	0.00
368.69	0.00
368.89	0.00
369.09	0.00
369.28	0.00
369.48	0.00
369.68	0.00
369.87	0.00
370.07	0.00
370.27	0.00
370.47	0.00
370.66	142.77
370.86	182.56
371.06	147.45
371.25	180.22
371.45	67.88
371.65	163.84
371.84	147.45
372.04	147.45
372.24	145.11
372.44	124.05
372.63	208.31
372.83	227.03
373.03	201.29
373.22	128.73
373.42	189.58
373.62	266.82
373.81	220.01
374.01	287.89
374.21	224.69
374.40	196.60
374.60	236.39
374.79	234.05
374.99	220.01
375.19	250.44
375.38	184.90
375.58	196.60
375.78	217.67
375.97	245.76
376.17	234.05
376.37	322.99
376.56	262.14
376.76	299.59
376.95	280.86
377.15	304.27
377.35	299.59
377.54	283.20
377.74	332.36
377.93	292.57
378.13	287.89
378.33	276.18
378.52	355.76
378.72	353.42
378.91	290.23
379.11	318.31
379.31	348.74
379.50	360.44
379.70	250.44
379.89	299.59
380.09	266.82
380.28	217.67
380.48	313.63
380.68	332.36
380.87	308.95
381.07	337.04
381.26	299.59
381.46	308.95
381.65	304.27
381.85	365.12
382.04	318.31
382.24	367.46
382.43	344.06
382.63	341.72
382.83	388.53
383.02	393.21
383.22	346.40
383.41	433.00
383.61	414.27
383.80	306.61
384.00	386.19
384.19	287.89
384.39	360.44
384.58	313.63
384.78	362.78
384.97	411.93
385.17	428.32
385.36	367.46
385.56	306.61
385.75	339.38
385.95	278.52
386.14	442.36
386.34	411.93
386.53	421.30
386.72	468.11
386.92	440.02
387.11	393.21
387.31	435.34
387.50	475.13
387.70	404.91
387.89	440.02
388.09	421.30
388.28	407.25
388.48	456.40
388.67	454.06
388.86	423.64
389.06	505.56
389.25	500.87
389.45	543.00
389.64	517.26
389.84	489.17
390.03	423.64
390.22	489.17
390.42	479.81
390.61	470.45
390.81	423.64
391.00	498.53
391.19	496.19
391.39	498.53
391.58	435.34
391.78	505.56
391.97	493.85
392.16	496.19
392.36	559.39
392.55	622.58
392.75	489.17
392.94	496.19
393.13	622.58
393.33	587.47
393.52	510.24
393.71	620.24
393.91	510.24
394.10	573.43
394.29	561.73
394.49	524.28
394.68	578.11
394.88	622.58
395.07	540.66
395.26	594.50
395.46	606.20
395.65	645.99
395.84	653.01
396.04	638.97
396.23	596.84
396.42	760.67
396.62	655.35
396.81	685.78
397.00	711.52
397.19	664.71
397.39	603.86
397.58	704.50
397.77	706.84
397.97	720.88
398.16	744.29
398.35	765.36
398.55	732.59
398.74	786.42
398.93	678.76
399.12	709.18
399.32	678.76
399.51	706.84
399.70	830.89
399.90	709.18
400.09	758.33
400.28	744.29
400.47	751.31
400.67	816.85
400.86	854.30
401.05	823.87
401.24	748.97
401.44	786.42
401.63	861.32
401.82	828.55
402.01	739.61
402.21	802.80
402.40	814.51
402.59	936.21
402.78	814.51
402.97	866.00
403.17	926.85
403.36	842.59
403.55	807.48
403.74	884.72
403.93	896.43
404.13	938.55
404.32	931.53
404.51	910.47
404.70	961.96
404.89	950.26
405.09	961.96
405.28	936.21
405.47	1025.15
405.66	1071.97
405.85	964.30
406.05	1036.86
406.24	1043.88
406.43	1027.50
406.62	983.02
406.81	1116.44
407.00	1013.45
407.20	994.73
407.39	1004.09
407.58	1050.90
407.77	990.05
407.96	1071.97
408.15	999.41
408.34	1006.43
408.54	1083.67
408.73	1146.86
408.92	1163.25
409.11	1146.86
409.30	1181.97
409.49	1214.74
409.68	1156.22
409.87	1203.04
410.07	1217.08
410.26	1217.08
410.45	1242.82
410.64	1254.53
410.83	1207.72
411.02	1310.70
411.21	1343.47
411.40	1289.64
411.59	1371.55
411.78	1315.38
411.98	1469.86
412.17	1320.06
412.36	1373.89
412.55	1423.05
412.74	1366.87
412.93	1364.53
413.12	1397.30
413.31	1404.32
413.50	1399.64
413.69	1465.18
413.88	1504.96
414.07	1523.69
414.26	1427.73
414.45	1516.67
414.64	1500.28
414.83	1540.07
415.02	1570.50
415.22	1579.86
415.41	1460.49
415.60	1497.94
415.79	1610.29
415.98	1603.27
416.17	1598.59
416.36	1607.95
416.55	1682.85
416.74	1760.08
416.93	1612.63
417.12	1673.48
417.31	1727.32
417.50	1610.29
417.69	1858.39
417.88	1755.40
418.07	1675.82
418.26	1783.49
418.45	1720.29
418.64	1832.64
418.83	1877.11
419.02	1853.70
419.21	1846.68
419.39	1872.43
419.58	1799.87
419.77	1842.00
419.96	1860.73
420.15	1839.66
420.34	1776.47
420.53	1872.43
420.72	1886.47
420.91	2003.50
421.10	2106.48
421.29	1926.26
421.48	1907.54
421.67	2022.22
421.86	1937.96
422.05	2012.86
422.24	1968.39
422.43	2090.10
422.61	1935.62
422.80	2019.88
422.99	2066.69
423.18	2040.95
423.37	2092.44
423.56	2022.22
423.75	2167.34
423.94	2019.88
424.13	1900.52
424.32	1928.60
424.50	2001.16
424.69	2010.52
424.88	2143.93
425.07	2054.99
425.26	2179.04
425.45	1991.80
425.64	2050.31
425.83	2052.65
426.01	2153.29
426.20	1975.41
426.39	2101.80
426.58	2087.76
426.77	2108.82
426.96	2092.44
427.15	2111.16
427.33	2104.14
427.52	2267.98
427.71	2207.13
427.90	2134.57
428.09	2202.44
428.28	2197.76
428.46	2239.89
428.65	2394.37
428.84	2174.36
429.03	2317.13
429.22	2127.55
429.40	2275.00
429.59	2305.43
429.78	2181.38
429.97	2256.28
430.16	2157.97
430.34	2326.49
430.53	2417.77
430.72	2363.94
430.91	2385.01
431.10	2335.85
431.28	2401.39
431.47	2408.41
431.66	2420.11
431.85	2300.75
432.03	2555.86
432.22	2497.35
432.41	2480.97
432.60	2424.80
432.79	2408.41
432.97	2443.52
433.16	2593.31
433.35	2490.33
433.54	2588.63
433.72	2656.51
433.91	2621.40
434.10	2630.76
434.28	2513.74
434.47	2612.04
434.66	2553.52
434.85	2684.59
435.03	2747.79
435.22	2579.27
435.41	2628.42
435.59	2665.87
435.78	2768.85
435.97	2637.78
436.16	2796.94
436.34	2719.70
436.53	2724.38
436.72	2815.66
436.90	2677.57
437.09	2785.24
437.28	2754.81
437.46	2764.17
437.65	2775.88
437.84	2857.79
438.02	2787.58
438.21	2778.22
438.40	2754.81
438.58	3038.02
438.77	2874.18
438.96	2867.16
439.14	3009.93
439.33	3002.91
439.52	3152.70
439.70	3117.59
439.89	3033.33
440.08	3103.55
440.26	3014.61
440.45	3136.32
440.63	3068.44
440.82	3204.19
441.01	3166.74
441.19	3260.37
441.38	3255.69
441.57	3386.76
441.75	3220.58
441.94	3377.39
442.12	3267.39
442.31	3382.07
442.50	3288.45
442.68	3389.10
442.87	3363.35
443.05	3262.71
443.24	3588.04
443.43	3449.95
443.61	3445.27
443.80	3485.06
443.98	3407.82
444.17	3379.73
444.35	3414.84
444.54	3609.11
444.73	3485.06
444.91	3552.93
445.10	3421.86
445.28	3508.46
445.47	3480.38
445.65	3499.10
445.84	3566.98
446.02	3669.96
446.21	3545.91
446.39	3389.10
446.58	3634.85
446.77	3531.87
446.95	3389.10
447.14	3552.93
447.32	3702.73
447.51	3473.36
447.69	3751.88
447.88	3618.47
448.06	3482.72
448.25	3611.45
448.43	3585.70
448.62	3597.40
448.80	3634.85
448.99	3602.08
449.17	3625.49
449.36	3716.77
449.54	3641.87
449.73	3775.28
449.91	3901.67
450.10	3651.24
450.28	3892.31
450.46	3845.50
450.65	3749.54
450.83	3765.92
451.02	3936.78
451.20	3871.25
451.39	3901.67
451.57	3861.88
451.76	3845.50
451.94	4044.45
452.13	3908.69
452.31	3896.99
452.49	3854.86
452.68	3901.67
452.86	3974.23
453.05	4002.32
453.23	4044.45
453.42	3950.82
453.60	3913.38
453.78	4002.32
453.97	4028.06
454.15	3943.80
454.34	4105.30
454.52	4065.51
454.70	4032.74
454.89	4011.68
455.07	4184.88
455.26	4114.66
455.44	4177.86
455.62	4322.97
455.81	4248.07
455.99	4159.13
456.17	4086.58
456.36	4205.94
456.54	4280.84
456.73	4285.52
456.91	4278.50
457.09	4369.78
457.28	4365.10
457.46	4329.99
457.64	4421.27
457.83	4409.57
458.01	4456.38
458.19	4568.73
458.38	4411.91
458.56	4367.44
458.74	4498.51
458.93	4456.38
459.11	4475.10
459.29	4386.16
459.48	4514.89
459.66	4512.55
459.84	4564.04
460.03	4524.26
460.21	4505.53
460.39	4702.14
460.57	4575.75
460.76	4688.09
460.94	4667.03
461.12	4730.22
461.31	4660.01
461.49	4847.25
461.67	4713.84
461.85	4877.68
462.04	4704.48
462.22	5036.83
462.40	4943.21
462.59	4819.16
462.77	4765.33
462.95	4861.29
463.13	4926.83
463.32	4812.14
463.50	5015.77
463.68	4971.30
463.86	4894.06
464.05	4844.91
464.23	4997.04
464.41	5081.30
464.59	4798.10
464.78	5036.83
464.96	5069.60
465.14	5018.11
465.32	5057.90
465.50	5057.90
465.69	5088.32
465.87	5195.99
466.05	5118.75
466.23	5153.86
466.41	5160.88
466.60	5149.18
466.78	5085.98
466.96	5100.03
467.14	5184.29
467.32	5179.61
467.51	5390.25
467.69	5174.92
467.87	5198.33
468.05	5369.19
468.23	5235.78
468.41	5050.88
468.60	5322.38
468.78	5493.24
468.96	5132.79
469.14	5408.98
469.32	5291.95
469.50	5252.16
469.69	5490.90
469.87	5577.50
470.05	5509.62
470.23	5614.95
470.41	5544.73
470.59	5741.33
470.77	5467.49
470.95	5549.41
471.14	5823.25
471.32	5451.11
471.50	5827.93
471.68	5827.93
471.86	5612.60
472.04	5806.87
472.22	5767.08
472.40	5678.14
472.58	5839.64
472.77	5926.24
472.95	5937.94
473.13	6120.50
473.31	5949.64
473.49	6052.63
473.67	5959.00
473.85	6001.13
474.03	6331.15
474.21	6155.61
474.39	6080.71
474.57	6090.07
474.75	6328.81
474.93	6272.64
475.12	6221.14
475.30	6242.21
475.48	6188.38
475.66	6176.67
475.84	6396.68
476.02	6581.59
476.20	6342.85
476.38	6722.02
476.56	6700.95
476.74	6644.78
476.92	6782.87
477.10	6717.34
477.28	6757.13
477.46	6808.62
477.64	6785.21
477.82	6855.43
478.00	6991.18
478.18	7143.32
478.36	6967.77
478.54	7225.23
478.72	7253.32
478.90	7269.70
479.08	7265.02
479.26	7300.13
479.44	7382.05
479.62	7599.72
479.80	7602.06
479.98	7492.05
480.16	7852.50
480.34	7419.50
480.52	7676.96
480.70	7941.44
480.88	7768.24
481.06	7829.09
481.24	8013.99
481.41	8044.42
481.59	8016.33
481.77	8161.45
481.95	8297.20
482.13	8205.92
482.31	8170.81
482.49	8477.42
482.67	8297.20
482.85	8351.03
483.03	8580.40
483.21	8849.57
483.39	8730.20
483.57	8678.71
483.74	8858.93
483.92	8812.12
484.10	9039.15
484.28	8922.12
484.46	9451.08
484.64	9434.70
484.82	9142.13
485.00	9334.06
485.18	9547.05
485.35	9617.26
485.53	9647.69
485.71	9685.14
485.89	9760.03
486.07	10059.62
486.25	9865.36
486.43	9877.06
486.61	9926.21
486.78	10169.63
486.96	10150.90
487.14	10305.38
487.32	10160.27
487.50	10237.50
487.68	10373.25
487.85	10497.30
488.03	10693.91
488.21	10869.45
488.39	10604.97
488.57	10878.81
488.75	11183.08
488.92	11250.96
489.10	11021.58
489.28	10946.69
489.46	11314.15
489.64	11351.60
489.81	11440.54
489.99	11623.10
490.17	11693.32
490.35	11812.68
490.53	11941.41
490.70	11880.56
490.88	11850.13
491.06	12276.11
491.24	12011.63
491.41	12016.31
491.59	12147.38
491.77	12325.26
491.95	12320.58
492.13	12439.95
492.30	12458.67
492.48	12461.01
492.66	12706.77
492.84	12753.58
493.01	12709.11
493.19	12723.15
493.37	12802.73
493.54	13200.62
493.72	13170.19
493.90	13390.20
494.08	13404.25
494.25	13607.87
494.43	13439.36
494.61	13551.70
494.79	13558.72
494.96	13504.89
495.14	13802.14
495.32	13734.26
495.49	13921.51
495.67	14024.49
495.85	14083.00
496.02	14232.80
496.20	14354.51
496.38	14090.02
496.55	14328.76
496.73	14455.15
496.91	14420.04
497.09	14450.47
497.26	14813.25
497.44	14597.92
497.62	14616.65
497.79	14710.27
497.97	14658.78
498.14	14850.70
498.32	15115.18
498.50	15110.50
498.67	15419.45
498.85	15489.67
499.03	15431.15
499.20	15309.44
499.38	15452.22
499.56	15487.32
499.73	15616.05
499.91	15700.31
500.08	15763.51
500.26	15513.07
500.44	15817.34
500.61	15971.82
500.79	15946.07
500.97	16091.18
501.14	16060.76
501.32	16086.50
501.49	16053.73
501.67	16308.85
501.84	16163.74
502.02	16409.50
502.20	16358.00
502.37	16563.97
502.55	16374.39
502.72	16430.56
502.90	16669.30
503.07	16681.00
503.25	16798.02
503.43	16610.78
503.60	16795.68
503.78	17078.89
503.95	16959.52
504.13	16671.64
504.30	17252.09
504.48	17057.82
504.65	17366.78
504.83	17106.98
505.01	17334.01
505.18	17394.86
505.36	17621.89
505.53	17439.33
505.71	17429.97
505.88	17280.18
506.06	17486.14
506.23	17809.14
506.41	17743.60
506.58	17841.90
506.76	17818.50
506.93	17792.75
507.11	17804.46
507.28	17888.71
507.46	17877.01
507.63	18052.55
507.81	18221.07
507.98	17947.23
508.16	18080.64
508.33	18267.88
508.50	18272.56
508.68	18246.82
508.85	18558.11
509.03	18853.02
509.20	18574.49
509.38	18820.25
509.55	18558.11
509.73	18705.56
509.90	18869.40
510.08	18714.92
510.25	18714.92
510.42	18806.20
510.60	18958.34
510.77	19096.43
510.95	19138.56
511.12	19063.66
511.30	19391.34
511.47	19138.56
511.64	19171.33
511.82	19690.93
511.99	19300.06
512.17	19480.28
512.34	19517.73
512.51	19393.68
512.69	19637.09
512.86	19501.34
513.04	19758.80
513.21	20042.01
513.38	19854.76
513.56	20098.18
513.73	20023.28
513.90	19861.79
514.08	19878.17
514.25	20084.14
514.43	20283.08
514.60	20252.66
514.77	20219.89
514.95	20084.14
515.12	20112.22
515.29	20294.79
515.47	20446.92
515.64	20699.70
515.81	20175.42
515.99	20575.65
516.16	21158.44
516.33	20886.94
516.51	20510.11
516.68	20900.98
516.85	20479.69
517.03	21172.49
517.20	21055.46
517.37	21233.34
517.54	21160.78
517.72	21167.80
517.89	20947.79
518.06	21355.05
518.24	20732.47
518.41	21151.42
518.58	21254.40
518.75	21174.83
518.93	21415.90
519.10	21207.59
519.27	21692.08
519.45	21415.90
519.62	21427.60
519.79	21717.83
519.96	21572.72
520.14	21656.98
520.31	22043.17
520.48	21647.61
520.65	21603.14
520.83	22139.13
521.00	21528.25
521.17	22061.89
521.34	21965.93
521.52	22136.79
521.69	22012.74
521.86	22436.38
522.03	22457.44
522.20	22403.61
522.38	22640.00
522.55	22515.95
522.72	22759.37
522.89	22754.69
523.07	22618.94
523.24	22469.14
523.41	22852.99
523.58	22443.40
523.75	22487.87
523.92	22621.28
524.10	22864.69
524.27	22862.35
524.44	23068.32
524.61	23133.86
524.78	23168.96
524.96	23005.13
525.13	22768.73
525.30	23070.66
525.47	22972.36
525.64	23037.89
525.81	22991.08
525.98	23342.16
526.16	23346.84
526.33	23161.94
526.50	23559.83
526.67	23592.60
526.84	23585.58
527.01	23440.47
527.18	23648.77
527.36	23515.36
527.53	23655.79
527.70	24121.56
527.87	23812.61
528.04	23700.26
528.21	24105.18
528.38	23679.20
528.55	24114.54
528.72	23931.98
528.89	23931.98
529.07	23941.34
529.24	23906.23
529.41	24070.07
529.58	24151.99
529.75	24037.30
529.92	24325.19
530.09	24088.79
530.26	24416.47
530.43	24243.27
530.60	23978.79
530.77	24203.48
530.94	24641.16
531.11	24346.25
531.28	24180.07
531.46	24610.73
531.63	24601.37
531.80	24446.90
531.97	24716.06
532.14	24737.12
532.31	24739.46
532.48	24486.68
532.65	24727.76
532.82	24711.38
532.99	25123.31
533.16	24973.52
533.33	24877.55
533.50	25240.34
533.67	24940.75
533.84	24662.22
534.01	24786.27
534.18	24779.25
534.35	24982.88
534.52	24755.85
534.69	25132.67
534.86	25261.40
535.03	25598.44
535.20	25118.63
535.37	25296.51
535.54	25432.26
535.71	25102.25
535.88	25783.34
536.05	25179.48
536.22	25535.24
536.38	25759.94
536.55	25694.40
536.72	25818.45
536.89	25680.36
537.06	25319.92
537.23	25701.42
537.40	25886.32
537.57	25736.53
537.74	25909.73
537.91	26078.25
538.08	26038.46
538.25	26078.25
538.42	25846.54
538.59	25755.26
538.75	25717.81
538.92	26300.60
539.09	25979.95
539.26	25736.53
539.43	26183.57
539.60	26036.12
539.77	25956.54
539.94	26274.85
540.11	26228.04
540.28	26651.68
540.44	26089.95
540.61	26448.05
540.78	26169.53
540.95	26490.18
541.12	26349.75
541.29	26546.36
541.46	26405.92
541.62	26258.47
541.79	26094.63
541.96	26134.42
542.13	26316.98
542.30	26548.70
542.47	26726.58
542.63	26253.79
542.80	26918.50
542.97	27080.00
543.14	27033.19
543.31	26595.51
543.48	26930.20
543.64	27138.51
543.81	27145.53
543.98	27307.03
544.15	27435.76
544.32	27372.57
544.48	27718.96
544.65	27300.01
544.82	27080.00
544.99	27161.92
545.16	27129.15
545.32	27377.25
545.49	27578.53
545.66	27634.71
545.83	27281.28
546.00	27634.71
546.16	27466.19
546.33	27124.47
546.50	27370.22
546.67	27346.82
546.83	27131.49
547.00	27356.18
547.17	27751.73
547.34	27644.07
547.50	27761.09
547.67	27882.80
547.84	27796.20
548.00	28044.30
548.17	28149.62
548.34	27686.20
548.51	27936.63
548.67	28194.09
548.84	27910.89
549.01	27985.79
549.18	27826.63
549.34	27924.93
549.51	27840.67
549.68	28301.76
549.84	27475.55
550.01	28100.47
550.18	28070.04
550.34	28226.86
550.51	28418.78
550.68	27810.25
550.84	27896.85
551.01	27927.27
551.18	27775.14
551.34	27838.33
551.51	28154.30
551.68	28175.37
551.84	28556.88
552.01	28570.92
552.18	28793.27
552.34	28367.29
552.51	28779.23
552.68	28505.38
552.84	28301.76
553.01	28325.16
553.18	28233.88
553.34	28709.01
553.51	28591.98
553.67	28453.89
553.84	28992.22
554.01	28669.22
554.17	28744.12
554.34	28912.64
554.51	29067.11
554.67	29008.60
554.84	28556.88
555.00	28929.02
555.17	28844.76
555.33	28945.41
555.50	28886.89
555.67	28854.12
555.83	29209.89
556.00	28973.49
556.16	29275.42
556.33	28706.67
556.50	29039.03
556.66	29359.68
556.83	29242.65
556.99	29446.28
557.16	29266.06
557.32	29362.02
557.49	29256.70
557.65	29268.40
557.82	29111.58
557.98	29209.89
558.15	29291.80
558.32	28765.18
558.48	29338.62
558.65	29158.39
558.81	29607.78
558.98	29191.16
559.14	29626.50
559.31	28975.83
559.47	29399.47
559.64	29411.17
559.80	29408.83
559.97	29495.43
560.13	29336.27
560.30	29692.04
560.46	29769.27
560.63	29715.44
560.79	29516.50
560.96	29677.99
561.12	29493.09
561.29	29467.34
561.45	29546.92
561.61	29528.20
561.78	29921.41
561.94	29902.68
562.11	29560.97
562.27	29373.72
562.44	29497.77
562.60	29869.92
562.77	29617.14
562.93	29708.42
563.10	29928.43
563.26	30024.39
563.42	30188.23
563.59	29949.50
563.75	29982.26
563.92	29626.50
564.08	29692.04
564.24	29745.87
564.41	29766.93
564.57	30167.16
564.74	29670.97
564.90	30040.78
565.07	30164.82
565.23	30092.27
565.39	29811.40
565.56	30071.20
565.72	30291.21
565.88	30106.31
566.05	29982.26
566.21	29989.28
566.38	29619.48
566.54	30122.69
566.70	29907.37
566.87	30082.91
567.03	30099.29
567.19	30312.28
567.36	30328.66
567.52	29879.28
567.68	30206.95
567.85	29902.68
568.01	30146.10
568.17	29825.45
568.34	30251.42
568.50	30373.13
568.66	30682.08
568.83	30349.73
568.99	30412.92
569.15	30438.67
569.32	29949.50
569.48	30019.71
569.64	30314.62
569.81	30188.23
569.97	30178.87
570.13	30382.49
570.30	30150.78
570.46	30143.76
570.62	30429.30
570.78	30230.36
570.95	30157.80
571.11	30129.72
571.27	30082.91
571.43	29954.18
571.60	30433.99
571.76	30244.40
571.92	30326.32
572.09	30221.00
572.25	30494.84
572.41	30209.29
572.57	30675.06
572.74	30590.80
572.90	30347.39
573.06	30436.33
573.22	30448.03
573.38	30438.67
573.55	30181.21
573.71	30941.88
573.87	30490.16
574.03	30576.76
574.20	30806.13
574.36	30242.06
574.52	30338.02
574.68	30342.70
574.84	30291.21
575.01	30403.56
575.17	30522.93
575.33	30391.86
575.49	30314.62
575.65	30644.63
575.82	30911.46
575.98	30492.50
576.14	30569.74
576.30	30384.83
576.46	30869.33
576.62	30192.91
576.79	30499.52
576.95	30263.13
577.11	30974.65
577.27	30710.17
577.43	31122.10
577.59	30515.90
577.75	30693.79
577.92	30382.49
578.08	30462.07
578.24	30347.39
578.40	30457.39
578.56	30555.69
578.72	30417.60
578.88	30895.07
579.04	30995.71
579.21	30501.86
579.37	30712.51
579.53	30583.78
579.69	30890.39
579.85	30789.75
580.01	31222.75
580.17	30431.65
580.33	30735.92
580.49	30698.47
580.65	30862.30
580.82	30890.39
580.98	30735.92
581.14	30555.69
581.30	30955.93
581.46	31171.25
581.62	30754.64
581.78	30431.65
581.94	31047.21
582.10	30429.30
582.26	30855.28
582.42	30796.77
582.58	30845.92
582.74	30749.96
582.90	30803.79
583.06	30862.30
583.22	31030.82
583.38	30883.37
583.54	30651.66
583.70	30829.54
583.86	30775.70
584.02	31098.70
584.18	30752.30
584.34	30878.69
584.50	31105.72
584.66	30838.90
584.82	30560.37
584.98	30532.29
585.14	30668.04
585.30	30534.63
585.46	30803.79
585.62	30810.81
585.78	31094.02
585.94	30792.09
586.10	30771.02
586.26	30871.67
586.42	30955.93
586.58	30939.54
586.74	30951.24
586.90	30576.76
587.06	30965.29
587.22	30892.73
587.38	30735.92
587.54	31103.38
587.70	30981.67
587.86	31105.72
588.02	30862.30
588.18	31257.85
588.34	31049.55
588.49	30740.60
588.65	30607.19
588.81	30962.95
588.97	31295.30
589.13	30614.21
589.29	30745.28
589.45	31309.35
589.61	30993.37
589.77	31138.49
589.93	31330.41
590.08	31438.08
590.24	31103.38
590.40	31613.62
590.56	31400.63
590.72	31236.79
590.88	31126.78
591.04	31433.39
591.20	31271.90
591.35	31676.81
591.51	31594.89
591.67	31634.68
591.83	31433.39
