SpectraSuite Data File
++++++++++++++++++++++++++++++++++++
Date: Fri Oct 18 13:58:01 GMT-05:00 2013
User: bianchi
Dark Spectrum Present: No
Reference Spectrum Present: No
Number of Sampled Component Spectra: 1
Spectrometers: USB2+H05261
Integration Time (usec): 50000 (USB2+H05261)
Spectra Averaged: 1 (USB2+H05261)
Boxcar Smoothing: 0 (USB2+H05261)
Correct for Electrical Dark: No (USB2+H05261)
Strobe/Lamp Enabled: No (USB2+H05261)
Correct for Detector Non-linearity: No (USB2+H05261)
Correct for Stray Light: No (USB2+H05261)
Number of Pixels in Processed Spectrum: 2048
>>>>>Begin Processed Spectral Data<<<<<
365.73	0.00
365.92	0.00
366.12	0.00
366.32	0.00
366.52	0.00
366.72	0.00
366.91	0.00
367.11	0.00
367.31	0.00
367.51	0.00
367.70	0.00
367.90	0.00
368.10	0.00
368.30	0.00
368.49	0.00
368.69	0.00
368.89	0.00
369.09	0.00
369.28	0.00
369.48	0.00
369.68	0.00
369.87	0.00
370.07	0.00
370.27	0.00
370.47	0.00
370.66	63.19
370.86	110.01
371.06	114.69
371.25	159.16
371.45	135.75
371.65	91.28
371.84	79.58
372.04	149.79
372.24	131.07
372.44	182.56
372.63	212.99
372.83	245.76
373.03	210.65
373.22	182.56
373.42	196.60
373.62	273.84
373.81	138.09
374.01	184.90
374.21	250.44
374.40	222.35
374.60	245.76
374.79	264.48
374.99	196.60
375.19	248.10
375.38	227.03
375.58	205.97
375.78	234.05
375.97	304.27
376.17	287.89
376.37	287.89
376.56	259.80
376.76	301.93
376.95	276.18
377.15	315.97
377.35	334.70
377.54	201.29
377.74	283.20
377.93	283.20
378.13	369.80
378.33	369.80
378.52	215.33
378.72	283.20
378.91	252.78
379.11	322.99
379.31	299.59
379.50	301.93
379.70	299.59
379.89	259.80
380.09	292.57
380.28	318.31
380.48	294.91
380.68	222.35
380.87	245.76
381.07	397.89
381.26	264.48
381.46	255.12
381.65	301.93
381.85	301.93
382.04	409.59
382.24	266.82
382.43	348.74
382.63	355.76
382.83	381.51
383.02	346.40
383.22	395.55
383.41	388.53
383.61	332.36
383.80	351.08
384.00	393.21
384.19	341.72
384.39	339.38
384.58	334.70
384.78	325.33
384.97	358.10
385.17	470.45
385.36	332.36
385.56	365.12
385.75	430.66
385.95	362.78
386.14	397.89
386.34	379.17
386.53	449.38
386.72	358.10
386.92	442.36
387.11	425.98
387.31	383.85
387.50	458.74
387.70	454.06
387.89	397.89
388.09	409.59
388.28	437.68
388.48	437.68
388.67	449.38
388.86	463.43
389.06	493.85
389.25	498.53
389.45	472.79
389.64	369.80
389.84	505.56
390.03	458.74
390.22	517.26
390.42	484.49
390.61	468.11
390.81	475.13
391.00	454.06
391.19	444.70
391.39	479.81
391.58	500.87
391.78	418.96
391.97	557.05
392.16	596.84
392.36	566.41
392.55	610.88
392.75	538.32
392.94	524.28
393.13	610.88
393.33	596.84
393.52	543.00
393.71	594.50
393.91	580.45
394.10	636.63
394.29	613.22
394.49	592.16
394.68	601.52
394.88	627.26
395.07	641.31
395.26	688.12
395.46	552.37
395.65	730.25
395.84	660.03
396.04	674.07
396.23	664.71
396.42	564.07
396.62	664.71
396.81	681.10
397.00	704.50
397.19	634.29
397.39	648.33
397.58	688.12
397.77	664.71
397.97	709.18
398.16	758.33
398.35	711.52
398.55	699.82
398.74	688.12
398.93	748.97
399.12	706.84
399.32	795.78
399.51	744.29
399.70	699.82
399.90	713.86
400.09	744.29
400.28	809.83
400.47	727.91
400.67	725.57
400.86	833.23
401.05	737.27
401.24	835.57
401.44	889.40
401.63	812.17
401.82	821.53
402.01	774.72
402.21	748.97
402.40	863.66
402.59	819.19
402.78	777.06
402.97	873.02
403.17	917.49
403.36	847.27
403.55	880.04
403.74	870.68
403.93	947.92
404.13	898.77
404.32	891.74
404.51	870.68
404.70	849.61
404.89	1034.52
405.09	947.92
405.28	922.17
405.47	896.43
405.66	933.87
405.85	973.66
406.05	1018.13
406.24	1046.22
406.43	994.73
406.62	966.64
406.81	1067.28
407.00	940.90
407.20	1039.20
407.39	1062.60
407.58	1015.79
407.77	966.64
407.96	1022.81
408.15	1034.52
408.34	1001.75
408.54	1109.41
408.73	1102.39
408.92	1109.41
409.11	1107.07
409.30	1137.50
409.49	1123.46
409.68	1093.03
409.87	1158.57
410.07	1205.38
410.26	1200.69
410.45	1210.06
410.64	1170.27
410.83	1172.61
411.02	1240.48
411.21	1156.22
411.40	1214.74
411.59	1277.93
411.78	1308.36
411.98	1327.08
412.17	1294.32
412.36	1275.59
412.55	1306.02
412.74	1289.64
412.93	1343.47
413.12	1387.94
413.31	1411.34
413.50	1357.51
413.69	1385.60
413.88	1465.18
414.07	1434.75
414.26	1486.24
414.45	1439.43
414.64	1427.73
414.83	1530.71
415.02	1558.80
415.22	1514.33
415.41	1572.84
415.60	1535.39
415.79	1516.67
415.98	1540.07
416.17	1561.14
416.36	1596.25
416.55	1617.31
416.74	1624.33
416.93	1614.97
417.12	1680.50
417.31	1736.68
417.50	1678.16
417.69	1774.13
417.88	1675.82
418.07	1720.29
418.26	1739.02
418.45	1652.42
418.64	1884.13
418.83	1909.88
419.02	1764.76
419.21	1837.32
419.39	1816.26
419.58	1926.26
419.77	1818.60
419.96	2008.18
420.15	1856.04
420.34	1755.40
420.53	1844.34
420.72	1968.39
420.91	1975.41
421.10	1933.28
421.29	1926.26
421.48	1959.03
421.67	2026.90
421.86	1877.11
422.05	2022.22
422.24	1907.54
422.43	1989.46
422.61	1963.71
422.80	2108.82
422.99	1975.41
423.18	2012.86
423.37	2083.08
423.56	1921.58
423.75	2059.67
423.94	1956.69
424.13	1827.96
424.32	1902.86
424.50	2008.18
424.69	2157.97
424.88	2122.87
425.07	2092.44
425.26	2026.90
425.45	1928.60
425.64	2104.14
425.83	1991.80
426.01	2141.59
426.20	2040.95
426.39	2064.35
426.58	2040.95
426.77	2087.76
426.96	2221.17
427.15	2169.68
427.33	2146.27
427.52	2050.31
427.71	2108.82
427.90	2115.84
428.09	2232.87
428.28	2087.76
428.46	2195.42
428.65	2209.47
428.84	2303.09
429.03	2326.49
429.22	2148.61
429.40	2300.75
429.59	2232.87
429.78	2195.42
429.97	2160.31
430.16	2223.51
430.34	2352.24
430.53	2289.04
430.72	2298.41
430.91	2263.30
431.10	2256.28
431.28	2361.60
431.47	2300.75
431.66	2462.24
431.85	2359.26
432.03	2406.07
432.22	2431.82
432.41	2354.58
432.60	2420.11
432.79	2417.77
432.97	2410.75
433.16	2399.05
433.35	2445.86
433.54	2443.52
433.72	2469.27
433.91	2478.63
434.10	2593.31
434.28	2485.65
434.47	2581.61
434.66	2644.81
434.85	2700.98
435.03	2689.28
435.22	2569.91
435.41	2672.89
435.59	2623.74
435.78	2597.99
435.97	2677.57
436.16	2693.96
436.34	2640.12
436.53	2696.30
436.72	2775.88
436.90	2733.75
437.09	2822.69
437.28	2658.85
437.46	2684.59
437.65	2705.66
437.84	2752.47
438.02	2677.57
438.21	2944.39
438.40	2787.58
438.58	2923.33
438.77	2839.07
438.96	2799.28
439.14	2937.37
439.33	2937.37
439.52	3012.27
439.70	2925.67
439.89	3122.27
440.08	3089.51
440.26	3162.06
440.45	3133.98
440.63	3047.38
440.82	3192.49
441.01	3164.40
441.19	3141.00
441.38	3309.52
441.57	3272.07
441.75	3164.40
441.94	3178.45
442.12	3309.52
442.31	3375.05
442.50	3236.96
442.68	3281.43
442.87	3386.76
443.05	3353.99
443.24	3332.92
443.43	3421.86
443.61	3522.51
443.80	3534.21
443.98	3316.54
444.17	3361.01
444.35	3501.44
444.54	3473.36
444.73	3538.89
444.91	3515.48
445.10	3433.57
445.28	3447.61
445.47	3557.61
445.65	3452.29
445.84	3496.76
446.02	3604.42
446.21	3485.06
446.39	3414.84
446.58	3674.64
446.77	3590.38
446.95	3522.51
447.14	3557.61
447.32	3478.04
447.51	3461.65
447.69	3520.17
447.88	3737.84
448.06	3459.31
448.25	3693.37
448.43	3609.11
448.62	3548.25
448.80	3616.13
448.99	3613.79
449.17	3700.39
449.36	3660.60
449.54	3578.68
449.73	3658.26
449.91	3712.09
450.10	3761.24
450.28	3779.97
450.46	3686.34
450.65	3686.34
450.83	3798.69
451.02	3911.04
451.20	3976.57
451.39	3735.50
451.57	3850.18
451.76	3812.73
451.94	3744.86
452.13	3981.25
452.31	3997.64
452.49	3784.65
452.68	3990.61
452.86	3796.35
453.05	3955.51
453.23	3953.16
453.42	3908.69
453.60	3927.42
453.78	3789.33
453.97	4011.68
454.15	4053.81
454.34	3922.74
454.52	4018.70
454.70	4074.87
454.89	4124.02
455.07	3929.76
455.26	4128.70
455.44	4159.13
455.62	4058.49
455.81	4156.79
455.99	4086.58
456.17	4117.00
456.36	4117.00
456.54	4255.09
456.73	4231.69
456.91	4163.81
457.09	4346.37
457.28	4344.03
457.46	4308.93
457.64	4440.00
457.83	4306.59
458.01	4311.27
458.19	4559.36
458.38	4358.08
458.56	4477.44
458.74	4463.40
458.93	4367.44
459.11	4435.32
459.29	4344.03
459.48	4465.74
459.66	4428.29
459.84	4596.81
460.03	4465.74
460.21	4498.51
460.39	4533.62
460.57	4542.98
460.76	4578.09
460.94	4739.58
461.12	4793.42
461.31	4613.20
461.49	4678.73
461.67	4582.77
461.85	4798.10
462.04	4678.73
462.22	4901.08
462.40	4781.71
462.59	4901.08
462.77	4713.84
462.95	4821.50
463.13	4697.46
463.32	4905.76
463.50	4901.08
463.68	4781.71
463.86	4807.46
464.05	4929.17
464.23	4891.72
464.41	5004.07
464.59	4765.33
464.78	4968.96
464.96	4966.62
465.14	4933.85
465.32	5057.90
465.50	5067.26
465.69	4994.70
465.87	4968.96
466.05	4978.32
466.23	5181.95
466.41	4952.57
466.60	5156.20
466.78	4997.04
466.96	5013.43
467.14	5242.80
467.32	5071.94
467.51	5116.41
467.69	4992.36
467.87	5085.98
468.05	5165.56
468.23	4840.23
468.41	5151.52
468.60	5195.99
468.78	5235.78
468.96	5256.84
469.14	5221.74
469.32	5331.74
469.50	5135.14
469.69	5310.68
469.87	5472.17
470.05	5509.62
470.23	5451.11
470.41	5350.46
470.59	5416.00
470.77	5483.88
470.95	5507.28
471.14	5497.92
471.32	5427.70
471.50	5582.18
471.68	5577.50
471.86	5708.57
472.04	5776.44
472.22	5813.89
472.40	5696.86
472.58	5699.20
472.77	5827.93
472.95	5846.66
473.13	6197.74
473.31	5809.21
473.49	5816.23
473.67	5947.30
473.85	6005.81
474.03	6076.03
474.21	5947.30
474.39	6104.12
474.57	5951.98
474.75	6031.56
474.93	6071.35
475.12	6249.23
475.30	6162.63
475.48	6298.38
475.66	6408.39
475.84	6242.21
476.02	6569.88
476.20	6502.01
476.38	6497.33
476.56	6555.84
476.74	6553.50
476.92	6420.09
477.10	6415.41
477.28	6534.78
477.46	6637.76
477.64	6693.93
477.82	6895.22
478.00	6946.71
478.18	7115.23
478.36	6963.09
478.54	7052.03
478.72	7035.65
478.90	7253.32
479.08	7122.25
479.26	7220.55
479.44	7365.67
479.62	7323.54
479.80	7466.31
479.98	7384.39
480.16	7517.80
480.34	7400.77
480.52	7545.89
480.70	7719.09
480.88	7602.06
481.06	7810.37
481.24	7805.69
481.41	7861.86
481.59	8046.76
481.77	8131.02
481.95	7896.97
482.13	8116.98
482.31	8189.53
482.49	8259.75
482.67	8241.03
482.85	8341.67
483.03	8444.65
483.21	8662.32
483.39	8713.81
483.57	8547.64
483.74	8685.73
483.92	8924.46
484.10	8650.62
484.28	9027.45
484.46	8812.12
484.64	9041.49
484.82	8901.06
485.00	9111.71
485.18	9366.82
485.35	9355.12
485.53	9437.04
485.71	9380.87
485.89	9701.52
486.07	9378.53
486.25	9633.64
486.43	9631.30
486.61	9841.95
486.78	9977.70
486.96	9893.44
487.14	10190.69
487.32	10244.52
487.50	10223.46
487.68	10274.95
487.85	10221.12
488.03	10532.41
488.21	10504.32
488.39	10796.89
488.57	10696.25
488.75	10721.99
488.92	11000.52
489.10	10956.05
489.28	11157.33
489.46	11070.73
489.64	11040.31
489.81	11222.87
489.99	11276.70
490.17	11246.27
490.35	11602.04
490.53	11452.24
490.70	11644.17
490.88	11878.22
491.06	11744.81
491.24	11943.75
491.41	11929.71
491.59	11962.48
491.77	11988.22
491.95	12147.38
492.13	12201.21
492.30	12248.02
492.48	12379.09
492.66	12322.92
492.84	12383.77
493.01	12603.78
493.19	12571.02
493.37	12861.24
493.54	12823.80
493.72	12706.77
493.90	12798.05
494.08	13081.25
494.25	13128.06
494.43	13172.54
494.61	13305.95
494.79	13453.40
494.96	13708.52
495.14	13600.85
495.32	13678.09
495.49	13540.00
495.67	13701.50
495.85	13806.82
496.02	13907.46
496.20	14022.15
496.38	14090.02
496.55	14319.40
496.73	14200.03
496.91	14281.95
497.09	14452.81
497.26	14494.94
497.44	14300.67
497.62	14501.96
497.79	14766.44
497.97	14513.66
498.14	14757.08
498.32	14871.76
498.50	15016.88
498.67	14984.11
498.85	15080.07
499.03	14956.02
499.20	14855.38
499.38	15367.96
499.56	15410.09
499.73	15522.43
499.91	15602.01
500.08	15604.35
500.26	15094.11
500.44	15564.56
500.61	15658.18
500.79	15597.33
500.97	15775.21
501.14	15927.35
501.32	15667.55
501.49	15859.47
501.67	15990.54
501.84	15833.72
502.02	15747.12
502.20	16287.79
502.37	16123.95
502.55	16486.73
502.72	16086.50
502.90	16210.55
503.07	16205.87
503.25	16556.95
503.43	16238.64
503.60	16533.54
503.78	16580.36
503.95	16393.11
504.13	16833.13
504.30	16711.42
504.48	16971.22
504.65	16879.94
504.83	16910.37
505.01	17420.61
505.18	17132.72
505.36	17156.13
505.53	16886.97
505.71	17418.27
505.88	17177.19
506.06	17214.64
506.23	17277.83
506.41	17479.12
506.58	17577.42
506.76	17493.16
506.93	17621.89
507.11	17530.61
507.28	17542.32
507.46	17439.33
507.63	17830.20
507.81	17996.38
507.98	17996.38
508.16	17900.42
508.33	18010.42
508.50	17947.23
508.68	17940.21
508.85	18167.24
509.03	18279.58
509.20	18370.86
509.38	18429.38
509.55	18780.46
509.73	18302.99
509.90	18405.97
510.08	18628.32
510.25	18478.53
510.42	18565.13
510.60	18576.83
510.77	19117.50
510.95	19009.83
511.12	18815.57
511.30	18518.32
511.47	19007.49
511.64	18906.85
511.82	19007.49
511.99	19239.20
512.17	19042.60
512.34	19295.38
512.51	19339.85
512.69	19447.51
512.86	19426.45
513.04	19625.39
513.21	19461.55
513.38	19482.62
513.56	19674.54
513.73	19318.78
513.90	19377.30
514.08	19325.80
514.25	19880.51
514.43	19988.18
514.60	19782.21
514.77	19927.32
514.95	20112.22
515.12	19864.13
515.29	19618.37
515.47	19929.66
515.64	20130.95
515.81	20311.17
515.99	20393.09
516.16	20582.67
516.33	20430.54
516.51	20500.75
516.68	20285.42
516.85	20297.13
517.03	20411.81
517.20	20601.40
517.37	20879.92
517.54	20538.20
517.72	20645.87
517.89	21015.67
518.06	20655.23
518.24	20697.36
518.41	20819.07
518.58	21294.19
518.75	21146.74
518.93	20783.96
519.10	20929.07
519.27	21118.65
519.45	21291.85
519.62	21034.39
519.79	20884.60
519.96	21095.25
520.14	21451.01
520.31	21317.60
520.48	21392.50
520.65	21425.26
520.83	21514.20
521.00	21483.78
521.17	21434.63
521.34	21429.94
521.52	21563.36
521.69	21804.43
521.86	21575.06
522.03	22228.07
522.20	21867.63
522.38	21984.65
522.55	21844.22
522.72	21937.84
522.89	22127.42
523.07	22309.99
523.24	22431.69
523.41	22366.16
523.58	22134.45
523.75	22338.07
523.92	22127.42
524.10	22546.38
524.27	22415.31
524.44	22670.43
524.61	22394.25
524.78	22565.10
524.96	22546.38
525.13	22862.35
525.30	22415.31
525.47	22349.78
525.64	22632.98
525.81	22955.97
525.98	22955.97
526.16	22939.59
526.33	23194.71
526.50	23564.51
526.67	22993.42
526.84	23367.91
527.01	23171.30
527.18	23094.07
527.36	22899.80
527.53	23374.93
527.70	23597.28
527.87	23461.53
528.04	23503.66
528.21	23410.04
528.38	23248.54
528.55	23351.52
528.72	22991.08
528.89	23520.04
529.07	23700.26
529.24	23646.43
529.41	23517.70
529.58	23611.32
529.75	23412.38
529.92	23819.63
530.09	23679.20
530.26	23840.70
530.43	23915.59
530.60	23920.28
530.77	23992.83
530.94	24175.39
531.11	23857.08
531.28	24063.05
531.46	23777.50
531.63	23800.91
531.80	24226.89
531.97	24259.65
532.14	24163.69
532.31	24051.34
532.48	24292.42
532.65	24348.59
532.82	24088.79
532.99	24238.59
533.16	24343.91
533.33	24648.18
533.50	24833.08
533.67	24449.24
533.84	24435.19
534.01	24627.12
534.18	24718.40
534.35	25230.98
534.52	24430.51
534.69	24800.32
534.86	24828.40
535.03	24723.08
535.20	25233.32
535.37	24844.79
535.54	24945.43
535.71	24636.48
535.88	24844.79
536.05	24905.64
536.22	25167.78
536.38	25200.55
536.55	25228.63
536.72	25350.34
536.89	24893.94
537.06	25074.16
537.23	25448.64
537.40	25230.98
537.57	25249.70
537.74	25120.97
537.91	25549.29
538.08	25729.51
538.25	25486.09
538.42	25556.31
538.59	25364.39
538.75	25411.20
538.92	25600.78
539.09	25511.84
539.26	25458.01
539.43	25535.24
539.60	25507.16
539.77	25118.63
539.94	25886.32
540.11	25734.19
540.28	25954.20
540.44	25851.22
540.61	25762.28
540.78	25558.65
540.95	25926.11
541.12	25921.43
541.29	25886.32
541.46	25703.76
541.62	25872.28
541.79	26066.55
541.96	25490.77
542.13	25869.94
542.30	25996.33
542.47	26508.91
542.63	25972.92
542.80	26204.64
542.97	26513.59
543.14	26642.32
543.31	26431.67
543.48	26052.50
543.64	26586.15
543.81	26700.83
543.98	26389.54
544.15	26607.21
544.32	26874.03
544.48	27211.07
544.65	26717.22
544.82	26590.83
544.99	26831.90
545.16	26941.91
545.32	26370.82
545.49	26937.23
545.66	27061.27
545.83	27070.64
546.00	26958.29
546.16	26888.07
546.33	26881.05
546.50	26775.73
546.67	27234.47
546.83	26986.38
547.00	26871.69
547.17	26955.95
547.34	27002.76
547.50	27080.00
547.67	27517.68
547.84	27374.91
548.00	27194.68
548.17	27651.09
548.34	27112.77
548.51	27644.07
548.67	27562.15
548.84	27285.97
549.01	27295.33
549.18	27227.45
549.34	27391.29
549.51	27599.60
549.68	27564.49
549.84	27274.26
550.01	27569.17
550.18	27688.54
550.34	27522.36
550.51	27503.64
550.68	28067.70
550.84	27501.29
551.01	27744.71
551.18	28102.81
551.34	27520.02
551.51	27620.66
551.68	27798.54
551.84	27821.95
552.01	27814.93
552.18	27850.03
552.34	27929.61
552.51	28072.39
552.68	27948.34
552.84	28147.28
553.01	28006.85
553.18	27950.68
553.34	28039.62
553.51	28189.41
553.67	28357.93
553.84	28240.90
554.01	28481.98
554.17	28290.06
554.34	27981.10
554.51	28060.68
554.67	28210.48
554.84	28297.08
555.00	28252.61
555.17	28348.57
555.33	28203.46
555.50	28421.13
555.67	28233.88
555.83	28102.81
556.00	28606.03
556.16	28374.31
556.33	28748.80
556.50	28257.29
556.66	28603.69
556.83	28694.97
556.99	28510.07
557.16	28875.19
557.32	28367.29
557.49	28828.38
557.65	28184.73
557.82	28517.09
557.98	28664.54
558.15	28776.89
558.32	28748.80
558.48	28926.68
558.65	29003.92
558.81	29200.52
558.98	29181.80
559.14	28524.11
559.31	28687.95
559.47	28872.85
559.64	28954.77
559.80	28877.53
559.97	29153.71
560.13	28718.37
560.30	29235.63
560.46	29022.64
560.63	28905.62
560.79	28662.20
560.96	29067.11
561.12	28709.01
561.29	28844.76
561.45	29085.84
561.61	28922.00
561.78	29160.73
561.94	29050.73
562.11	29315.21
562.27	29247.33
562.44	29104.56
562.60	28891.57
562.77	29542.24
562.93	29022.64
563.10	29064.77
563.26	28879.87
563.42	29329.25
563.59	29125.63
563.75	29427.56
563.92	29322.23
564.08	29092.86
564.24	29439.26
564.41	29326.91
564.57	29008.60
564.74	29216.91
564.90	29350.32
565.07	29355.00
565.23	29502.45
565.39	29174.78
565.56	29771.61
565.72	29284.78
565.88	29483.73
566.05	29511.81
566.21	29244.99
566.38	29523.52
566.54	29940.13
566.70	29757.57
566.87	29411.17
567.03	29830.13
567.19	29479.05
567.36	29778.64
567.52	29621.82
567.68	29598.41
567.85	29406.49
568.01	29614.80
568.17	29387.77
568.34	29820.77
568.50	29890.98
568.66	29158.39
568.83	30024.39
568.99	29600.76
569.15	29434.58
569.32	29486.07
569.48	29773.95
569.64	29642.88
569.81	29373.72
569.97	29752.89
570.13	29769.27
570.30	29673.31
570.46	29898.00
570.62	29624.16
570.78	29951.84
570.95	29549.26
571.11	29802.04
571.27	29785.66
571.43	29591.39
571.60	29626.50
571.76	29394.79
571.92	29841.83
572.09	29949.50
572.25	29486.07
572.41	29764.59
572.57	29893.32
572.74	29876.94
572.90	29790.34
573.06	29919.07
573.22	29579.69
573.38	29701.40
573.55	29869.92
573.71	30106.31
573.87	30024.39
574.03	29823.11
574.20	29933.11
574.36	29914.39
574.52	29841.83
574.68	29680.33
574.84	30103.97
575.01	30120.35
575.17	29986.94
575.33	30185.89
575.49	29963.54
575.65	30286.53
575.82	30068.86
575.98	29956.52
576.14	30136.74
576.30	30228.02
576.46	29975.24
576.62	29951.84
576.79	29916.73
576.95	29626.50
577.11	30206.95
577.27	30043.12
577.43	29942.47
577.59	29883.96
577.75	30143.76
577.92	29947.15
578.08	29577.35
578.24	29944.81
578.40	29795.02
578.56	29984.60
578.72	29869.92
578.88	30319.30
579.04	30302.92
579.21	30022.05
579.37	29806.72
579.53	29905.02
579.69	30031.41
579.85	30106.31
580.01	29872.26
580.17	29869.92
580.33	29802.04
580.49	30038.44
580.65	30412.92
580.82	30000.99
580.98	29972.90
581.14	30073.54
581.30	30508.88
581.46	29954.18
581.62	30157.80
581.78	29975.24
581.94	30272.49
582.10	29572.67
582.26	29986.94
582.42	30162.48
582.58	30246.74
582.74	30185.89
582.90	30382.49
583.06	29713.10
583.22	30249.08
583.38	30265.47
583.54	30078.22
583.70	30206.95
583.86	30202.27
584.02	29912.05
584.18	30583.78
584.34	30316.96
584.50	30555.69
584.66	30356.75
584.82	29998.65
584.98	30368.45
585.14	30110.99
585.30	29935.45
585.46	30558.03
585.62	29944.81
585.78	30171.85
585.94	30298.23
586.10	30551.01
586.26	30817.83
586.42	30572.08
586.58	30492.50
586.74	30150.78
586.90	30019.71
587.06	30134.40
587.22	30443.35
587.38	30043.12
587.54	30279.51
587.70	30403.56
587.86	30272.49
588.02	30401.22
588.18	30646.97
588.34	30778.04
588.49	30328.66
588.65	30129.72
588.81	30164.82
588.97	30452.71
589.13	30628.25
589.29	30710.17
589.45	30366.11
589.61	30677.40
589.77	30684.42
589.93	30558.03
590.08	30771.02
590.24	31126.78
590.40	30576.76
590.56	30874.01
590.72	30560.37
590.88	30459.73
591.04	30534.63
591.20	30270.15
591.35	30546.33
591.51	30682.08
591.67	30876.35
591.83	30588.46
591.99	30925.50
