SpectraSuite Data File
++++++++++++++++++++++++++++++++++++
Date: Fri Oct 18 13:58:43 GMT-05:00 2013
User: bianchi
Dark Spectrum Present: No
Reference Spectrum Present: No
Number of Sampled Component Spectra: 1
Spectrometers: USB2+H05261
Integration Time (usec): 50000 (USB2+H05261)
Spectra Averaged: 1 (USB2+H05261)
Boxcar Smoothing: 0 (USB2+H05261)
Correct for Electrical Dark: No (USB2+H05261)
Strobe/Lamp Enabled: No (USB2+H05261)
Correct for Detector Non-linearity: No (USB2+H05261)
Correct for Stray Light: No (USB2+H05261)
Number of Pixels in Processed Spectrum: 2048
>>>>>Begin Processed Spectral Data<<<<<
365.73	0.00
365.92	0.00
366.12	0.00
366.32	0.00
366.52	0.00
366.72	0.00
366.91	0.00
367.11	0.00
367.31	0.00
367.51	0.00
367.70	0.00
367.90	0.00
368.10	0.00
368.30	0.00
368.49	0.00
368.69	0.00
368.89	0.00
369.09	0.00
369.28	0.00
369.48	0.00
369.68	0.00
369.87	0.00
370.07	0.00
370.27	0.00
370.47	0.00
370.66	93.62
370.86	79.58
371.06	107.66
371.25	131.07
371.45	133.41
371.65	161.50
371.84	128.73
372.04	133.41
372.24	149.79
372.44	131.07
372.63	180.22
372.83	231.71
373.03	236.39
373.22	191.92
373.42	236.39
373.62	142.77
373.81	269.16
374.01	262.14
374.21	227.03
374.40	234.05
374.60	191.92
374.79	294.91
374.99	191.92
375.19	212.99
375.38	325.33
375.58	229.37
375.78	231.71
375.97	325.33
376.17	313.63
376.37	245.76
376.56	257.46
376.76	168.52
376.95	222.35
377.15	273.84
377.35	271.50
377.54	264.48
377.74	245.76
377.93	238.73
378.13	248.10
378.33	337.04
378.52	311.29
378.72	313.63
378.91	250.44
379.11	255.12
379.31	187.24
379.50	266.82
379.70	318.31
379.89	273.84
380.09	304.27
380.28	320.65
380.48	285.55
380.68	285.55
380.87	311.29
381.07	325.33
381.26	294.91
381.46	442.36
381.65	344.06
381.85	320.65
382.04	301.93
382.24	339.38
382.43	325.33
382.63	362.78
382.83	346.40
383.02	360.44
383.22	404.91
383.41	374.49
383.61	411.93
383.80	388.53
384.00	418.96
384.19	369.80
384.39	374.49
384.58	351.08
384.78	369.80
384.97	367.46
385.17	388.53
385.36	409.59
385.56	421.30
385.75	428.32
385.95	433.00
386.14	400.23
386.34	437.68
386.53	358.10
386.72	433.00
386.92	423.64
387.11	362.78
387.31	416.62
387.50	337.04
387.70	390.87
387.89	418.96
388.09	320.65
388.28	397.89
388.48	489.17
388.67	526.62
388.86	486.83
389.06	486.83
389.25	482.15
389.45	367.46
389.64	503.22
389.84	526.62
390.03	458.74
390.22	550.03
390.42	416.62
390.61	535.98
390.81	484.49
391.00	465.77
391.19	592.16
391.39	491.51
391.58	550.03
391.78	528.96
391.97	550.03
392.16	498.53
392.36	585.13
392.55	554.71
392.75	475.13
392.94	531.30
393.13	557.05
393.33	505.56
393.52	573.43
393.71	667.05
393.91	575.77
394.10	550.03
394.29	575.77
394.49	524.28
394.68	587.47
394.88	629.60
395.07	610.88
395.26	669.39
395.46	552.37
395.65	678.76
395.84	667.05
396.04	601.52
396.23	732.59
396.42	622.58
396.62	634.29
396.81	636.63
397.00	603.86
397.19	650.67
397.39	627.26
397.58	674.07
397.77	634.29
397.97	704.50
398.16	690.46
398.35	648.33
398.55	711.52
398.74	613.22
398.93	807.48
399.12	683.44
399.32	723.23
399.51	730.25
399.70	791.10
399.90	667.05
400.09	692.80
400.28	793.44
400.47	791.10
400.67	767.70
400.86	809.83
401.05	844.93
401.24	751.31
401.44	765.36
401.63	713.86
401.82	770.04
402.01	807.48
402.21	828.55
402.40	786.42
402.59	830.89
402.78	807.48
402.97	887.06
403.17	875.36
403.36	903.45
403.55	863.66
403.74	901.11
403.93	835.57
404.13	940.90
404.32	901.11
404.51	919.83
404.70	814.51
404.89	1039.20
405.09	1015.79
405.28	861.32
405.47	940.90
405.66	976.00
405.85	922.17
406.05	957.28
406.24	957.28
406.43	957.28
406.62	1025.15
406.81	1034.52
407.00	961.96
407.20	1027.50
407.39	1081.33
407.58	1064.94
407.77	1062.60
407.96	1069.62
408.15	1090.69
408.34	1050.90
408.54	1020.47
408.73	1109.41
408.92	1104.73
409.11	1137.50
409.30	1130.48
409.49	1006.43
409.68	1137.50
409.87	1219.42
410.07	1240.48
410.26	1247.51
410.45	1144.52
410.64	1146.86
410.83	1228.78
411.02	1151.54
411.21	1203.04
411.40	1322.40
411.59	1254.53
411.78	1212.40
411.98	1224.10
412.17	1273.25
412.36	1219.42
412.55	1240.48
412.74	1268.57
412.93	1378.58
413.12	1317.72
413.31	1296.66
413.50	1266.23
413.69	1394.96
413.88	1387.94
414.07	1397.30
414.26	1423.05
414.45	1448.79
414.64	1423.05
414.83	1458.15
415.02	1439.43
415.22	1600.93
415.41	1643.06
415.60	1563.48
415.79	1479.22
415.98	1579.86
416.17	1561.14
416.36	1556.46
416.55	1629.01
416.74	1582.20
416.93	1645.40
417.12	1736.68
417.31	1743.70
417.50	1720.29
417.69	1811.57
417.88	1659.44
418.07	1732.00
418.26	1703.91
418.45	1724.97
418.64	1792.85
418.83	1732.00
419.02	1722.63
419.21	1856.04
419.39	1865.41
419.58	1949.67
419.77	1792.85
419.96	1834.98
420.15	1785.83
420.34	1830.30
420.53	1884.13
420.72	2005.84
420.91	1837.32
421.10	1834.98
421.29	1930.94
421.48	1914.56
421.67	1851.36
421.86	1900.52
422.05	1834.98
422.24	1991.80
422.43	2026.90
422.61	1877.11
422.80	1980.09
422.99	2001.16
423.18	1949.67
423.37	2012.86
423.56	2017.54
423.75	1926.26
423.94	2008.18
424.13	1858.39
424.32	1947.33
424.50	2024.56
424.69	2106.48
424.88	2017.54
425.07	1905.20
425.26	1949.67
425.45	1984.77
425.64	1914.56
425.83	1998.82
426.01	2031.58
426.20	2031.58
426.39	2069.03
426.58	1963.71
426.77	2064.35
426.96	2169.68
427.15	2101.80
427.33	2073.71
427.52	2197.76
427.71	2080.74
427.90	2092.44
428.09	2153.29
428.28	2101.80
428.46	2157.97
428.65	2094.78
428.84	2333.51
429.03	2174.36
429.22	2162.66
429.40	2197.76
429.59	2275.00
429.78	2209.47
429.97	1989.46
430.16	2169.68
430.34	2347.56
430.53	2363.94
430.72	2342.88
430.91	2157.97
431.10	2328.83
431.28	2441.18
431.47	2389.69
431.66	2457.56
431.85	2307.77
432.03	2424.80
432.22	2530.12
432.41	2394.37
432.60	2417.77
432.79	2354.58
432.97	2410.75
433.16	2502.03
433.35	2417.77
433.54	2511.39
433.72	2548.84
433.91	2403.73
434.10	2473.95
434.28	2448.20
434.47	2495.01
434.66	2565.23
434.85	2576.93
435.03	2518.42
435.22	2565.23
435.41	2740.77
435.59	2602.68
435.78	2572.25
435.97	2574.59
436.16	2719.70
436.34	2586.29
436.53	2637.78
436.72	2752.47
436.90	2628.42
437.09	2651.83
437.28	2565.23
437.46	2775.88
437.65	2738.43
437.84	2703.32
438.02	2750.13
438.21	2780.56
438.40	2775.88
438.58	2930.35
438.77	2892.90
438.96	2799.28
439.14	2918.65
439.33	2970.14
439.52	2963.12
439.70	2951.42
439.89	2967.80
440.08	2946.73
440.26	3084.83
440.45	2984.18
440.63	3049.72
440.82	3124.62
441.01	3002.91
441.19	3129.30
441.38	3061.42
441.57	3152.70
441.75	3136.32
441.94	3183.13
442.12	3222.92
442.31	3330.58
442.50	3318.88
442.68	3316.54
442.87	3295.47
443.05	3363.35
443.24	3407.82
443.43	3325.90
443.61	3356.33
443.80	3501.44
443.98	3290.79
444.17	3239.30
444.35	3302.50
444.54	3400.80
444.73	3372.71
444.91	3346.97
445.10	3314.20
445.28	3391.44
445.47	3471.01
445.65	3403.14
445.84	3543.57
446.02	3522.51
446.21	3391.44
446.39	3412.50
446.58	3552.93
446.77	3496.76
446.95	3419.52
447.14	3459.31
447.32	3538.89
447.51	3588.04
447.69	3522.51
447.88	3496.76
448.06	3501.44
448.25	3456.97
448.43	3386.76
448.62	3433.57
448.80	3524.85
448.99	3461.65
449.17	3595.06
449.36	3463.99
449.54	3564.64
449.73	3719.11
449.91	3637.19
450.10	3667.62
450.28	3712.09
450.46	3651.24
450.65	3693.37
450.83	3681.66
451.02	3775.28
451.20	3826.78
451.39	3705.07
451.57	3765.92
451.76	3765.92
451.94	3779.97
452.13	3831.46
452.31	3880.61
452.49	3695.71
452.68	3845.50
452.86	3794.01
453.05	3805.71
453.23	3990.61
453.42	3740.18
453.60	3929.76
453.78	3932.10
453.97	3857.20
454.15	3967.21
454.34	3927.42
454.52	3925.08
454.70	3981.25
454.89	4053.81
455.07	3819.75
455.26	4109.98
455.44	4065.51
455.62	4007.00
455.81	4007.00
455.99	4049.13
456.17	4145.09
456.36	4156.79
456.54	4271.48
456.73	4201.26
456.91	4121.68
457.09	4329.99
457.28	4411.91
457.46	4224.67
457.64	4334.67
457.83	4388.50
458.01	4264.46
458.19	4381.48
458.38	4308.93
458.56	4393.19
458.74	4311.27
458.93	4372.12
459.11	4440.00
459.29	4201.26
459.48	4435.32
459.66	4503.19
459.84	4456.38
460.03	4482.13
460.21	4348.72
460.39	4552.34
460.57	4400.21
460.76	4568.73
460.94	4657.67
461.12	4645.96
461.31	4566.39
461.49	4461.06
461.67	4674.05
461.85	4802.78
462.04	4613.20
462.22	4826.18
462.40	4716.18
462.59	4664.69
462.77	4730.22
462.95	4777.03
463.13	4844.91
463.32	4844.91
463.50	4770.01
463.68	4861.29
463.86	4681.07
464.05	4774.69
464.23	4847.25
464.41	4894.06
464.59	4770.01
464.78	5095.35
464.96	4882.36
465.14	4873.00
465.32	4961.94
465.50	4912.78
465.69	4964.28
465.87	4889.38
466.05	4863.63
466.23	4812.14
466.41	5153.86
466.60	5144.50
466.78	4910.44
466.96	4961.94
467.14	5032.15
467.32	5125.77
467.51	5125.77
467.69	4952.57
467.87	4966.62
468.05	5158.54
468.23	5135.14
468.41	5165.56
468.60	5235.78
468.78	5254.50
468.96	5153.86
469.14	5376.21
469.32	5303.65
469.50	5193.65
469.69	5317.70
469.87	5284.93
470.05	5355.15
470.23	5247.48
470.41	5200.67
470.59	5493.24
470.77	5441.75
470.95	5369.19
471.14	5465.15
471.32	5444.09
471.50	5731.97
471.68	5568.13
471.86	5666.44
472.04	5614.95
472.22	5706.23
472.40	5673.46
472.58	5771.76
472.77	5741.33
472.95	5818.57
473.13	5818.57
473.31	5603.24
473.49	5818.57
473.67	5776.44
473.85	5783.46
474.03	5893.47
474.21	5975.39
474.39	5968.37
474.57	6031.56
474.75	6122.84
474.93	6148.59
475.12	6139.23
475.30	6204.76
475.48	6190.72
475.66	6176.67
475.84	6235.19
476.02	6211.78
476.20	6333.49
476.38	6333.49
476.56	6637.76
476.74	6382.64
476.92	6387.32
477.10	6410.73
477.28	6530.09
477.46	6623.72
477.64	6726.70
477.82	6672.87
478.00	6930.33
478.18	6911.60
478.36	6927.99
478.54	6935.01
478.72	6836.70
478.90	6946.71
479.08	7194.81
479.26	7098.84
479.44	7234.60
479.62	7351.62
479.80	7269.70
479.98	7297.79
480.16	7428.86
480.34	7595.04
480.52	7485.03
480.70	7648.87
480.88	7595.04
481.06	7442.90
481.24	7585.68
481.41	7639.51
481.59	7988.25
481.77	7992.93
481.95	8124.00
482.13	8070.17
482.31	7978.89
482.49	8194.22
482.67	8081.87
482.85	8535.93
483.03	8248.05
483.21	8545.30
483.39	8301.88
483.57	8458.70
483.74	8599.13
483.92	8800.41
484.10	8472.74
484.28	8868.29
484.46	8872.97
484.64	9128.09
484.82	8896.38
485.00	9085.96
485.18	9156.18
485.35	9296.61
485.53	9350.44
485.71	9144.47
485.89	9657.05
486.07	9327.03
486.25	9509.60
486.43	9542.36
486.61	9617.26
486.78	9818.55
486.96	9844.29
487.14	9802.16
487.32	9966.00
487.50	9926.21
487.68	10047.92
487.85	10291.34
488.03	10228.14
488.21	10441.13
488.39	10469.22
488.57	10436.45
488.75	10539.43
488.92	10714.97
489.10	10979.45
489.28	10766.46
489.46	11080.10
489.64	11049.67
489.81	11044.99
489.99	11297.77
490.17	11211.17
490.35	11225.21
490.53	11302.45
490.70	11501.39
490.88	11468.62
491.06	11833.75
491.24	11688.64
491.41	11721.40
491.59	11929.71
491.77	11695.66
491.95	11777.58
492.13	12058.44
492.30	12205.89
492.48	12191.85
492.66	12252.70
492.84	12285.47
493.01	12201.21
493.19	12453.99
493.37	12781.67
493.54	12788.69
493.72	12791.03
493.90	12837.84
494.08	12870.61
494.25	12992.31
494.43	12894.01
494.61	13200.62
494.79	13324.67
494.96	13226.37
495.14	13514.25
495.32	13469.78
495.49	13429.99
495.67	13397.23
495.85	13603.19
496.02	13706.18
496.20	13706.18
496.38	13895.76
496.55	13891.08
496.73	14099.39
496.91	14139.18
497.09	14406.00
497.26	14340.46
497.44	14286.63
497.62	14534.73
497.79	14127.47
497.97	14422.38
498.14	14642.39
498.32	14583.88
498.50	14647.07
498.67	15002.83
498.85	15117.52
499.03	14946.66
499.20	14965.39
499.38	14913.89
499.56	15091.77
499.73	15063.69
499.91	15283.70
500.08	15225.18
500.26	15143.27
500.44	15279.02
500.61	15726.06
500.79	15499.03
500.97	15573.92
501.14	15496.69
501.32	15941.39
501.49	15690.95
501.67	15538.82
501.84	15637.12
502.02	15976.50
502.20	16229.27
502.37	15868.83
502.55	16032.67
502.72	16056.08
502.90	15925.00
503.07	15791.59
503.25	16381.41
503.43	16215.23
503.60	16409.50
503.78	16540.57
503.95	16350.98
504.13	16683.34
504.30	16505.46
504.48	16465.67
504.65	16638.87
504.83	16802.71
505.01	16863.56
505.18	16765.26
505.36	16861.22
505.53	16992.29
505.71	17174.85
505.88	17221.66
506.06	17090.59
506.23	17282.52
506.41	17193.58
506.58	17170.17
506.76	17085.91
506.93	17507.21
507.11	17121.02
507.28	17429.97
507.46	17256.77
507.63	17528.27
507.81	17598.49
507.98	17565.72
508.16	17633.60
508.33	17537.63
508.50	17661.68
508.68	17741.26
508.85	18183.62
509.03	18148.51
509.20	18382.57
509.38	18108.72
509.55	18150.85
509.73	18455.12
509.90	18284.26
510.08	18434.06
510.25	17909.78
510.42	18551.09
510.60	18291.29
510.77	18635.35
510.95	18895.14
511.12	18614.28
511.30	18450.44
511.47	18789.82
511.64	18600.24
511.82	18904.51
511.99	18710.24
512.17	18993.45
512.34	18633.00
512.51	19185.37
512.69	19185.37
512.86	18977.06
513.04	19389.00
513.21	19426.45
513.38	19477.94
513.56	19407.72
513.73	19606.67
513.90	19541.13
514.08	19449.85
514.25	19456.87
514.43	19714.33
514.60	19501.34
514.77	19950.73
514.95	19609.01
515.12	19536.45
515.29	19594.96
515.47	20063.07
515.64	19887.53
515.81	19868.81
515.99	20135.63
516.16	19995.20
516.33	20255.00
516.51	20255.00
516.68	19950.73
516.85	20142.65
517.03	20205.84
517.20	20299.47
517.37	20308.83
517.54	20631.82
517.72	20423.51
517.89	20524.16
518.06	20479.69
518.24	20224.57
518.41	20430.54
518.58	20418.83
518.75	20699.70
518.93	21060.14
519.10	20919.71
519.27	20688.00
519.45	20975.88
519.62	20945.45
519.79	20840.13
519.96	20706.72
520.14	21341.00
520.31	21167.80
520.48	21607.83
520.65	21338.66
520.83	21427.60
521.00	21259.09
521.17	20795.66
521.34	21378.45
521.52	21462.71
521.69	21369.09
521.86	21383.13
522.03	21848.90
522.20	21848.90
522.38	21385.47
522.55	21434.63
522.72	21586.76
522.89	21888.69
523.07	22015.08
523.24	22022.10
523.41	22050.19
523.58	21900.39
523.75	21977.63
523.92	21682.72
524.10	21846.56
524.27	22106.36
524.44	22024.44
524.61	22527.66
524.78	22111.04
524.96	22560.42
525.13	22422.33
525.30	22342.75
525.47	22363.82
525.64	22595.53
525.81	22321.69
525.98	22249.13
526.16	22597.87
526.33	22735.96
526.50	23112.79
526.67	22813.20
526.84	22944.27
527.01	22438.72
527.18	22782.77
527.36	22731.28
527.53	22871.72
527.70	23105.77
527.87	23091.73
528.04	22932.57
528.21	23164.28
528.38	22974.70
528.55	23501.32
528.72	23431.10
528.89	23489.62
529.07	23325.78
529.24	23058.96
529.41	23391.31
529.58	23428.76
529.75	23374.93
529.92	23374.93
530.09	23690.90
530.26	23498.98
530.43	23552.81
530.60	23129.17
530.77	23358.55
530.94	23866.44
531.11	23613.66
531.28	23740.05
531.46	23765.80
531.63	23721.33
531.80	23843.04
531.97	24297.10
532.14	23814.95
532.31	24100.50
532.48	23960.06
532.65	23967.09
532.82	23765.80
532.99	24175.39
533.16	24093.47
533.33	24121.56
533.50	24315.83
533.67	24444.56
533.84	24093.47
534.01	24458.60
534.18	24105.18
534.35	24503.07
534.52	24332.21
534.69	24643.50
534.86	24636.48
535.03	24219.86
535.20	24606.05
535.37	24577.97
535.54	24395.40
535.71	24535.84
535.88	24547.54
536.05	24596.69
536.22	24858.83
536.38	24776.91
536.55	24854.15
536.72	24865.85
536.89	24460.94
537.06	24608.39
537.23	25015.65
537.40	24833.08
537.57	25139.69
537.74	25343.32
537.91	25359.70
538.08	25144.38
538.25	25071.82
538.42	25137.35
538.59	25249.70
538.75	25259.06
538.92	24968.84
539.09	25483.75
539.26	25521.20
539.43	25209.91
539.60	25453.33
539.77	25153.74
539.94	25687.38
540.11	25392.47
540.28	25474.39
540.44	25228.63
540.61	25518.86
540.78	25558.65
540.95	25537.59
541.12	25586.74
541.29	25511.84
541.46	25359.70
541.62	25268.42
541.79	25717.81
541.96	25544.61
542.13	25343.32
542.30	25858.24
542.47	26050.16
542.63	26324.01
542.80	25766.96
542.97	26396.56
543.14	26295.92
543.31	26291.24
543.48	26279.54
543.64	26445.71
543.81	26345.07
543.98	26522.95
544.15	26485.50
544.32	26497.20
544.48	26897.44
544.65	26412.95
544.82	26279.54
544.99	26045.48
545.16	26363.79
545.32	26492.52
545.49	27037.87
545.66	26937.23
545.83	26548.70
546.00	26803.82
546.16	26721.90
546.33	26188.25
546.50	26593.17
546.67	26670.40
546.83	26197.62
547.00	26553.38
547.17	26602.53
547.34	26518.27
547.50	26862.33
547.67	27204.05
547.84	26927.86
548.00	26738.28
548.17	27115.11
548.34	27002.76
548.51	27154.90
548.67	26726.58
548.84	27094.04
549.01	27281.28
549.18	27030.85
549.34	27180.64
549.51	27271.92
549.68	27386.61
549.84	27147.87
550.01	27323.41
550.18	27154.90
550.34	27367.88
550.51	27527.04
550.68	27178.30
550.84	27019.14
551.01	27332.78
551.18	27185.32
551.34	27276.60
551.51	27484.91
551.68	27431.08
551.84	27407.67
552.01	27644.07
552.18	27742.37
552.34	27496.61
552.51	27665.13
552.68	27072.98
552.84	27431.08
553.01	27821.95
553.18	27751.73
553.34	27388.95
553.51	27798.54
553.67	27840.67
553.84	27960.04
554.01	27651.09
554.17	27505.98
554.34	27480.23
554.51	27906.21
554.67	27686.20
554.84	28112.17
555.00	28215.16
555.17	27566.83
555.33	27938.97
555.50	27882.80
555.67	27948.34
555.83	27651.09
556.00	28149.62
556.16	28535.81
556.33	27835.99
556.50	28018.55
556.66	28023.23
556.83	28238.56
556.99	28261.97
557.16	28463.25
557.32	28231.54
557.49	28243.24
557.65	28325.16
557.82	28170.69
557.98	28290.06
558.15	28231.54
558.32	28276.01
558.48	28287.71
558.65	28388.36
558.81	28271.33
558.98	28390.70
559.14	28554.54
559.31	28540.49
559.47	28102.81
559.64	28465.60
559.80	28299.42
559.97	28723.05
560.13	28348.57
560.30	28603.69
560.46	28797.95
560.63	28556.88
560.79	28741.78
560.96	28615.39
561.12	28322.82
561.29	28294.74
561.45	28460.91
561.61	28849.44
561.78	28800.29
561.94	28716.03
562.11	28847.10
562.27	28657.52
562.44	28687.95
562.60	28823.70
562.77	29233.29
562.93	28493.68
563.10	28776.89
563.26	28723.05
563.42	29160.73
563.59	28893.91
563.75	29078.82
563.92	28978.17
564.08	28765.18
564.24	28428.15
564.41	28591.98
564.57	28692.63
564.74	28762.84
564.90	29074.13
565.07	29181.80
565.23	29034.35
565.39	29221.59
565.56	29186.48
565.72	28870.51
565.88	28919.66
566.05	28835.40
566.21	28828.38
566.38	28858.81
566.54	28877.53
566.70	28870.51
566.87	29319.89
567.03	29006.26
567.19	29551.60
567.36	29446.28
567.52	28959.45
567.68	29312.87
567.85	28931.36
568.01	28957.11
568.17	28793.27
568.34	29254.36
568.50	29406.49
568.66	29476.71
568.83	29287.12
568.99	29153.71
569.15	29188.82
569.32	29462.66
569.48	29214.57
569.64	29242.65
569.81	29308.19
569.97	29029.66
570.13	29230.95
570.30	29294.14
570.46	29165.42
570.62	29699.06
570.78	29055.41
570.95	29046.05
571.11	29326.91
571.27	29338.62
571.43	29289.46
571.60	29572.67
571.76	29404.15
571.92	29448.62
572.09	29359.68
572.25	29514.16
572.41	29567.99
572.57	29413.51
572.74	29453.30
572.90	29352.66
573.06	29083.50
573.22	29340.96
573.38	29441.60
573.55	29259.04
573.71	29586.71
573.87	29542.24
574.03	29804.38
574.20	29603.10
574.36	29195.84
574.52	29575.01
574.68	29560.97
574.84	29465.00
575.01	29523.52
575.17	29345.64
575.33	29717.78
575.49	29273.08
575.65	29582.03
575.82	29715.44
575.98	29703.74
576.14	29762.25
576.30	29469.69
576.46	29425.22
576.62	29605.44
576.79	29181.80
576.95	29193.50
577.11	29441.60
577.27	29776.30
577.43	29420.53
577.59	29247.33
577.75	29731.83
577.92	29193.50
578.08	29490.75
578.24	29296.49
578.40	29785.66
578.56	29752.89
578.72	29228.61
578.88	29858.21
579.04	29542.24
579.21	29825.45
579.37	29757.57
579.53	29633.52
579.69	29584.37
579.85	29364.36
580.01	29338.62
580.17	29488.41
580.33	29567.99
580.49	29659.27
580.65	29443.94
580.82	30000.99
580.98	29488.41
581.14	29432.24
581.30	30040.78
581.46	29699.06
581.62	29743.53
581.78	29305.85
581.94	29422.87
582.10	29722.46
582.26	29532.88
582.42	29607.78
582.58	29532.88
582.74	29591.39
582.90	29521.18
583.06	29738.85
583.22	29656.93
583.38	29474.37
583.54	29656.93
583.70	29633.52
583.86	29439.26
584.02	29551.60
584.18	29853.53
584.34	30223.34
584.50	29837.15
584.66	29886.30
584.82	29378.40
584.98	29544.58
585.14	29448.62
585.30	29645.23
585.46	29736.51
585.62	29509.47
585.78	29713.10
585.94	29638.20
586.10	29771.61
586.26	29668.63
586.42	29895.66
586.58	29355.00
586.74	30008.01
586.90	29685.01
587.06	29780.98
587.22	29729.48
587.38	29514.16
587.54	29972.90
587.70	29984.60
587.86	30338.02
588.02	29813.74
588.18	30183.55
588.34	30024.39
588.49	30066.52
588.65	29837.15
588.81	29479.05
588.97	29682.67
589.13	29853.53
589.29	29713.10
589.45	29888.64
589.61	30012.69
589.77	29900.34
589.93	29907.37
590.08	30068.86
590.24	30396.54
590.40	30328.66
590.56	30361.43
590.72	29883.96
590.88	29825.45
591.04	30164.82
591.20	30059.50
591.35	30347.39
591.51	30483.14
591.67	30120.35
591.83	30277.17
591.99	30148.44
