SpectraSuite Data File
++++++++++++++++++++++++++++++++++++
Date: Fri Oct 18 13:58:04 GMT-05:00 2013
User: bianchi
Dark Spectrum Present: No
Reference Spectrum Present: No
Number of Sampled Component Spectra: 1
Spectrometers: USB2+H05261
Integration Time (usec): 50000 (USB2+H05261)
Spectra Averaged: 1 (USB2+H05261)
Boxcar Smoothing: 0 (USB2+H05261)
Correct for Electrical Dark: No (USB2+H05261)
Strobe/Lamp Enabled: No (USB2+H05261)
Correct for Detector Non-linearity: No (USB2+H05261)
Correct for Stray Light: No (USB2+H05261)
Number of Pixels in Processed Spectrum: 2048
>>>>>Begin Processed Spectral Data<<<<<
365.73	0.00
365.92	0.00
366.12	0.00
366.32	0.00
366.52	0.00
366.72	0.00
366.91	0.00
367.11	0.00
367.31	0.00
367.51	0.00
367.70	0.00
367.90	0.00
368.10	0.00
368.30	0.00
368.49	0.00
368.69	0.00
368.89	0.00
369.09	0.00
369.28	0.00
369.48	0.00
369.68	0.00
369.87	0.00
370.07	0.00
370.27	0.00
370.47	46.81
370.66	56.17
370.86	147.45
371.06	124.05
371.25	173.20
371.45	49.15
371.65	173.20
371.84	149.79
372.04	187.24
372.24	184.90
372.44	170.86
372.63	189.58
372.83	198.95
373.03	243.42
373.22	255.12
373.42	170.86
373.62	184.90
373.81	222.35
374.01	269.16
374.21	238.73
374.40	203.63
374.60	208.31
374.79	236.39
374.99	222.35
375.19	273.84
375.38	236.39
375.58	173.20
375.78	198.95
375.97	259.80
376.17	337.04
376.37	292.57
376.56	259.80
376.76	220.01
376.95	280.86
377.15	266.82
377.35	245.76
377.54	250.44
377.74	257.46
377.93	262.14
378.13	257.46
378.33	262.14
378.52	283.20
378.72	248.10
378.91	276.18
379.11	154.48
379.31	248.10
379.50	299.59
379.70	297.25
379.89	322.99
380.09	299.59
380.28	266.82
380.48	283.20
380.68	297.25
380.87	362.78
381.07	301.93
381.26	313.63
381.46	311.29
381.65	351.08
381.85	325.33
382.04	306.61
382.24	348.74
382.43	386.19
382.63	337.04
382.83	339.38
383.02	379.17
383.22	383.85
383.41	414.27
383.61	379.17
383.80	351.08
384.00	397.89
384.19	362.78
384.39	308.95
384.58	313.63
384.78	374.49
384.97	411.93
385.17	372.15
385.36	362.78
385.56	367.46
385.75	416.62
385.95	411.93
386.14	325.33
386.34	437.68
386.53	381.51
386.72	386.19
386.92	400.23
387.11	407.25
387.31	346.40
387.50	470.45
387.70	463.43
387.89	409.59
388.09	409.59
388.28	484.49
388.48	440.02
388.67	444.70
388.86	531.30
389.06	393.21
389.25	433.00
389.45	489.17
389.64	503.22
389.84	531.30
390.03	493.85
390.22	521.94
390.42	479.81
390.61	458.74
390.81	444.70
391.00	498.53
391.19	540.66
391.39	538.32
391.58	496.19
391.78	517.26
391.97	571.09
392.16	538.32
392.36	564.07
392.55	449.38
392.75	571.09
392.94	561.73
393.13	540.66
393.33	580.45
393.52	559.39
393.71	653.01
393.91	585.13
394.10	578.11
394.29	648.33
394.49	568.75
394.68	629.60
394.88	543.00
395.07	641.31
395.26	615.56
395.46	594.50
395.65	554.71
395.84	554.71
396.04	629.60
396.23	653.01
396.42	657.69
396.62	648.33
396.81	627.26
397.00	648.33
397.19	678.76
397.39	671.73
397.58	674.07
397.77	692.80
397.97	690.46
398.16	650.67
398.35	709.18
398.55	674.07
398.74	718.54
398.93	746.63
399.12	720.88
399.32	603.86
399.51	849.61
399.70	767.70
399.90	774.72
400.09	786.42
400.28	760.67
400.47	772.38
400.67	772.38
400.86	739.61
401.05	763.01
401.24	720.88
401.44	840.25
401.63	795.78
401.82	882.38
402.01	856.64
402.21	863.66
402.40	844.93
402.59	823.87
402.78	854.30
402.97	980.68
403.17	905.79
403.36	891.74
403.55	905.79
403.74	828.55
403.93	901.11
404.13	917.49
404.32	765.36
404.51	919.83
404.70	966.64
404.89	957.28
405.09	968.98
405.28	1032.18
405.47	976.00
405.66	954.94
405.85	978.34
406.05	1062.60
406.24	1025.15
406.43	1013.45
406.62	1097.71
406.81	973.66
407.00	1149.20
407.20	973.66
407.39	997.07
407.58	1078.99
407.77	1167.93
407.96	1144.52
408.15	1130.48
408.34	1086.01
408.54	1062.60
408.73	1107.07
408.92	1149.20
409.11	1196.01
409.30	1203.04
409.49	1191.33
409.68	1212.40
409.87	1160.91
410.07	1130.48
410.26	1167.93
410.45	1207.72
410.64	1142.18
410.83	1231.12
411.02	1193.67
411.21	1291.98
411.40	1270.91
411.59	1310.70
411.78	1275.59
411.98	1301.34
412.17	1217.08
412.36	1196.01
412.55	1352.83
412.74	1378.58
412.93	1380.92
413.12	1294.32
413.31	1331.76
413.50	1406.66
413.69	1406.66
413.88	1418.36
414.07	1465.18
414.26	1474.54
414.45	1486.24
414.64	1502.62
414.83	1544.75
415.02	1458.15
415.22	1458.15
415.41	1542.41
415.60	1624.33
415.79	1469.86
415.98	1647.74
416.17	1596.25
416.36	1544.75
416.55	1600.93
416.74	1633.69
416.93	1668.80
417.12	1736.68
417.31	1645.40
417.50	1739.02
417.69	1771.79
417.88	1846.68
418.07	1654.76
418.26	1804.55
418.45	1736.68
418.64	1846.68
418.83	1846.68
419.02	1846.68
419.21	1778.81
419.39	1811.57
419.58	1832.64
419.77	1762.42
419.96	1937.96
420.15	1930.94
420.34	1853.70
420.53	1893.49
420.72	1984.77
420.91	1877.11
421.10	1893.49
421.29	2026.90
421.48	1991.80
421.67	2104.14
421.86	1900.52
422.05	1984.77
422.24	1930.94
422.43	1961.37
422.61	2052.65
422.80	1952.01
422.99	1991.80
423.18	2078.40
423.37	2005.84
423.56	2132.23
423.75	2036.27
423.94	2026.90
424.13	1994.14
424.32	1980.09
424.50	2101.80
424.69	2197.76
424.88	2111.16
425.07	2132.23
425.26	1987.11
425.45	2054.99
425.64	2118.18
425.83	1956.69
426.01	2115.84
426.20	2062.01
426.39	2005.84
426.58	2047.97
426.77	2099.46
426.96	2165.00
427.15	2019.88
427.33	2073.71
427.52	2200.10
427.71	2195.42
427.90	2244.57
428.09	2216.49
428.28	2267.98
428.46	2270.32
428.65	2216.49
428.84	2305.43
429.03	2190.74
429.22	2345.22
429.40	2160.31
429.59	2260.96
429.78	2052.65
429.97	2207.13
430.16	2223.51
430.34	2246.91
430.53	2415.43
430.72	2368.62
430.91	2312.45
431.10	2239.89
431.28	2427.14
431.47	2558.21
431.66	2363.94
431.85	2399.05
432.03	2441.18
432.22	2438.84
432.41	2455.22
432.60	2347.56
432.79	2457.56
432.97	2539.48
433.16	2462.24
433.35	2525.44
433.54	2590.97
433.72	2462.24
433.91	2595.65
434.10	2537.14
434.28	2513.74
434.47	2544.16
434.66	2560.55
434.85	2572.25
435.03	2518.42
435.22	2520.76
435.41	2759.49
435.59	2583.95
435.78	2696.30
435.97	2586.29
436.16	2607.36
436.34	2686.94
436.53	2541.82
436.72	2820.35
436.90	2710.34
437.09	2682.25
437.28	2684.59
437.46	2640.12
437.65	2750.13
437.84	2708.00
438.02	2876.52
438.21	2855.45
438.40	2794.60
438.58	2920.99
438.77	3019.29
438.96	2923.33
439.14	2939.71
439.33	2937.37
439.52	2991.20
439.70	2991.20
439.89	3056.74
440.08	3145.68
440.26	3033.33
440.45	3126.96
440.63	3108.23
440.82	3035.67
441.01	3089.51
441.19	3276.75
441.38	3227.60
441.57	3206.53
441.75	3143.34
441.94	3302.50
442.12	3166.74
442.31	3403.14
442.50	3414.84
442.68	3272.07
442.87	3269.73
443.05	3353.99
443.24	3389.10
443.43	3353.99
443.61	3466.33
443.80	3639.53
443.98	3349.31
444.17	3330.58
444.35	3473.36
444.54	3384.41
444.73	3382.07
444.91	3419.52
445.10	3492.08
445.28	3515.48
445.47	3435.91
445.65	3508.46
445.84	3419.52
446.02	3417.18
446.21	3543.57
446.39	3393.78
446.58	3588.04
446.77	3574.00
446.95	3412.50
447.14	3623.15
447.32	3583.36
447.51	3433.57
447.69	3494.42
447.88	3578.68
448.06	3590.38
448.25	3529.53
448.43	3543.57
448.62	3588.04
448.80	3361.01
448.99	3564.64
449.17	3597.40
449.36	3679.32
449.54	3581.02
449.73	3747.20
449.91	3784.65
450.10	3754.22
450.28	3740.18
450.46	3798.69
450.65	3798.69
450.83	3747.20
451.02	3763.58
451.20	3995.29
451.39	3824.44
451.57	3721.45
451.76	3754.22
451.94	3990.61
452.13	3971.89
452.31	3880.61
452.49	3861.88
452.68	3868.91
452.86	3974.23
453.05	3927.42
453.23	3892.31
453.42	3896.99
453.60	3843.16
453.78	3988.27
453.97	3843.16
454.15	3922.74
454.34	3932.10
454.52	3936.78
454.70	3906.35
454.89	4102.96
455.07	4037.42
455.26	4138.07
455.44	4067.85
455.62	4100.62
455.81	4046.79
455.99	3985.93
456.17	4084.23
456.36	4149.77
456.54	4245.73
456.73	4187.22
456.91	4252.75
457.09	4372.12
457.28	4388.50
457.46	4346.37
457.64	4318.29
457.83	4367.44
458.01	4430.63
458.19	4332.33
458.38	4390.84
458.56	4554.68
458.74	4498.51
458.93	4652.98
459.11	4369.78
459.29	4440.00
459.48	4468.08
459.66	4418.93
459.84	4594.47
460.03	4718.52
460.21	4683.41
460.39	4624.90
460.57	4648.30
460.76	4762.99
460.94	4564.04
461.12	4704.48
461.31	4662.35
461.49	4791.08
461.67	4568.73
461.85	4753.63
462.04	4638.94
462.22	5055.56
462.40	4699.80
462.59	4861.29
462.77	4856.61
462.95	4891.72
463.13	4812.14
463.32	4903.42
463.50	4933.85
463.68	4800.44
463.86	4964.28
464.05	4889.38
464.23	4802.78
464.41	4975.98
464.59	4833.21
464.78	5167.90
464.96	5090.67
465.14	4877.68
465.32	4940.87
465.50	4952.57
465.69	5064.92
465.87	5123.43
466.05	5135.14
466.23	5027.47
466.41	5121.09
466.60	5191.31
466.78	4983.00
466.96	5125.77
467.14	5142.16
467.32	5158.54
467.51	5027.47
467.69	4975.98
467.87	5308.34
468.05	5128.11
468.23	5027.47
468.41	5170.24
468.60	5224.08
468.78	5310.68
468.96	5296.63
469.14	5247.48
469.32	5444.09
469.50	5207.69
469.69	5408.98
469.87	5584.52
470.05	5502.60
470.23	5514.30
470.41	5518.98
470.59	5528.35
470.77	5476.85
470.95	5570.48
471.14	5542.39
471.32	5455.79
471.50	5596.22
471.68	5701.54
471.86	5626.65
472.04	5696.86
472.22	5825.59
472.40	5724.95
472.58	5696.86
472.77	5689.84
472.95	5942.62
473.13	6090.07
473.31	5738.99
473.49	5802.19
473.67	5898.15
473.85	5891.13
474.03	6115.82
474.21	5987.09
474.39	6099.44
474.57	6277.32
474.75	6249.23
474.93	6239.87
475.12	6129.86
475.30	6314.77
475.48	6225.82
475.66	6258.59
475.84	6352.21
476.02	6349.87
476.20	6373.28
476.38	6494.99
476.56	6661.16
476.74	6565.20
476.92	6581.59
477.10	6626.06
477.28	6684.57
477.46	6649.46
477.64	6775.85
477.82	6747.76
478.00	7005.22
478.18	7096.50
478.36	7054.37
478.54	6979.48
478.72	7258.00
478.90	7105.87
479.08	7314.17
479.26	7070.76
479.44	7513.12
479.62	7557.59
479.80	7470.99
479.98	7356.30
480.16	7674.62
480.34	7581.00
480.52	7569.29
480.70	7882.92
480.88	7609.08
481.06	7651.21
481.24	7733.13
481.41	7981.23
481.59	7957.82
481.77	7990.59
481.95	8290.18
482.13	8205.92
482.31	8107.62
482.49	8430.61
482.67	8374.44
482.85	8418.91
483.03	8659.98
483.21	8559.34
483.39	8678.71
483.57	8730.20
483.74	8629.56
483.92	8840.20
484.10	8678.71
484.28	9146.81
484.46	9191.28
484.64	9263.84
484.82	9064.89
485.00	9107.02
485.18	9277.88
485.35	9533.00
485.53	9563.43
485.71	9404.27
485.89	9877.06
486.07	9631.30
486.25	9802.16
486.43	10017.49
486.61	9865.36
486.78	9989.41
486.96	10197.71
487.14	10127.50
487.32	10312.40
487.50	10211.76
487.68	10530.07
487.85	10523.05
488.03	10705.61
488.21	10766.46
488.39	10796.89
488.57	10717.31
488.75	10934.98
488.92	11077.76
489.10	11028.60
489.28	11110.52
489.46	11370.32
489.64	11239.25
489.81	11379.68
489.99	11265.00
490.17	11073.07
490.35	11709.70
490.53	11524.80
490.70	11920.35
490.88	11791.62
491.06	11967.16
491.24	11861.84
491.41	12107.59
491.59	12283.13
491.77	12016.31
491.95	12320.58
492.13	12334.62
492.30	12259.73
492.48	12463.35
492.66	12531.23
492.84	12519.53
493.01	12769.96
493.19	12666.98
493.37	13022.74
493.54	12830.82
493.72	13004.02
493.90	13036.78
494.08	13032.10
494.25	13312.97
494.43	13153.81
494.61	13369.14
494.79	13481.49
494.96	13399.57
495.14	13474.46
495.32	13771.71
495.49	13680.43
495.67	13666.39
495.85	14029.17
496.02	13965.98
496.20	13965.98
496.38	13874.70
496.55	14136.84
496.73	14459.83
496.91	14185.99
497.09	14480.89
497.26	14642.39
497.44	14560.47
497.62	14450.47
497.79	14794.53
497.97	14696.22
498.14	14857.72
498.32	14785.16
498.50	14918.57
498.67	15307.10
498.85	15140.93
499.03	15117.52
499.20	15154.97
499.38	15316.47
499.56	15613.71
499.73	15269.66
499.91	15648.82
500.08	15576.27
500.26	15279.02
500.44	15496.69
500.61	15901.60
500.79	15899.26
500.97	15707.34
501.14	15889.90
501.32	16009.26
501.49	15843.09
501.67	15875.85
501.84	16210.55
502.02	16123.95
502.20	16423.54
502.37	16240.98
502.55	16301.83
502.72	16318.22
502.90	16177.78
503.07	16264.38
503.25	16608.44
503.43	16500.78
503.60	16615.46
503.78	16753.55
503.95	16908.03
504.13	16893.99
504.30	16940.80
504.48	16854.20
504.65	17088.25
504.83	17310.60
505.01	17165.49
505.18	17179.53
505.36	17277.83
505.53	17167.83
505.71	17198.26
505.88	17493.16
506.06	17282.52
506.23	17420.61
506.41	17736.58
506.58	17783.39
506.76	17497.84
506.93	17724.88
507.11	17465.08
507.28	17820.84
507.46	17844.24
507.63	17804.46
507.81	17881.69
507.98	17839.56
508.16	18237.45
508.33	18195.32
508.50	18087.66
508.68	18104.04
508.85	18288.95
509.03	18274.90
509.20	18562.79
509.38	18420.02
509.55	18520.66
509.73	18743.01
509.90	18672.79
510.08	18726.63
510.25	18471.51
510.42	18745.35
510.60	18864.72
510.77	18991.11
510.95	18897.49
511.12	18820.25
511.30	19147.92
511.47	18824.93
511.64	19140.90
511.82	19161.97
511.99	19522.41
512.17	19372.61
512.34	19187.71
512.51	19300.06
512.69	19372.61
512.86	19499.00
513.04	19798.59
513.21	19740.08
513.38	19784.55
513.56	19775.19
513.73	19503.68
513.90	19704.97
514.08	19726.04
514.25	19901.58
514.43	19955.41
514.60	19908.60
514.77	19960.09
514.95	20154.35
515.12	20182.44
515.29	20123.93
515.47	20074.77
515.64	20287.76
515.81	20222.23
515.99	20463.30
516.16	20418.83
516.33	20662.25
516.51	20592.03
516.68	20348.62
516.85	20765.23
517.03	20526.50
517.20	20966.52
517.37	20566.29
517.54	20643.52
517.72	21259.09
517.89	20592.03
518.06	20753.53
518.24	21081.21
518.41	20837.79
518.58	20926.73
518.75	20950.14
518.93	21443.99
519.10	21319.94
519.27	21446.33
519.45	21146.74
519.62	21057.80
519.79	21352.71
519.96	21425.26
520.14	21326.96
520.31	21352.71
520.48	21626.55
520.65	21453.35
520.83	21509.52
521.00	21537.61
521.17	21544.63
521.34	21776.34
521.52	21991.67
521.69	21764.64
521.86	22319.35
522.03	21970.61
522.20	21923.80
522.38	21947.20
522.55	22047.85
522.72	22038.48
522.89	22249.13
523.07	22366.16
523.24	22537.02
523.41	22867.03
523.58	22375.52
523.75	22548.72
523.92	22508.93
524.10	22242.11
524.27	22541.70
524.44	22654.05
524.61	22834.27
524.78	22600.21
524.96	22801.50
525.13	22902.14
525.30	22672.77
525.47	22984.06
525.64	22913.84
525.81	22899.80
525.98	23290.67
526.16	23307.05
526.33	23080.02
526.50	23208.75
526.67	23009.81
526.84	23278.97
527.01	22724.26
527.18	23178.33
527.36	23213.43
527.53	23552.81
527.70	23381.95
527.87	23281.31
528.04	23414.72
528.21	23756.44
528.38	23400.68
528.55	23880.49
528.72	23608.98
528.89	23707.29
529.07	23847.72
529.24	23594.94
529.41	24105.18
529.58	23597.28
529.75	23634.73
529.92	23899.21
530.09	23733.03
530.26	24067.73
530.43	24177.73
530.60	23824.31
530.77	24519.45
530.94	23941.34
531.11	24060.71
531.28	23913.25
531.46	24308.80
531.63	24346.25
531.80	24486.68
531.97	24716.06
532.14	24554.56
532.31	24503.07
532.48	24554.56
532.65	24641.16
532.82	24261.99
532.99	24477.32
533.16	24142.63
533.33	24662.22
533.50	24875.21
533.67	24680.95
533.84	24657.54
534.01	24779.25
534.18	24905.64
534.35	24919.68
534.52	25081.18
534.69	25387.79
534.86	24870.53
535.03	25053.09
535.20	25312.89
535.37	24903.30
535.54	25235.66
535.71	24802.66
535.88	25289.49
536.05	25057.78
536.22	25675.68
536.38	25268.42
536.55	25338.64
536.72	25511.84
536.89	24758.19
537.06	25085.86
537.23	25617.16
537.40	25163.10
537.57	25649.93
537.74	25369.07
537.91	25673.34
538.08	26010.37
538.25	25392.47
538.42	25724.83
538.59	25729.51
538.75	25474.39
538.92	25474.39
539.09	25776.32
539.26	25923.77
539.43	25937.82
539.60	25757.60
539.77	25865.26
539.94	26295.92
540.11	26099.31
540.28	25773.98
540.44	26174.21
540.61	26094.63
540.78	26082.93
540.95	25956.54
541.12	25977.61
541.29	26001.01
541.46	26024.42
541.62	26050.16
541.79	26190.59
541.96	25750.57
542.13	26120.38
542.30	26192.94
542.47	26635.30
542.63	26272.51
542.80	26469.12
542.97	26579.12
543.14	26764.03
543.31	26710.19
543.48	26817.86
543.64	26836.58
543.81	26806.16
543.98	27346.82
544.15	26731.26
544.32	27309.37
544.48	27096.38
544.65	26724.24
544.82	26951.27
544.99	26567.42
545.16	26691.47
545.32	26934.88
545.49	27215.75
545.66	27288.31
545.83	27641.73
546.00	27087.02
546.16	27344.48
546.33	27374.91
546.50	26707.85
546.67	27332.78
546.83	26948.93
547.00	27239.15
547.17	27311.71
547.34	27211.07
547.50	27384.27
547.67	27480.23
547.84	27342.14
548.00	27442.78
548.17	27704.92
548.34	27489.59
548.51	27669.81
548.67	27634.71
548.84	27845.35
549.01	27758.75
549.18	27758.75
549.34	27356.18
549.51	27651.09
549.68	27810.25
549.84	27594.92
550.01	27821.95
550.18	27707.26
550.34	27906.21
550.51	27697.90
550.68	28041.96
550.84	27562.15
551.01	27971.74
551.18	27896.85
551.34	27618.32
551.51	28034.94
551.68	27793.86
551.84	28084.09
552.01	28095.79
552.18	28245.58
552.34	28219.84
552.51	28072.39
552.68	28102.81
552.84	28556.88
553.01	28257.29
553.18	27899.19
553.34	28137.92
553.51	28175.37
553.67	28727.74
553.84	28744.12
554.01	28622.41
554.17	28343.89
554.34	28470.28
554.51	28393.04
554.67	28334.53
554.84	28142.60
555.00	28547.51
555.17	28704.33
555.33	28559.22
555.50	28552.20
555.67	28711.35
555.83	28683.27
556.00	28561.56
556.16	28844.76
556.33	28477.30
556.50	28914.98
556.66	28811.99
556.83	28673.90
556.99	29036.69
557.16	29046.05
557.32	29280.10
557.49	28926.68
557.65	28549.85
557.82	28786.25
557.98	28886.89
558.15	28746.46
558.32	28912.64
558.48	28973.49
558.65	29242.65
558.81	29057.75
558.98	29207.55
559.14	29057.75
559.31	28802.63
559.47	29032.00
559.64	29158.39
559.80	29163.08
559.97	28793.27
560.13	28943.06
560.30	29481.39
560.46	29266.06
560.63	29376.06
560.79	28931.36
560.96	29429.90
561.12	29228.61
561.29	29123.29
561.45	29385.43
561.61	29151.37
561.78	29259.04
561.94	29085.84
562.11	29394.79
562.27	29453.30
562.44	29184.14
562.60	29575.01
562.77	29654.59
562.93	28954.77
563.10	29378.40
563.26	29362.02
563.42	29682.67
563.59	29830.13
563.75	29563.31
563.92	29916.73
564.08	29111.58
564.24	29408.83
564.41	29142.01
564.57	29207.55
564.74	29776.30
564.90	29717.78
565.07	29638.20
565.23	29986.94
565.39	29926.09
565.56	29455.64
565.72	29408.83
565.88	29626.50
566.05	29429.90
566.21	29425.22
566.38	29888.64
566.54	29677.99
566.70	30052.48
566.87	30125.04
567.03	29898.00
567.19	30012.69
567.36	30031.41
567.52	29572.67
567.68	30218.66
567.85	29598.41
568.01	29668.63
568.17	29558.63
568.34	29844.17
568.50	29986.94
568.66	29633.52
568.83	30473.78
568.99	30202.27
569.15	29663.95
569.32	29614.80
569.48	29846.51
569.64	30384.83
569.81	29825.45
569.97	29860.55
570.13	29954.18
570.30	29958.86
570.46	30157.80
570.62	30033.75
570.78	30073.54
570.95	30064.18
571.11	29935.45
571.27	29804.38
571.43	30068.86
571.60	30082.91
571.76	29965.88
571.92	30000.99
572.09	30026.73
572.25	30253.76
572.41	30033.75
572.57	29926.09
572.74	29942.47
572.90	29972.90
573.06	29855.87
573.22	29680.33
573.38	29766.93
573.55	30239.72
573.71	30476.12
573.87	29876.94
574.03	30199.93
574.20	30167.16
574.36	30232.70
574.52	30419.94
574.68	30125.04
574.84	30192.91
575.01	30251.42
575.17	29670.97
575.33	30202.27
575.49	30045.46
575.65	30419.94
575.82	30274.83
575.98	30136.74
576.14	30263.13
576.30	30466.75
576.46	30155.46
576.62	30103.97
576.79	30256.11
576.95	29949.50
577.11	30403.56
577.27	30532.29
577.43	30424.62
577.59	30295.89
577.75	30029.07
577.92	30239.72
578.08	29916.73
578.24	30298.23
578.40	30244.40
578.56	30448.03
578.72	30459.73
578.88	30492.50
579.04	30588.46
579.21	30464.41
579.37	30548.67
579.53	30562.72
579.69	30300.58
579.85	30331.00
580.01	30321.64
580.17	30263.13
580.33	30209.29
580.49	30632.93
580.65	30267.81
580.82	30066.52
580.98	30036.09
581.14	30466.75
581.30	30670.38
581.46	30471.43
581.62	30352.07
581.78	29935.45
581.94	30256.11
582.10	30471.43
582.26	30457.39
582.42	30691.44
582.58	30192.91
582.74	30422.28
582.90	30314.62
583.06	30384.83
583.22	30410.58
583.38	30033.75
583.54	30118.01
583.70	30520.59
583.86	30518.25
584.02	30331.00
584.18	30969.97
584.34	30490.16
584.50	30976.99
584.66	30438.67
584.82	30155.46
584.98	30747.62
585.14	30373.13
585.30	30359.09
585.46	30178.87
585.62	30342.70
585.78	30586.12
585.94	30312.28
586.10	30387.18
586.26	30492.50
586.42	30742.94
586.58	30710.17
586.74	30705.49
586.90	30670.38
587.06	30323.98
587.22	30588.46
587.38	30370.79
587.54	30862.30
587.70	30752.30
587.86	30457.39
588.02	30752.30
588.18	30934.86
588.34	30848.26
588.49	30536.97
588.65	30438.67
588.81	30639.95
588.97	30513.56
589.13	30562.72
589.29	30504.20
589.45	30965.29
589.61	31026.14
589.77	31178.28
589.93	30696.13
590.08	31267.22
590.24	30874.01
590.40	30960.61
590.56	30930.18
590.72	31007.42
590.88	30705.49
591.04	30782.73
591.20	30995.71
591.35	30955.93
591.51	31260.20
591.67	30930.18
591.83	31091.68
591.99	31063.59
