SpectraSuite Data File
++++++++++++++++++++++++++++++++++++
Date: Fri Oct 18 13:58:28 GMT-05:00 2013
User: bianchi
Dark Spectrum Present: No
Reference Spectrum Present: No
Number of Sampled Component Spectra: 1
Spectrometers: USB2+H05261
Integration Time (usec): 50000 (USB2+H05261)
Spectra Averaged: 1 (USB2+H05261)
Boxcar Smoothing: 0 (USB2+H05261)
Correct for Electrical Dark: No (USB2+H05261)
Strobe/Lamp Enabled: No (USB2+H05261)
Correct for Detector Non-linearity: No (USB2+H05261)
Correct for Stray Light: No (USB2+H05261)
Number of Pixels in Processed Spectrum: 2048
>>>>>Begin Processed Spectral Data<<<<<
365.73	0.00
365.92	0.00
366.12	0.00
366.32	0.00
366.52	0.00
366.72	0.00
366.91	0.00
367.11	0.00
367.31	0.00
367.51	0.00
367.70	0.00
367.90	0.00
368.10	0.00
368.30	0.00
368.49	0.00
368.69	0.00
368.89	0.00
369.09	0.00
369.28	0.00
369.48	0.00
369.68	0.00
369.87	0.00
370.07	0.00
370.27	0.00
370.47	0.00
370.66	72.56
370.86	74.90
371.06	117.03
371.25	168.52
371.45	74.90
371.65	102.98
371.84	166.18
372.04	234.05
372.24	205.97
372.44	79.58
372.63	238.73
372.83	208.31
373.03	161.50
373.22	177.88
373.42	222.35
373.62	177.88
373.81	234.05
374.01	243.42
374.21	308.95
374.40	217.67
374.60	238.73
374.79	241.08
374.99	212.99
375.19	238.73
375.38	266.82
375.58	273.84
375.78	234.05
375.97	170.86
376.17	379.17
376.37	243.42
376.56	273.84
376.76	208.31
376.95	257.46
377.15	241.08
377.35	262.14
377.54	311.29
377.74	283.20
377.93	280.86
378.13	245.76
378.33	301.93
378.52	283.20
378.72	201.29
378.91	250.44
379.11	313.63
379.31	311.29
379.50	262.14
379.70	304.27
379.89	294.91
380.09	285.55
380.28	283.20
380.48	285.55
380.68	266.82
380.87	236.39
381.07	250.44
381.26	280.86
381.46	304.27
381.65	360.44
381.85	299.59
382.04	304.27
382.24	393.21
382.43	332.36
382.63	250.44
382.83	358.10
383.02	353.42
383.22	358.10
383.41	271.50
383.61	376.83
383.80	348.74
384.00	376.83
384.19	440.02
384.39	365.12
384.58	287.89
384.78	334.70
384.97	442.36
385.17	365.12
385.36	348.74
385.56	341.72
385.75	404.91
385.95	376.83
386.14	383.85
386.34	304.27
386.53	353.42
386.72	362.78
386.92	416.62
387.11	433.00
387.31	400.23
387.50	505.56
387.70	400.23
387.89	339.38
388.09	468.11
388.28	421.30
388.48	407.25
388.67	444.70
388.86	456.40
389.06	440.02
389.25	472.79
389.45	491.51
389.64	461.09
389.84	374.49
390.03	444.70
390.22	400.23
390.42	479.81
390.61	381.51
390.81	449.38
391.00	461.09
391.19	512.58
391.39	435.34
391.58	479.81
391.78	489.17
391.97	514.92
392.16	414.27
392.36	535.98
392.55	601.52
392.75	486.83
392.94	540.66
393.13	543.00
393.33	484.49
393.52	503.22
393.71	561.73
393.91	484.49
394.10	540.66
394.29	667.05
394.49	660.03
394.68	582.79
394.88	545.34
395.07	603.86
395.26	648.33
395.46	585.13
395.65	564.07
395.84	585.13
396.04	606.20
396.23	648.33
396.42	645.99
396.62	624.92
396.81	643.65
397.00	594.50
397.19	667.05
397.39	596.84
397.58	748.97
397.77	631.94
397.97	615.56
398.16	622.58
398.35	688.12
398.55	650.67
398.74	690.46
398.93	748.97
399.12	662.37
399.32	657.69
399.51	753.65
399.70	699.82
399.90	746.63
400.09	744.29
400.28	664.71
400.47	774.72
400.67	828.55
400.86	730.25
401.05	802.80
401.24	739.61
401.44	809.83
401.63	791.10
401.82	861.32
402.01	751.31
402.21	807.48
402.40	739.61
402.59	772.38
402.78	821.53
402.97	851.96
403.17	849.61
403.36	840.25
403.55	844.93
403.74	837.91
403.93	929.19
404.13	861.32
404.32	837.91
404.51	926.85
404.70	950.26
404.89	849.61
405.09	912.81
405.28	870.68
405.47	936.21
405.66	1022.81
405.85	1027.50
406.05	896.43
406.24	957.28
406.43	1008.77
406.62	924.51
406.81	994.73
407.00	971.32
407.20	936.21
407.39	1018.13
407.58	1013.45
407.77	964.30
407.96	1050.90
408.15	1097.71
408.34	1001.75
408.54	973.66
408.73	1167.93
408.92	1083.67
409.11	1123.46
409.30	1078.99
409.49	1100.05
409.68	1074.31
409.87	1186.65
410.07	1149.20
410.26	1226.44
410.45	1207.72
410.64	1203.04
410.83	1149.20
411.02	1191.33
411.21	1247.51
411.40	1233.46
411.59	1352.83
411.78	1233.46
411.98	1191.33
412.17	1303.68
412.36	1233.46
412.55	1399.64
412.74	1369.21
412.93	1479.22
413.12	1336.45
413.31	1416.02
413.50	1270.91
413.69	1289.64
413.88	1249.85
414.07	1451.13
414.26	1476.88
414.45	1458.15
414.64	1423.05
414.83	1380.92
415.02	1416.02
415.22	1493.26
415.41	1511.99
415.60	1537.73
415.79	1504.96
415.98	1666.46
416.17	1540.07
416.36	1535.39
416.55	1586.88
416.74	1624.33
416.93	1530.71
417.12	1680.50
417.31	1640.72
417.50	1701.57
417.69	1724.97
417.88	1727.32
418.07	1657.10
418.26	1629.01
418.45	1710.93
418.64	1830.30
418.83	1741.36
419.02	1818.60
419.21	1687.53
419.39	1837.32
419.58	1708.59
419.77	1724.97
419.96	1778.81
420.15	1804.55
420.34	1834.98
420.53	1755.40
420.72	1849.02
420.91	1867.75
421.10	1937.96
421.29	1900.52
421.48	1802.21
421.67	1968.39
421.86	1795.19
422.05	1944.99
422.24	1867.75
422.43	1909.88
422.61	1991.80
422.80	2015.20
422.99	2036.27
423.18	1956.69
423.37	1989.46
423.56	2054.99
423.75	1881.79
423.94	2017.54
424.13	1844.34
424.32	1888.81
424.50	1975.41
424.69	2134.57
424.88	2008.18
425.07	1944.99
425.26	1966.05
425.45	1952.01
425.64	1961.37
425.83	1884.13
426.01	2047.97
426.20	1933.28
426.39	2157.97
426.58	1900.52
426.77	2071.37
426.96	2080.74
427.15	2043.29
427.33	2132.23
427.52	2019.88
427.71	2076.06
427.90	2136.91
428.09	2062.01
428.28	2143.93
428.46	2101.80
428.65	2115.84
428.84	2141.59
429.03	2267.98
429.22	2190.74
429.40	2260.96
429.59	2209.47
429.78	2157.97
429.97	2165.00
430.16	2101.80
430.34	2141.59
430.53	2284.36
430.72	2242.23
430.91	2260.96
431.10	2207.13
431.28	2403.73
431.47	2389.69
431.66	2502.03
431.85	2223.51
432.03	2349.90
432.22	2380.32
432.41	2370.96
432.60	2368.62
432.79	2466.92
432.97	2502.03
433.16	2338.20
433.35	2434.16
433.54	2565.23
433.72	2518.42
433.91	2403.73
434.10	2396.71
434.28	2420.11
434.47	2487.99
434.66	2605.02
434.85	2565.23
435.03	2698.64
435.22	2553.52
435.41	2712.68
435.59	2602.68
435.78	2520.76
435.97	2579.27
436.16	2567.57
436.34	2597.99
436.53	2736.09
436.72	2719.70
436.90	2595.65
437.09	2656.51
437.28	2530.12
437.46	2729.06
437.65	2607.36
437.84	2745.45
438.02	2691.62
438.21	2731.41
438.40	2637.78
438.58	2848.43
438.77	2899.92
438.96	2853.11
439.14	2878.86
439.33	2892.90
439.52	2841.41
439.70	2825.03
439.89	2890.56
440.08	2995.89
440.26	2932.69
440.45	2916.31
440.63	2984.18
440.82	3049.72
441.01	2911.63
441.19	3183.13
441.38	3098.87
441.57	3190.15
441.75	3204.19
441.94	3234.62
442.12	3239.30
442.31	3260.37
442.50	3201.85
442.68	3122.27
442.87	3288.45
443.05	3227.60
443.24	3222.92
443.43	3379.73
443.61	3349.31
443.80	3435.91
443.98	3239.30
444.17	3241.64
444.35	3323.56
444.54	3393.78
444.73	3403.14
444.91	3452.29
445.10	3485.06
445.28	3337.60
445.47	3419.52
445.65	3426.54
445.84	3375.05
446.02	3480.38
446.21	3332.92
446.39	3442.93
446.58	3386.76
446.77	3384.41
446.95	3248.66
447.14	3243.98
447.32	3478.04
447.51	3438.25
447.69	3389.10
447.88	3293.13
448.06	3368.03
448.25	3358.67
448.43	3466.33
448.62	3407.82
448.80	3625.49
448.99	3471.01
449.17	3510.80
449.36	3459.31
449.54	3651.24
449.73	3574.00
449.91	3548.25
450.10	3672.30
450.28	3747.20
450.46	3742.52
450.65	3588.04
450.83	3602.08
451.02	3763.58
451.20	3571.66
451.39	3805.71
451.57	3749.54
451.76	3672.30
451.94	3705.07
452.13	3789.33
452.31	3906.35
452.49	3667.62
452.68	3700.39
452.86	3822.09
453.05	3875.93
453.23	3948.48
453.42	3775.28
453.60	3854.86
453.78	3845.50
453.97	3784.65
454.15	3831.46
454.34	3679.32
454.52	3913.38
454.70	3908.69
454.89	3911.04
455.07	4023.38
455.26	4067.85
455.44	4030.40
455.62	3997.64
455.81	3861.88
455.99	4100.62
456.17	4145.09
456.36	4065.51
456.54	4079.55
456.73	4198.92
456.91	4243.39
457.09	4140.41
457.28	4248.07
457.46	4241.05
457.64	4278.50
457.83	4280.84
458.01	4180.20
458.19	4351.06
458.38	4278.50
458.56	4498.51
458.74	4381.48
458.93	4346.37
459.11	4517.23
459.29	4379.14
459.48	4437.66
459.66	4414.25
459.84	4442.34
460.03	4472.76
460.21	4547.66
460.39	4451.70
460.57	4510.21
460.76	4451.70
460.94	4540.64
461.12	4510.21
461.31	4416.59
461.49	4470.42
461.67	4566.39
461.85	4667.03
462.04	4538.30
462.22	4650.64
462.40	4667.03
462.59	4564.04
462.77	4610.86
462.95	4650.64
463.13	4669.37
463.32	4748.95
463.50	4770.01
463.68	4777.03
463.86	4657.67
464.05	4695.11
464.23	4695.11
464.41	4945.55
464.59	4770.01
464.78	4798.10
464.96	4936.19
465.14	4847.25
465.32	4882.36
465.50	4887.04
465.69	4985.34
465.87	4905.76
466.05	4814.48
466.23	4987.68
466.41	4959.60
466.60	5046.20
466.78	5011.09
466.96	4990.02
467.14	4819.16
467.32	4945.55
467.51	5123.43
467.69	5057.90
467.87	4992.36
468.05	4994.70
468.23	5074.28
468.41	5137.48
468.60	5125.77
468.78	5093.01
468.96	4959.60
469.14	5210.03
469.32	5310.68
469.50	5221.74
469.69	5238.12
469.87	5338.76
470.05	5369.19
470.23	5338.76
470.41	5373.87
470.59	5369.19
470.77	5217.05
470.95	5420.68
471.14	5397.28
471.32	5380.89
471.50	5537.71
471.68	5451.11
471.86	5444.09
472.04	5497.92
472.22	5769.42
472.40	5568.13
472.58	5633.67
472.77	5561.11
472.95	5781.12
473.13	5858.36
473.31	5603.24
473.49	5811.55
473.67	5940.28
473.85	5827.93
474.03	5769.42
474.21	6012.84
474.39	5799.85
474.57	5980.07
474.75	5935.60
474.93	6066.67
475.12	6146.25
475.30	6136.88
475.48	6106.46
475.66	6118.16
475.84	6267.95
476.02	6193.06
476.20	6251.57
476.38	6265.61
476.56	6420.09
476.74	6345.19
476.92	6408.39
477.10	6359.24
477.28	6457.54
477.46	6504.35
477.64	6593.29
477.82	6672.87
478.00	6799.26
478.18	7019.27
478.36	7019.27
478.54	6829.68
478.72	6967.77
478.90	7131.61
479.08	7061.40
479.26	7143.32
479.44	7222.89
479.62	7080.12
479.80	7360.98
479.98	7346.94
480.16	7389.07
480.34	7452.27
480.52	7494.40
480.70	7735.47
480.88	7489.71
481.06	7529.50
481.24	7510.78
481.41	7700.36
481.59	8011.65
481.77	7964.84
481.95	7728.45
482.13	8175.49
482.31	8128.68
482.49	8088.89
482.67	8336.99
482.85	8065.49
483.03	8315.92
483.21	8507.85
483.39	8344.01
483.57	8336.99
483.74	8718.50
483.92	8704.45
484.10	8454.02
484.28	8683.39
484.46	8924.46
484.64	9128.09
484.82	8786.37
485.00	9149.15
485.18	9303.63
485.35	9102.34
485.53	9289.59
485.71	9406.61
485.89	9439.38
486.07	9472.15
486.25	9284.91
486.43	9614.92
486.61	9589.17
486.78	9666.41
486.96	9579.81
487.14	9790.46
487.32	9907.49
487.50	9949.62
487.68	10068.98
487.85	10125.16
488.03	10200.05
488.21	10492.62
488.39	10480.92
488.57	10164.95
488.75	10595.61
488.92	10757.10
489.10	10890.51
489.28	10841.36
489.46	10817.96
489.64	10787.53
489.81	11126.91
489.99	11152.65
490.17	11157.33
490.35	11304.79
490.53	11201.80
490.70	11325.85
490.88	11503.73
491.06	11473.31
491.24	11595.01
491.41	11726.08
491.59	11808.00
491.77	11852.47
491.95	11946.09
492.13	11889.92
492.30	12116.95
492.48	11971.84
492.66	12243.34
492.84	12423.56
493.01	12395.48
493.19	12313.56
493.37	12439.95
493.54	12552.29
493.72	12533.57
493.90	12748.90
494.08	12847.20
494.25	12629.53
494.43	13025.08
494.61	13163.17
494.79	13008.70
494.96	12936.14
495.14	13144.45
495.32	13476.80
495.49	13415.95
495.67	13383.18
495.85	13399.57
496.02	13727.24
496.20	13657.03
496.38	13710.86
496.55	13437.02
496.73	13823.20
496.91	13729.58
497.09	13809.16
497.26	14197.69
497.44	14015.13
497.62	14228.12
497.79	14160.24
497.97	14403.66
498.14	14284.29
498.32	14562.81
498.50	14635.37
498.67	14626.01
498.85	14590.90
499.03	14848.36
499.20	14831.97
499.38	14890.49
499.56	15047.30
499.73	15082.41
499.91	15382.00
500.08	14979.43
500.26	15014.54
500.44	15293.06
500.61	15211.14
500.79	15049.64
500.97	15630.10
501.14	15824.36
501.32	15442.85
501.49	15351.57
501.67	15573.92
501.84	15697.97
502.02	15714.36
502.20	15697.97
502.37	15892.24
502.55	15796.28
502.72	15784.57
502.90	15868.83
503.07	15866.49
503.25	15903.94
503.43	16063.10
503.60	16400.13
503.78	16196.51
503.95	16009.26
504.13	16350.98
504.30	16278.43
504.48	16224.59
504.65	16624.83
504.83	16582.70
505.01	16816.75
505.18	16549.93
505.36	16713.77
505.53	17146.76
505.71	16709.08
505.88	16727.81
506.06	16666.95
506.23	16910.37
506.41	17064.85
506.58	16952.50
506.76	16992.29
506.93	17139.74
507.11	17022.72
507.28	17195.92
507.46	17280.18
507.63	17291.88
507.81	17535.29
507.98	17427.63
508.16	17549.34
508.33	17441.67
508.50	17752.96
508.68	17685.09
508.85	17507.21
509.03	17846.58
509.20	17893.40
509.38	18008.08
509.55	17956.59
509.73	17884.03
509.90	17912.12
510.08	17895.74
510.25	18019.78
510.42	18260.86
510.60	18396.61
510.77	18485.55
510.95	18523.00
511.12	18455.12
511.30	18616.62
511.47	18518.32
511.64	18682.16
511.82	18735.99
511.99	18789.82
512.17	18785.14
512.34	18586.19
512.51	18801.52
512.69	18899.83
512.86	19049.62
513.04	19082.39
513.21	18986.43
513.38	19246.23
513.56	19227.50
513.73	19131.54
513.90	19094.09
514.08	19166.65
514.25	19398.36
514.43	19161.97
514.60	19353.89
514.77	19412.40
514.95	19445.17
515.12	19559.86
515.29	19653.48
515.47	19779.87
515.64	19592.62
515.81	19639.44
515.99	20095.84
516.16	19807.95
516.33	20020.94
516.51	19623.05
516.68	19744.76
516.85	20023.28
517.03	19836.04
517.20	20245.63
517.37	19969.45
517.54	20135.63
517.72	20278.40
517.89	19833.70
518.06	20587.35
518.24	20526.50
518.41	19997.54
518.58	20233.93
518.75	20280.74
518.93	20442.24
519.10	20713.74
519.27	20336.91
519.45	20613.10
519.62	20479.69
519.79	20980.56
519.96	20673.95
520.14	20910.35
520.31	20915.03
520.48	20790.98
520.65	20996.95
520.83	21284.83
521.00	20748.85
521.17	20655.23
521.34	21268.45
521.52	21111.63
521.69	21212.28
521.86	21289.51
522.03	21282.49
522.20	21392.50
522.38	21385.47
522.55	21352.71
522.72	21486.12
522.89	21621.87
523.07	21813.79
523.24	21371.43
523.41	21975.29
523.58	21216.96
523.75	21930.82
523.92	21207.59
524.10	21816.13
524.27	21738.90
524.44	21659.32
524.61	21902.73
524.78	22129.77
524.96	22038.48
525.13	22185.94
525.30	21956.57
525.47	22396.59
525.64	22188.28
525.81	22476.16
525.98	22176.58
526.16	22204.66
526.33	22494.89
526.50	22525.32
526.67	22183.60
526.84	22504.25
527.01	22434.03
527.18	22845.97
527.36	22565.10
527.53	22733.62
527.70	23037.89
527.87	23000.44
528.04	22628.30
528.21	22988.74
528.38	22654.05
528.55	23002.78
528.72	22754.69
528.89	23073.00
529.07	23082.36
529.24	22890.44
529.41	23178.33
529.58	23084.70
529.75	22628.30
529.92	22979.38
530.09	23056.62
530.26	23222.80
530.43	23433.44
530.60	23400.68
530.77	23323.44
530.94	23232.16
531.11	23147.90
531.28	23281.31
531.46	23339.82
531.63	23393.65
531.80	23843.04
531.97	23887.51
532.14	23674.52
532.31	23330.46
532.48	23702.61
532.65	23601.96
532.82	23669.84
532.99	24137.94
533.16	23557.49
533.33	23910.91
533.50	24084.11
533.67	23756.44
533.84	23775.16
534.01	23742.39
534.18	23910.91
534.35	23981.13
534.52	24383.70
534.69	24168.37
534.86	24531.15
535.03	23992.83
535.20	24687.97
535.37	24418.81
535.54	24229.23
535.71	24070.07
535.88	24011.56
536.05	24463.28
536.22	24353.27
536.38	24477.32
536.55	24533.50
536.72	24648.18
536.89	24613.07
537.06	24245.61
537.23	24430.51
537.40	24631.80
537.57	24453.92
537.74	24577.97
537.91	25020.33
538.08	25099.90
538.25	24538.18
538.42	24702.01
538.59	24751.17
538.75	24694.99
538.92	24790.95
539.09	25025.01
539.26	25102.25
539.43	24835.42
539.60	25455.67
539.77	25280.13
539.94	25214.59
540.11	25223.95
540.28	25067.14
540.44	25315.23
540.61	25020.33
540.78	24968.84
540.95	25275.45
541.12	25429.92
541.29	25369.07
541.46	25429.92
541.62	24922.02
541.79	25373.75
541.96	25067.14
542.13	25617.16
542.30	25378.43
542.47	25500.14
542.63	25790.36
542.80	25546.95
542.97	26019.74
543.14	25902.71
543.31	25804.41
543.48	25593.76
543.64	26010.37
543.81	25874.62
543.98	25848.88
544.15	26108.68
544.32	25722.49
544.48	26160.17
544.65	26122.72
544.82	25769.30
544.99	25570.35
545.16	26043.14
545.32	26253.79
545.49	26441.03
545.66	26005.69
545.83	26410.60
546.00	26651.68
546.16	26459.76
546.33	25905.05
546.50	25827.81
546.67	26438.69
546.83	25741.21
547.00	26111.02
547.17	26487.84
547.34	26363.79
547.50	26281.88
547.67	26611.89
547.84	26352.09
548.00	26670.40
548.17	26754.66
548.34	26464.44
548.51	26850.63
548.67	26953.61
548.84	26719.56
549.01	26672.74
549.18	26642.32
549.34	26719.56
549.51	26820.20
549.68	26600.19
549.84	26380.18
550.01	26735.94
550.18	26703.17
550.34	27007.44
550.51	27061.27
550.68	27101.06
550.84	26881.05
551.01	27108.08
551.18	26712.53
551.34	26742.96
551.51	27161.92
551.68	27108.08
551.84	27154.90
552.01	27028.51
552.18	27484.91
552.34	27225.11
552.51	27253.20
552.68	26829.56
552.84	27154.90
553.01	27393.63
553.18	26951.27
553.34	27255.54
553.51	27660.45
553.67	27648.75
553.84	27590.24
554.01	27789.18
554.17	27346.82
554.34	27639.39
554.51	27456.82
554.67	27756.41
554.84	27405.33
555.00	27138.51
555.17	27419.38
555.33	27637.05
555.50	27709.60
555.67	27662.79
555.83	27819.61
556.00	27690.88
556.16	27857.06
556.33	27784.50
556.50	27718.96
556.66	27786.84
556.83	27833.65
556.99	28107.49
557.16	28257.29
557.32	27861.74
557.49	27878.12
557.65	27697.90
557.82	27688.54
557.98	27969.40
558.15	27976.42
558.32	28009.19
558.48	27960.04
558.65	27662.79
558.81	27927.27
558.98	28236.22
559.14	27835.99
559.31	27763.43
559.47	28070.04
559.64	27967.06
559.80	28329.84
559.97	28364.95
560.13	28135.58
560.30	28301.76
560.46	28259.63
560.63	28346.23
560.79	28313.46
560.96	28418.78
561.12	28268.99
561.29	28477.30
561.45	28184.73
561.61	27964.72
561.78	28624.75
561.94	28098.13
562.11	28201.11
562.27	28339.21
562.44	28446.87
562.60	28327.50
562.77	28215.16
562.93	28135.58
563.10	28638.80
563.26	28542.83
563.42	28781.57
563.59	28783.91
563.75	28535.81
563.92	28252.61
564.08	28428.15
564.24	28486.66
564.41	28580.28
564.57	28231.54
564.74	28432.83
564.90	28776.89
565.07	28521.77
565.23	28727.74
565.39	28570.92
565.56	28751.14
565.72	28236.22
565.88	28367.29
566.05	28587.30
566.21	28524.11
566.38	28542.83
566.54	28809.65
566.70	28404.74
566.87	28833.06
567.03	28994.56
567.19	29404.15
567.36	28863.49
567.52	28587.30
567.68	28739.44
567.85	28400.06
568.01	29085.84
568.17	28657.52
568.34	28737.10
568.50	28489.00
568.66	28968.81
568.83	29205.20
568.99	28973.49
569.15	28896.25
569.32	28943.06
569.48	28414.10
569.64	28669.22
569.81	29305.85
569.97	28765.18
570.13	29242.65
570.30	28772.21
570.46	28793.27
570.62	28957.11
570.78	28917.32
570.95	28496.02
571.11	28978.17
571.27	28732.42
571.43	29015.62
571.60	29207.55
571.76	28737.10
571.92	28842.42
572.09	29036.69
572.25	29165.42
572.41	28975.83
572.57	28856.46
572.74	29282.44
572.90	28950.09
573.06	28582.62
573.22	28807.31
573.38	29142.01
573.55	28966.47
573.71	29144.35
573.87	29305.85
574.03	28891.57
574.20	28882.21
574.36	28938.38
574.52	29170.10
574.68	29127.97
574.84	29085.84
575.01	29266.06
575.17	28669.22
575.33	28933.70
575.49	28954.77
575.65	29104.56
575.82	29551.60
575.98	28804.97
576.14	29090.52
576.30	29071.79
576.46	28898.59
576.62	28863.49
576.79	29392.45
576.95	28739.44
577.11	29355.00
577.27	29003.92
577.43	29146.69
577.59	29120.95
577.75	29244.99
577.92	28669.22
578.08	29024.98
578.24	29305.85
578.40	29127.97
578.56	28975.83
578.72	29202.86
578.88	29195.84
579.04	29626.50
579.21	29144.35
579.37	29645.23
579.53	29177.12
579.69	28914.98
579.85	29205.20
580.01	29181.80
580.17	29008.60
580.33	29165.42
580.49	29163.08
580.65	29692.04
580.82	29268.40
580.98	28980.51
581.14	29504.79
581.30	29591.39
581.46	29261.38
581.62	29085.84
581.78	28819.02
581.94	29446.28
582.10	29083.50
582.26	29418.19
582.42	29624.16
582.58	29221.59
582.74	29387.77
582.90	29364.36
583.06	29481.39
583.22	29046.05
583.38	29450.96
583.54	29390.11
583.70	29343.30
583.86	29226.27
584.02	29134.99
584.18	29364.36
584.34	29319.89
584.50	29397.13
584.66	29163.08
584.82	28989.88
584.98	29418.19
585.14	29549.26
585.30	29013.28
585.46	29446.28
585.62	29029.66
585.78	29214.57
585.94	28884.55
586.10	29699.06
586.26	29427.56
586.42	29642.88
586.58	29170.10
586.74	29780.98
586.90	29233.29
587.06	29207.55
587.22	29406.49
587.38	28854.12
587.54	29764.59
587.70	29289.46
587.86	29692.04
588.02	29525.86
588.18	29582.03
588.34	29415.85
588.49	29443.94
588.65	29469.69
588.81	29457.98
588.97	29556.28
589.13	29750.55
589.29	29366.70
589.45	29507.13
589.61	29631.18
589.77	29741.19
589.93	29912.05
590.08	29776.30
590.24	30015.03
590.40	29855.87
590.56	29848.85
590.72	29575.01
590.88	29376.06
591.04	29422.87
591.20	29605.44
591.35	29972.90
591.51	29905.02
591.67	29862.90
591.83	30118.01
591.99	29799.70
