SpectraSuite Data File
++++++++++++++++++++++++++++++++++++
Date: Fri Oct 18 13:58:36 GMT-05:00 2013
User: bianchi
Dark Spectrum Present: No
Reference Spectrum Present: No
Number of Sampled Component Spectra: 1
Spectrometers: USB2+H05261
Integration Time (usec): 50000 (USB2+H05261)
Spectra Averaged: 1 (USB2+H05261)
Boxcar Smoothing: 0 (USB2+H05261)
Correct for Electrical Dark: No (USB2+H05261)
Strobe/Lamp Enabled: No (USB2+H05261)
Correct for Detector Non-linearity: No (USB2+H05261)
Correct for Stray Light: No (USB2+H05261)
Number of Pixels in Processed Spectrum: 2048
>>>>>Begin Processed Spectral Data<<<<<
365.73	0.00
365.92	0.00
366.12	0.00
366.32	0.00
366.52	0.00
366.72	0.00
366.91	0.00
367.11	0.00
367.31	0.00
367.51	0.00
367.70	0.00
367.90	0.00
368.10	0.00
368.30	0.00
368.49	0.00
368.69	0.00
368.89	0.00
369.09	0.00
369.28	0.00
369.48	0.00
369.68	0.00
369.87	0.00
370.07	0.00
370.27	0.00
370.47	0.00
370.66	0.00
370.86	88.94
371.06	142.77
371.25	236.39
371.45	154.48
371.65	114.69
371.84	114.69
372.04	112.35
372.24	156.82
372.44	140.43
372.63	208.31
372.83	180.22
373.03	271.50
373.22	271.50
373.42	257.46
373.62	177.88
373.81	273.84
374.01	292.57
374.21	220.01
374.40	135.75
374.60	330.02
374.79	220.01
374.99	168.52
375.19	229.37
375.38	208.31
375.58	290.23
375.78	299.59
375.97	215.33
376.17	266.82
376.37	264.48
376.56	290.23
376.76	280.86
376.95	248.10
377.15	297.25
377.35	313.63
377.54	273.84
377.74	262.14
377.93	257.46
378.13	283.20
378.33	264.48
378.52	259.80
378.72	276.18
378.91	259.80
379.11	180.22
379.31	238.73
379.50	313.63
379.70	404.91
379.89	313.63
380.09	308.95
380.28	283.20
380.48	243.42
380.68	266.82
380.87	248.10
381.07	322.99
381.26	301.93
381.46	269.16
381.65	287.89
381.85	231.71
382.04	365.12
382.24	283.20
382.43	337.04
382.63	355.76
382.83	238.73
383.02	346.40
383.22	402.57
383.41	334.70
383.61	327.68
383.80	458.74
384.00	334.70
384.19	308.95
384.39	414.27
384.58	337.04
384.78	409.59
384.97	407.25
385.17	414.27
385.36	346.40
385.56	430.66
385.75	332.36
385.95	411.93
386.14	344.06
386.34	355.76
386.53	444.70
386.72	383.85
386.92	456.40
387.11	416.62
387.31	486.83
387.50	433.00
387.70	379.17
387.89	477.47
388.09	430.66
388.28	414.27
388.48	458.74
388.67	372.15
388.86	475.13
389.06	411.93
389.25	472.79
389.45	479.81
389.64	440.02
389.84	503.22
390.03	489.17
390.22	444.70
390.42	512.58
390.61	468.11
390.81	475.13
391.00	559.39
391.19	496.19
391.39	449.38
391.58	472.79
391.78	428.32
391.97	498.53
392.16	547.69
392.36	538.32
392.55	535.98
392.75	503.22
392.94	505.56
393.13	587.47
393.33	493.85
393.52	568.75
393.71	624.92
393.91	564.07
394.10	580.45
394.29	638.97
394.49	564.07
394.68	601.52
394.88	493.85
395.07	624.92
395.26	547.69
395.46	512.58
395.65	734.93
395.84	559.39
396.04	629.60
396.23	702.16
396.42	641.31
396.62	617.90
396.81	688.12
397.00	725.57
397.19	648.33
397.39	678.76
397.58	653.01
397.77	688.12
397.97	746.63
398.16	592.16
398.35	727.91
398.55	655.35
398.74	758.33
398.93	744.29
399.12	763.01
399.32	753.65
399.51	704.50
399.70	699.82
399.90	725.57
400.09	713.86
400.28	791.10
400.47	746.63
400.67	741.95
400.86	739.61
401.05	774.72
401.24	858.98
401.44	767.70
401.63	802.80
401.82	765.36
402.01	748.97
402.21	800.46
402.40	847.27
402.59	798.12
402.78	851.96
402.97	870.68
403.17	800.46
403.36	891.74
403.55	847.27
403.74	870.68
403.93	863.66
404.13	863.66
404.32	943.24
404.51	957.28
404.70	908.13
404.89	952.60
405.09	968.98
405.28	964.30
405.47	1004.09
405.66	952.60
405.85	964.30
406.05	1013.45
406.24	1067.28
406.43	978.34
406.62	1121.12
406.81	1069.62
407.00	994.73
407.20	1036.86
407.39	1039.20
407.58	985.37
407.77	1036.86
407.96	1076.65
408.15	1039.20
408.34	990.05
408.54	1128.14
408.73	1032.18
408.92	957.28
409.11	1132.82
409.30	1132.82
409.49	1139.84
409.68	1153.88
409.87	1081.33
410.07	1088.35
410.26	1121.12
410.45	1153.88
410.64	1130.48
410.83	1163.25
411.02	1261.55
411.21	1254.53
411.40	1277.93
411.59	1219.42
411.78	1303.68
411.98	1188.99
412.17	1294.32
412.36	1320.06
412.55	1289.64
412.74	1350.49
412.93	1336.45
413.12	1331.76
413.31	1404.32
413.50	1366.87
413.69	1427.73
413.88	1514.33
414.07	1385.60
414.26	1383.26
414.45	1453.47
414.64	1416.02
414.83	1479.22
415.02	1511.99
415.22	1479.22
415.41	1577.52
415.60	1523.69
415.79	1614.97
415.98	1584.54
416.17	1565.82
416.36	1715.61
416.55	1682.85
416.74	1636.03
416.93	1610.29
417.12	1767.10
417.31	1614.97
417.50	1654.76
417.69	1650.08
417.88	1694.55
418.07	1713.27
418.26	1694.55
418.45	1837.32
418.64	1776.47
418.83	1795.19
419.02	1802.21
419.21	1785.83
419.39	1797.53
419.58	1792.85
419.77	1760.08
419.96	1757.74
420.15	1832.64
420.34	1846.68
420.53	1811.57
420.72	1942.64
420.91	1846.68
421.10	1923.92
421.29	1968.39
421.48	1858.39
421.67	1895.83
421.86	1837.32
422.05	1898.17
422.24	1956.69
422.43	1898.17
422.61	2001.16
422.80	2022.22
422.99	2019.88
423.18	2085.42
423.37	2047.97
423.56	1982.43
423.75	1968.39
423.94	1968.39
424.13	1762.42
424.32	1916.90
424.50	2022.22
424.69	2155.63
424.88	2125.21
425.07	2038.61
425.26	2024.56
425.45	2022.22
425.64	1980.09
425.83	2001.16
426.01	2160.31
426.20	2078.40
426.39	2104.14
426.58	2003.50
426.77	2017.54
426.96	2005.84
427.15	2069.03
427.33	2036.27
427.52	2069.03
427.71	2113.50
427.90	2125.21
428.09	2204.78
428.28	2167.34
428.46	2200.10
428.65	2237.55
428.84	2284.36
429.03	2207.13
429.22	2223.51
429.40	2230.53
429.59	2314.79
429.78	2092.44
429.97	2122.87
430.16	2146.27
430.34	2197.76
430.53	2174.36
430.72	2352.24
430.91	2305.43
431.10	2303.09
431.28	2298.41
431.47	2340.54
431.66	2331.17
431.85	2401.39
432.03	2497.35
432.22	2516.08
432.41	2373.30
432.60	2431.82
432.79	2399.05
432.97	2499.69
433.16	2525.44
433.35	2441.18
433.54	2490.33
433.72	2359.26
433.91	2541.82
434.10	2469.27
434.28	2525.44
434.47	2590.97
434.66	2509.05
434.85	2729.06
435.03	2546.50
435.22	2576.93
435.41	2637.78
435.59	2719.70
435.78	2558.21
435.97	2626.08
436.16	2621.40
436.34	2612.04
436.53	2773.53
436.72	2733.75
436.90	2576.93
437.09	2593.31
437.28	2677.57
437.46	2609.70
437.65	2693.96
437.84	2745.45
438.02	2829.71
438.21	2738.43
438.40	2752.47
438.58	2892.90
438.77	2960.78
438.96	2820.35
439.14	2782.90
439.33	2874.18
439.52	3019.29
439.70	3056.74
439.89	3045.04
440.08	3098.87
440.26	3122.27
440.45	3082.49
440.63	2988.86
440.82	2986.52
441.01	3049.72
441.19	3173.77
441.38	3215.90
441.57	3155.04
441.75	3258.03
441.94	3260.37
442.12	3304.84
442.31	3328.24
442.50	3229.94
442.68	3248.66
442.87	3400.80
443.05	3361.01
443.24	3302.50
443.43	3407.82
443.61	3356.33
443.80	3480.38
443.98	3260.37
444.17	3143.34
444.35	3407.82
444.54	3543.57
444.73	3487.40
444.91	3386.76
445.10	3454.63
445.28	3412.50
445.47	3386.76
445.65	3510.80
445.84	3515.48
446.02	3499.10
446.21	3426.54
446.39	3456.97
446.58	3421.86
446.77	3438.25
446.95	3459.31
447.14	3403.14
447.32	3522.51
447.51	3552.93
447.69	3527.19
447.88	3475.70
448.06	3494.42
448.25	3475.70
448.43	3517.83
448.62	3578.68
448.80	3529.53
448.99	3660.60
449.17	3623.15
449.36	3478.04
449.54	3742.52
449.73	3700.39
449.91	3728.47
450.10	3726.13
450.28	3721.45
450.46	3660.60
450.65	3693.37
450.83	3616.13
451.02	3609.11
451.20	3765.92
451.39	3826.78
451.57	3889.97
451.76	3777.62
451.94	3707.41
452.13	3878.27
452.31	3765.92
452.49	3758.90
452.68	3740.18
452.86	3798.69
453.05	3880.61
453.23	3920.40
453.42	3948.48
453.60	3782.31
453.78	3962.53
453.97	3927.42
454.15	3723.79
454.34	3932.10
454.52	3974.23
454.70	4074.87
454.89	4107.64
455.07	3946.14
455.26	4037.42
455.44	3978.91
455.62	4070.19
455.81	4023.38
455.99	4163.81
456.17	4093.60
456.36	4156.79
456.54	4236.37
456.73	4201.26
456.91	4358.08
457.09	4379.14
457.28	4362.76
457.46	4205.94
457.64	4348.72
457.83	4393.19
458.01	4182.54
458.19	4311.27
458.38	4264.46
458.56	4395.53
458.74	4493.83
458.93	4491.49
459.11	4409.57
459.29	4451.70
459.48	4538.30
459.66	4329.99
459.84	4533.62
460.03	4566.39
460.21	4521.92
460.39	4585.11
460.57	4528.94
460.76	4475.10
460.94	4528.94
461.12	4669.37
461.31	4692.77
461.49	4564.04
461.67	4531.28
461.85	4709.16
462.04	4582.77
462.22	4711.50
462.40	4753.63
462.59	4744.27
462.77	4809.80
462.95	4788.74
463.13	4856.61
463.32	4837.89
463.50	4755.97
463.68	4772.35
463.86	4884.70
464.05	4807.46
464.23	4826.18
464.41	4870.65
464.59	4758.31
464.78	4903.42
464.96	4999.38
465.14	4891.72
465.32	4903.42
465.50	4961.94
465.69	4985.34
465.87	4938.53
466.05	4844.91
466.23	5036.83
466.41	5015.77
466.60	5130.45
466.78	5001.72
466.96	5008.75
467.14	5137.48
467.32	5132.79
467.51	5137.48
467.69	5090.67
467.87	5132.79
468.05	5139.82
468.23	5062.58
468.41	5228.76
468.60	5032.15
468.78	5294.29
468.96	5198.33
469.14	5301.31
469.32	5338.76
469.50	5186.63
469.69	5359.83
469.87	5401.96
470.05	5345.78
470.23	5291.95
470.41	5247.48
470.59	5252.16
470.77	5331.74
470.95	5394.93
471.14	5446.43
471.32	5479.19
471.50	5682.82
471.68	5495.58
471.86	5640.69
472.04	5633.67
472.22	5760.06
472.40	5596.22
472.58	5650.05
472.77	5703.89
472.95	5788.14
473.13	5998.79
473.31	5774.10
473.49	5818.57
473.67	5769.42
473.85	5795.17
474.03	6003.47
474.21	6057.31
474.39	6108.80
474.57	5912.19
474.75	6090.07
474.93	6202.42
475.12	6104.12
475.30	6225.82
475.48	6139.23
475.66	6223.48
475.84	6132.20
476.02	6338.17
476.20	6373.28
476.38	6476.26
476.56	6633.08
476.74	6441.15
476.92	6455.20
477.10	6633.08
477.28	6675.21
477.46	6492.65
477.64	6612.01
477.82	6548.82
478.00	6906.92
478.18	7016.93
478.36	6993.52
478.54	7026.29
478.72	7077.78
478.90	6937.35
479.08	7187.79
479.26	7363.33
479.44	7021.61
479.62	7012.24
479.80	7269.70
479.98	7424.18
480.16	7489.71
480.34	7407.80
480.52	7782.28
480.70	7698.02
480.88	7611.42
481.06	7641.85
481.24	7588.02
481.41	7707.38
481.59	7840.79
481.77	7985.91
481.95	8028.04
482.13	7922.71
482.31	8093.57
482.49	8386.14
482.67	8180.17
482.85	8510.19
483.03	8442.31
483.21	8519.55
483.39	8601.47
483.57	8435.29
483.74	8690.41
483.92	8753.60
484.10	8683.39
484.28	8835.52
484.46	9116.39
484.64	9078.94
484.82	9001.70
485.00	9027.45
485.18	9205.33
485.35	9312.99
485.53	9294.27
485.71	9638.33
485.89	9549.39
486.07	9493.21
486.25	9586.83
486.43	9603.22
486.61	9708.54
486.78	9736.63
486.96	9823.23
487.14	10071.33
487.32	9900.47
487.50	10132.18
487.68	10164.95
487.85	10174.31
488.03	10401.34
488.21	10501.98
488.39	10764.12
488.57	10462.19
488.75	10743.06
488.92	10834.34
489.10	10808.59
489.28	10930.30
489.46	11129.25
489.64	10923.28
489.81	11321.17
489.99	11101.16
490.17	11393.73
490.35	11384.37
490.53	11587.99
490.70	11543.52
490.88	11365.64
491.06	11522.46
491.24	11864.18
491.41	11719.06
491.59	11836.09
491.77	12011.63
491.95	11992.90
492.13	12325.26
492.30	12107.59
492.48	12042.06
492.66	12175.47
492.84	12446.97
493.01	12400.16
493.19	12564.00
493.37	12851.88
493.54	12732.51
493.72	12784.01
493.90	12826.14
494.08	12975.93
494.25	13083.59
494.43	13078.91
494.61	13312.97
494.79	13167.85
494.96	13242.75
495.14	13151.47
495.32	13645.32
495.49	13745.97
495.67	13345.73
495.85	13947.25
496.02	14064.28
496.20	13860.65
496.38	13905.12
496.55	13738.94
496.73	14230.46
496.91	14253.86
497.09	14239.82
497.26	14448.13
497.44	14258.54
497.62	14462.17
497.79	14436.42
497.97	14736.01
498.14	14883.47
498.32	14801.55
498.50	14867.08
498.67	14862.40
498.85	14864.74
499.03	14988.79
499.20	14899.85
499.38	15082.41
499.56	15169.01
499.73	15295.40
499.91	15393.70
500.08	15314.13
500.26	15225.18
500.44	15545.84
500.61	15321.15
500.79	15279.02
500.97	15747.12
501.14	15807.98
501.32	15632.44
501.49	15976.50
501.67	15770.53
501.84	15967.13
502.02	15845.43
502.20	16210.55
502.37	16203.53
502.55	15934.37
502.72	15833.72
502.90	15960.11
503.07	16194.17
503.25	16336.94
503.43	16257.36
503.60	16334.60
503.78	16589.72
503.95	16681.00
504.13	16603.76
504.30	16542.91
504.48	16257.36
504.65	16596.74
504.83	16945.48
505.01	17123.36
505.18	16936.12
505.36	17165.49
505.53	16772.28
505.71	16985.27
505.88	17142.08
506.06	17057.82
506.23	17366.78
506.41	17294.22
506.58	17408.90
506.76	17322.30
506.93	17348.05
507.11	17238.05
507.28	17376.14
507.46	17528.27
507.63	17731.90
507.81	17970.63
507.98	17273.15
508.16	17591.47
508.33	17568.06
508.50	17769.35
508.68	17954.25
508.85	18075.96
509.03	18090.00
509.20	18256.18
509.38	18286.61
509.55	18090.00
509.73	18305.33
509.90	18349.80
510.08	18291.29
510.25	18012.76
510.42	18270.22
510.60	18871.74
510.77	18787.48
510.95	18761.73
511.12	18300.65
511.30	18693.86
511.47	18548.75
511.64	18703.22
511.82	19098.77
511.99	19119.84
512.17	19021.53
512.34	18904.51
512.51	19058.98
512.69	19302.40
512.86	19171.33
513.04	19257.93
513.21	19297.72
513.38	19499.00
513.56	19740.08
513.73	19506.02
513.90	19346.87
514.08	19307.08
514.25	19756.46
514.43	19611.35
514.60	19639.44
514.77	19950.73
514.95	20002.22
515.12	19651.14
515.29	19775.19
515.47	19721.35
515.64	20056.05
515.81	19814.98
515.99	20156.69
516.16	20212.87
516.33	20098.18
516.51	20381.38
516.68	20149.67
516.85	20393.09
517.03	20383.73
517.20	20482.03
517.37	20467.98
517.54	20470.33
517.72	20507.77
517.89	20702.04
518.06	20552.24
518.24	20669.27
518.41	20716.08
518.58	20903.32
518.75	20680.97
518.93	20732.47
519.10	21130.36
519.27	20762.89
519.45	20959.50
519.62	20985.24
519.79	20924.39
519.96	20924.39
520.14	20950.14
520.31	20905.66
520.48	21511.86
520.65	21336.32
520.83	21366.75
521.00	21242.70
521.17	20992.26
521.34	21448.67
521.52	21132.70
521.69	21483.78
521.86	21638.25
522.03	21884.01
522.20	21947.20
522.38	21661.66
522.55	21797.41
522.72	21839.54
522.89	21778.68
523.07	22075.93
523.24	21991.67
523.41	21975.29
523.58	21926.14
523.75	21977.63
523.92	21706.13
524.10	22150.83
524.27	21998.70
524.44	22349.78
524.61	22733.62
524.78	22427.01
524.96	22267.86
525.13	22476.16
525.30	22677.45
525.47	22728.94
525.64	22324.03
525.81	22780.43
525.98	22794.48
526.16	22899.80
526.33	22370.84
526.50	22937.25
526.67	22408.29
526.84	22661.07
527.01	22469.14
527.18	22986.40
527.36	23243.86
527.53	23271.95
527.70	23154.92
527.87	23290.67
528.04	23178.33
528.21	23236.84
528.38	23129.17
528.55	23016.83
528.72	23489.62
528.89	23332.80
529.07	23517.70
529.24	23250.88
529.41	23124.49
529.58	23381.95
529.75	23506.00
529.92	23447.49
530.09	23311.74
530.26	23669.84
530.43	23730.69
530.60	23613.66
530.77	23601.96
530.94	24011.56
531.11	23440.47
531.28	23690.90
531.46	23344.50
531.63	24027.94
531.80	23927.30
531.97	23939.00
532.14	24121.56
532.31	23939.00
532.48	23903.89
532.65	24297.10
532.82	24053.69
532.99	24205.82
533.16	23934.32
533.33	24360.30
533.50	24936.07
533.67	24201.14
533.84	24318.17
534.01	24168.37
534.18	24053.69
534.35	24489.03
534.52	24533.50
534.69	24622.44
534.86	24624.78
535.03	24725.42
535.20	24496.05
535.37	24631.80
535.54	24898.62
535.71	24542.86
535.88	24702.01
536.05	24666.91
536.22	24694.99
536.38	25373.75
536.55	24912.66
536.72	25064.80
536.89	24891.60
537.06	24816.70
537.23	25195.87
537.40	25191.19
537.57	24657.54
537.74	25064.80
537.91	25380.77
538.08	25486.09
538.25	25352.68
538.42	25151.40
538.59	25387.79
538.75	25092.88
538.92	25385.45
539.09	25298.85
539.26	25394.81
539.43	25729.51
539.60	25668.66
539.77	25296.51
539.94	25652.27
540.11	25544.61
540.28	25252.04
540.44	25607.80
540.61	25088.20
540.78	25766.96
540.95	25465.03
541.12	25500.14
541.29	25500.14
541.46	25610.14
541.62	25642.91
541.79	26031.44
541.96	25607.80
542.13	26221.02
542.30	25776.32
542.47	25886.32
542.63	25872.28
542.80	26206.98
542.97	26363.79
543.14	26316.98
543.31	26419.97
543.48	25989.31
543.64	26483.16
543.81	26342.73
543.98	26672.74
544.15	26792.11
544.32	26871.69
544.48	26677.43
544.65	26422.31
544.82	26567.42
544.99	26265.49
545.16	26387.20
545.32	26387.20
545.49	26955.95
545.66	26698.49
545.83	26878.71
546.00	26757.00
546.16	26656.36
546.33	26588.49
546.50	26188.25
546.67	26885.73
546.83	26803.82
547.00	26728.92
547.17	26897.44
547.34	26558.06
547.50	27178.30
547.67	27201.71
547.84	27398.31
548.00	27133.83
548.17	26827.22
548.34	27213.41
548.51	27466.19
548.67	27304.69
548.84	26745.30
549.01	26941.91
549.18	26859.99
549.34	26986.38
549.51	27283.62
549.68	27180.64
549.84	26820.20
550.01	27255.54
550.18	27269.58
550.34	27321.07
550.51	27339.80
550.68	27431.08
550.84	26925.52
551.01	27356.18
551.18	27377.25
551.34	27178.30
551.51	27452.14
551.68	27592.58
551.84	27550.45
552.01	27395.97
552.18	27805.56
552.34	27772.80
552.51	27754.07
552.68	27419.38
552.84	27627.68
553.01	27557.47
553.18	27889.82
553.34	28009.19
553.51	27922.59
553.67	28126.22
553.84	27971.74
554.01	28067.70
554.17	27594.92
554.34	27962.38
554.51	28011.53
554.67	27920.25
554.84	28149.62
555.00	28175.37
555.17	28023.23
555.33	28320.48
555.50	27985.79
555.67	28011.53
555.83	27634.71
556.00	27934.29
556.16	28350.91
556.33	28182.39
556.50	28503.04
556.66	28549.85
556.83	28374.31
556.99	28561.56
557.16	28414.10
557.32	28437.51
557.49	28463.25
557.65	28065.36
557.82	28460.91
557.98	28084.09
558.15	28421.13
558.32	28208.14
558.48	28247.93
558.65	28610.71
558.81	28603.69
558.98	28318.14
559.14	28762.84
559.31	28835.40
559.47	28173.03
559.64	28526.45
559.80	28863.49
559.97	28636.45
560.13	28292.40
560.30	28629.43
560.46	28556.88
560.63	28819.02
560.79	28655.18
560.96	28847.10
561.12	28905.62
561.29	28514.75
561.45	28596.67
561.61	28795.61
561.78	28943.06
561.94	28783.91
562.11	29153.71
562.27	28467.94
562.44	29027.32
562.60	28954.77
562.77	28783.91
562.93	28648.16
563.10	29223.93
563.26	28774.55
563.42	29336.27
563.59	28842.42
563.75	29064.77
563.92	29226.27
564.08	28793.27
564.24	28912.64
564.41	29123.29
564.57	28889.23
564.74	29036.69
564.90	29184.14
565.07	29312.87
565.23	29296.49
565.39	28968.81
565.56	29064.77
565.72	28950.09
565.88	29067.11
566.05	29003.92
566.21	28748.80
566.38	28912.64
566.54	29418.19
566.70	29427.56
566.87	29359.68
567.03	29006.26
567.19	29380.74
567.36	29544.58
567.52	29013.28
567.68	29387.77
567.85	29390.11
568.01	29060.09
568.17	28875.19
568.34	29450.96
568.50	29172.44
568.66	29352.66
568.83	29247.33
568.99	29514.16
569.15	29390.11
569.32	29064.77
569.48	28985.19
569.64	29406.49
569.81	29535.22
569.97	29177.12
570.13	29153.71
570.30	29214.57
570.46	29415.85
570.62	29317.55
570.78	29427.56
570.95	29123.29
571.11	29275.42
571.27	29638.20
571.43	29078.82
571.60	29497.77
571.76	29146.69
571.92	29680.33
572.09	29687.36
572.25	29621.82
572.41	29509.47
572.57	29607.78
572.74	29336.27
572.90	29069.45
573.06	29345.64
573.22	29741.19
573.38	29848.85
573.55	29219.25
573.71	29635.86
573.87	29731.83
574.03	29591.39
574.20	29617.14
574.36	29687.36
574.52	29582.03
574.68	29806.72
574.84	29575.01
575.01	29600.76
575.17	29156.05
575.33	29357.34
575.49	29699.06
575.65	29963.54
575.82	29539.90
575.98	29378.40
576.14	29544.58
576.30	29572.67
576.46	29443.94
576.62	29771.61
576.79	29612.46
576.95	29614.80
577.11	29446.28
577.27	29708.42
577.43	30108.65
577.59	29638.20
577.75	29654.59
577.92	29448.62
578.08	29394.79
578.24	29399.47
578.40	29528.20
578.56	29743.53
578.72	29605.44
578.88	30099.29
579.04	29780.98
579.21	29387.77
579.37	29921.41
579.53	29717.78
579.69	29879.28
579.85	29743.53
580.01	29788.00
580.17	29795.02
580.33	29626.50
580.49	29481.39
580.65	30185.89
580.82	29736.51
580.98	29652.25
581.14	30022.05
581.30	29909.71
581.46	29785.66
581.62	29989.28
581.78	29441.60
581.94	30106.31
582.10	29893.32
582.26	29378.40
582.42	29397.13
582.58	30012.69
582.74	29977.58
582.90	29968.22
583.06	29869.92
583.22	29965.88
583.38	29855.87
583.54	29837.15
583.70	29701.40
583.86	29825.45
584.02	29469.69
584.18	30008.01
584.34	29923.75
584.50	29930.77
584.66	29673.31
584.82	29488.41
584.98	30019.71
585.14	30136.74
585.30	29266.06
585.46	29364.36
585.62	29715.44
585.78	29972.90
585.94	29439.26
586.10	30000.99
586.26	29902.68
586.42	29949.50
586.58	29656.93
586.74	29656.93
586.90	29715.44
587.06	29385.43
587.22	29867.58
587.38	29614.80
587.54	30047.80
587.70	30047.80
587.86	30352.07
588.02	30136.74
588.18	30361.43
588.34	30199.93
588.49	29797.36
588.65	29844.17
588.81	30181.21
588.97	29914.39
589.13	30005.67
589.29	29631.18
589.45	29738.85
589.61	29970.56
589.77	30101.63
589.93	30331.00
590.08	30302.92
590.24	30403.56
590.40	30127.38
590.56	30405.90
590.72	30129.72
590.88	29907.37
591.04	29848.85
591.20	30719.53
591.35	30352.07
591.51	30176.53
591.67	30176.53
591.83	30593.14
591.99	30305.26
