SpectraSuite Data File
++++++++++++++++++++++++++++++++++++
Date: Fri Oct 18 13:58:09 GMT-05:00 2013
User: bianchi
Dark Spectrum Present: No
Reference Spectrum Present: No
Number of Sampled Component Spectra: 1
Spectrometers: USB2+H05261
Integration Time (usec): 50000 (USB2+H05261)
Spectra Averaged: 1 (USB2+H05261)
Boxcar Smoothing: 0 (USB2+H05261)
Correct for Electrical Dark: No (USB2+H05261)
Strobe/Lamp Enabled: No (USB2+H05261)
Correct for Detector Non-linearity: No (USB2+H05261)
Correct for Stray Light: No (USB2+H05261)
Number of Pixels in Processed Spectrum: 2048
>>>>>Begin Processed Spectral Data<<<<<
365.73	0.00
365.92	0.00
366.12	0.00
366.32	0.00
366.52	0.00
366.72	0.00
366.91	0.00
367.11	0.00
367.31	0.00
367.51	0.00
367.70	0.00
367.90	0.00
368.10	0.00
368.30	0.00
368.49	0.00
368.69	0.00
368.89	0.00
369.09	0.00
369.28	0.00
369.48	0.00
369.68	0.00
369.87	0.00
370.07	0.00
370.27	0.00
370.47	0.00
370.66	107.66
370.86	63.19
371.06	88.94
371.25	105.32
371.45	177.88
371.65	173.20
371.84	189.58
372.04	175.54
372.24	163.84
372.44	149.79
372.63	189.58
372.83	245.76
373.03	278.52
373.22	163.84
373.42	173.20
373.62	227.03
373.81	184.90
374.01	273.84
374.21	217.67
374.40	191.92
374.60	203.63
374.79	210.65
374.99	215.33
375.19	304.27
375.38	271.50
375.58	285.55
375.78	292.57
375.97	322.99
376.17	285.55
376.37	299.59
376.56	238.73
376.76	255.12
376.95	276.18
377.15	234.05
377.35	339.38
377.54	311.29
377.74	283.20
377.93	304.27
378.13	344.06
378.33	301.93
378.52	330.02
378.72	320.65
378.91	283.20
379.11	330.02
379.31	365.12
379.50	337.04
379.70	379.17
379.89	369.80
380.09	269.16
380.28	273.84
380.48	334.70
380.68	325.33
380.87	273.84
381.07	320.65
381.26	341.72
381.46	383.85
381.65	386.19
381.85	332.36
382.04	299.59
382.24	297.25
382.43	351.08
382.63	273.84
382.83	341.72
383.02	229.37
383.22	287.89
383.41	330.02
383.61	353.42
383.80	395.55
384.00	358.10
384.19	341.72
384.39	334.70
384.58	395.55
384.78	348.74
384.97	386.19
385.17	411.93
385.36	367.46
385.56	400.23
385.75	390.87
385.95	414.27
386.14	407.25
386.34	435.34
386.53	421.30
386.72	369.80
386.92	395.55
387.11	440.02
387.31	416.62
387.50	435.34
387.70	482.15
387.89	374.49
388.09	404.91
388.28	491.51
388.48	465.77
388.67	482.15
388.86	477.47
389.06	388.53
389.25	430.66
389.45	463.43
389.64	465.77
389.84	472.79
390.03	505.56
390.22	524.28
390.42	437.68
390.61	428.32
390.81	484.49
391.00	519.60
391.19	552.37
391.39	505.56
391.58	493.85
391.78	528.96
391.97	624.92
392.16	573.43
392.36	641.31
392.55	596.84
392.75	526.62
392.94	641.31
393.13	566.41
393.33	528.96
393.52	543.00
393.71	606.20
393.91	610.88
394.10	608.54
394.29	606.20
394.49	550.03
394.68	610.88
394.88	580.45
395.07	571.09
395.26	531.30
395.46	667.05
395.65	692.80
395.84	643.65
396.04	716.20
396.23	636.63
396.42	746.63
396.62	664.71
396.81	709.18
397.00	631.94
397.19	711.52
397.39	723.23
397.58	697.48
397.77	704.50
397.97	727.91
398.16	704.50
398.35	653.01
398.55	734.93
398.74	781.74
398.93	784.08
399.12	746.63
399.32	763.01
399.51	758.33
399.70	727.91
399.90	746.63
400.09	751.31
400.28	812.17
400.47	753.65
400.67	837.91
400.86	755.99
401.05	748.97
401.24	786.42
401.44	833.23
401.63	828.55
401.82	781.74
402.01	856.64
402.21	807.48
402.40	802.80
402.59	772.38
402.78	856.64
402.97	812.17
403.17	908.13
403.36	973.66
403.55	898.77
403.74	926.85
403.93	959.62
404.13	924.51
404.32	959.62
404.51	905.79
404.70	929.19
404.89	922.17
405.09	1050.90
405.28	861.32
405.47	987.71
405.66	1020.47
405.85	966.64
406.05	987.71
406.24	1001.75
406.43	992.39
406.62	901.11
406.81	1093.03
407.00	1029.84
407.20	1057.92
407.39	1062.60
407.58	1062.60
407.77	1001.75
407.96	1118.78
408.15	1081.33
408.34	1142.18
408.54	1167.93
408.73	1076.65
408.92	1022.81
409.11	1102.39
409.30	1217.08
409.49	1196.01
409.68	1149.20
409.87	1210.06
410.07	1217.08
410.26	1238.14
410.45	1151.54
410.64	1181.97
410.83	1193.67
411.02	1160.91
411.21	1308.36
411.40	1233.46
411.59	1240.48
411.78	1301.34
411.98	1275.59
412.17	1366.87
412.36	1315.38
412.55	1331.76
412.74	1359.85
412.93	1399.64
413.12	1343.47
413.31	1376.24
413.50	1343.47
413.69	1460.49
413.88	1437.09
414.07	1423.05
414.26	1439.43
414.45	1406.66
414.64	1488.58
414.83	1584.54
415.02	1423.05
415.22	1542.41
415.41	1664.12
415.60	1598.59
415.79	1598.59
415.98	1605.61
416.17	1666.46
416.36	1607.95
416.55	1612.63
416.74	1671.14
416.93	1650.08
417.12	1633.69
417.31	1837.32
417.50	1736.68
417.69	1816.26
417.88	1799.87
418.07	1795.19
418.26	1755.40
418.45	1827.96
418.64	1834.98
418.83	1860.73
419.02	1820.94
419.21	1792.85
419.39	1804.55
419.58	1825.62
419.77	1844.34
419.96	1839.66
420.15	1998.82
420.34	1916.90
420.53	1949.67
420.72	2012.86
420.91	1912.22
421.10	1977.75
421.29	2005.84
421.48	1963.71
421.67	2076.06
421.86	2010.52
422.05	2052.65
422.24	1909.88
422.43	1991.80
422.61	1949.67
422.80	1994.14
422.99	2076.06
423.18	2155.63
423.37	2221.17
423.56	2115.84
423.75	1963.71
423.94	1937.96
424.13	1970.73
424.32	1980.09
424.50	2118.18
424.69	2165.00
424.88	2106.48
425.07	2019.88
425.26	2134.57
425.45	2062.01
425.64	2097.12
425.83	2054.99
426.01	2064.35
426.20	2054.99
426.39	2099.46
426.58	1977.75
426.77	2015.20
426.96	2141.59
427.15	2143.93
427.33	2162.66
427.52	2141.59
427.71	2246.91
427.90	2129.89
428.09	2195.42
428.28	2239.89
428.46	2181.38
428.65	2265.64
428.84	2263.30
429.03	2251.60
429.22	2260.96
429.40	2403.73
429.59	2387.35
429.78	2127.55
429.97	2167.34
430.16	2235.21
430.34	2293.72
430.53	2420.11
430.72	2385.01
430.91	2253.94
431.10	2228.19
431.28	2459.90
431.47	2445.86
431.66	2455.22
431.85	2413.09
432.03	2490.33
432.22	2499.69
432.41	2441.18
432.60	2506.71
432.79	2485.65
432.97	2675.23
433.16	2551.18
433.35	2394.37
433.54	2443.52
433.72	2605.02
433.91	2499.69
434.10	2619.06
434.28	2665.87
434.47	2672.89
434.66	2719.70
434.85	2595.65
435.03	2626.08
435.22	2656.51
435.41	2740.77
435.59	2651.83
435.78	2602.68
435.97	2731.41
436.16	2693.96
436.34	2743.11
436.53	2712.68
436.72	2691.62
436.90	2654.17
437.09	2808.64
437.28	2761.83
437.46	2743.11
437.65	2768.85
437.84	2890.56
438.02	2810.98
438.21	2785.24
438.40	2677.57
438.58	2885.88
438.77	2911.63
438.96	3000.57
439.14	2974.82
439.33	2991.20
439.52	2818.00
439.70	2951.42
439.89	3173.77
440.08	3145.68
440.26	3164.40
440.45	3042.70
440.63	3012.27
440.82	3258.03
441.01	3080.14
441.19	3155.04
441.38	3218.24
441.57	3274.41
441.75	3286.11
441.94	3351.65
442.12	3342.28
442.31	3428.88
442.50	3466.33
442.68	3501.44
442.87	3421.86
443.05	3393.78
443.24	3510.80
443.43	3426.54
443.61	3454.63
443.80	3581.02
443.98	3330.58
444.17	3232.28
444.35	3569.32
444.54	3641.87
444.73	3314.20
444.91	3440.59
445.10	3531.87
445.28	3548.25
445.47	3405.48
445.65	3562.30
445.84	3496.76
446.02	3606.77
446.21	3529.53
446.39	3496.76
446.58	3639.53
446.77	3499.10
446.95	3445.27
447.14	3564.64
447.32	3583.36
447.51	3517.83
447.69	3531.87
447.88	3559.95
448.06	3534.21
448.25	3468.67
448.43	3693.37
448.62	3475.70
448.80	3620.81
448.99	3646.55
449.17	3662.94
449.36	3653.58
449.54	3880.61
449.73	3735.50
449.91	3751.88
450.10	3648.90
450.28	3925.08
450.46	3808.05
450.65	3761.24
450.83	3698.05
451.02	3929.76
451.20	3815.07
451.39	3784.65
451.57	3873.59
451.76	3815.07
451.94	3894.65
452.13	3904.01
452.31	4004.66
452.49	3812.73
452.68	3904.01
452.86	3915.72
453.05	4025.72
453.23	4053.81
453.42	3861.88
453.60	3836.14
453.78	3946.14
453.97	3943.80
454.15	4037.42
454.34	4079.55
454.52	4091.26
454.70	4011.68
454.89	4152.11
455.07	4018.70
455.26	4091.26
455.44	4142.75
455.62	4156.79
455.81	4257.43
455.99	4297.22
456.17	4145.09
456.36	4156.79
456.54	4262.12
456.73	4245.73
456.91	4311.27
457.09	4374.46
457.28	4477.44
457.46	4395.53
457.64	4432.97
457.83	4465.74
458.01	4329.99
458.19	4531.28
458.38	4407.23
458.56	4636.60
458.74	4526.60
458.93	4379.14
459.11	4472.76
459.29	4456.38
459.48	4390.84
459.66	4610.86
459.84	4676.39
460.03	4713.84
460.21	4772.35
460.39	4610.86
460.57	4475.10
460.76	4608.51
460.94	4688.09
461.12	4704.48
461.31	4643.62
461.49	4589.79
461.67	4674.05
461.85	4777.03
462.04	4926.83
462.22	5034.49
462.40	4805.12
462.59	4840.23
462.77	4800.44
462.95	4880.02
463.13	4964.28
463.32	4856.61
463.50	4959.60
463.68	5156.20
463.86	4880.02
464.05	4980.66
464.23	4685.75
464.41	4947.89
464.59	4762.99
464.78	4980.66
464.96	4983.00
465.14	4896.40
465.32	5097.69
465.50	5153.86
465.69	5144.50
465.87	4980.66
466.05	5093.01
466.23	5107.05
466.41	5193.65
466.60	5107.05
466.78	5095.35
466.96	5057.90
467.14	5184.29
467.32	5224.08
467.51	5291.95
467.69	5095.35
467.87	5170.24
468.05	5394.93
468.23	5254.50
468.41	5160.88
468.60	5296.63
468.78	5369.19
468.96	5322.38
469.14	5348.12
469.32	5348.12
469.50	5242.80
469.69	5425.36
469.87	5392.59
470.05	5474.51
470.23	5453.45
470.41	5507.28
470.59	5425.36
470.77	5437.06
470.95	5493.24
471.14	5750.70
471.32	5542.39
471.50	5692.18
471.68	5720.27
471.86	5760.06
472.04	5636.01
472.22	5799.85
472.40	5696.86
472.58	5865.38
472.77	6022.20
472.95	5951.98
473.13	6150.93
473.31	5947.30
473.49	6157.95
473.67	5982.41
473.85	6003.47
474.03	6169.65
474.21	6122.84
474.39	6279.66
474.57	6207.10
474.75	6209.44
474.93	6270.30
475.12	6141.57
475.30	6221.14
475.48	6359.24
475.66	6380.30
475.84	6408.39
476.02	6450.52
476.20	6448.18
476.38	6649.46
476.56	6513.71
476.74	6750.10
476.92	6597.97
477.10	6808.62
477.28	6806.28
477.46	6754.79
477.64	6677.55
477.82	6876.49
478.00	7129.27
478.18	7077.78
478.36	7248.64
478.54	7201.83
478.72	7286.09
478.90	7234.60
479.08	7396.09
479.26	7531.84
479.44	7356.30
479.62	7405.46
479.80	7466.31
479.98	7503.76
480.16	7707.38
480.34	7606.74
480.52	7728.45
480.70	7943.78
480.88	7721.43
481.06	7779.94
481.24	7822.07
481.41	7810.37
481.59	8095.91
481.77	8313.58
481.95	8395.50
482.13	8173.15
482.31	8311.24
482.49	8416.57
482.67	8369.76
482.85	8437.63
483.03	8531.25
483.21	8692.75
483.39	8711.47
483.57	8889.35
483.74	8933.82
483.92	8975.95
484.10	8849.57
484.28	9149.15
484.46	9149.15
484.64	9401.93
484.82	9249.80
485.00	9242.78
485.18	9551.73
485.35	9434.70
485.53	9427.68
485.71	9561.09
485.89	9905.15
486.07	9928.55
486.25	9727.27
486.43	9895.78
486.61	9865.36
486.78	10015.15
486.96	10010.47
487.14	10403.68
487.32	10310.06
487.50	10272.61
487.68	10649.44
487.85	10523.05
488.03	10700.93
488.21	10796.89
488.39	10782.85
488.57	10670.50
488.75	10745.40
488.92	10984.13
489.10	11220.53
489.28	11117.54
489.46	11384.37
489.64	11147.97
489.81	11534.16
489.99	11808.00
490.17	11700.34
490.35	11449.90
490.53	11800.98
490.70	11653.53
490.88	11630.12
491.06	11922.69
491.24	11892.26
491.41	11978.86
491.59	12098.23
491.77	11880.56
491.95	12224.62
492.13	12554.63
492.30	12542.93
492.48	12767.62
492.66	12512.50
492.84	12657.62
493.01	12812.09
493.19	12814.43
493.37	13121.04
493.54	13088.28
493.72	13041.46
493.90	13128.06
494.08	13315.31
494.25	13371.48
494.43	13355.10
494.61	13591.49
494.79	13671.07
494.96	13872.36
495.14	13507.23
495.32	13675.75
495.49	14047.90
495.67	13907.46
495.85	13736.60
496.02	13930.87
496.20	14155.56
496.38	14295.99
496.55	14293.65
496.73	14586.22
496.91	14693.88
497.09	14464.51
497.26	14815.59
497.44	14567.49
497.62	14714.95
497.79	14862.40
497.97	14766.44
498.14	15215.82
498.32	15124.54
498.50	15035.60
498.67	15587.97
498.85	15431.15
499.03	15323.49
499.20	15169.01
499.38	15473.28
499.56	15585.63
499.73	15594.99
499.91	15807.98
500.08	15824.36
500.26	15744.78
500.44	15749.46
500.61	15929.69
500.79	15985.86
500.97	16020.97
501.14	16285.45
501.32	16418.86
501.49	16156.72
501.67	16259.70
501.84	16297.15
502.02	16425.88
502.20	16458.65
502.37	16617.80
502.55	16634.19
502.72	16725.47
502.90	16468.01
503.07	16666.95
503.25	16449.28
503.43	16559.29
503.60	16861.22
503.78	17275.49
503.95	16758.24
504.13	16985.27
504.30	17163.15
504.48	17092.93
504.65	17231.02
504.83	17305.92
505.01	17392.52
505.18	17455.72
505.36	17366.78
505.53	17240.39
505.71	17521.25
505.88	17558.70
506.06	17516.57
506.23	17872.33
506.41	17696.79
506.58	17825.52
506.76	17671.04
506.93	17893.40
507.11	17802.11
507.28	17862.97
507.46	17762.33
507.63	18029.15
507.81	18377.89
507.98	18272.56
508.16	18092.34
508.33	18312.35
508.50	18164.90
508.68	18223.41
508.85	18457.46
509.03	18623.64
509.20	18572.15
509.38	18663.43
509.55	18979.40
509.73	18899.83
509.90	18871.74
510.08	18883.44
510.25	18693.86
510.42	18970.04
510.60	18874.08
510.77	19225.16
510.95	19094.09
511.12	19248.57
511.30	18745.35
511.47	19311.76
511.64	19218.14
511.82	19501.34
511.99	19412.40
512.17	19613.69
512.34	19899.23
512.51	19604.33
512.69	19484.96
512.86	19484.96
513.04	19807.95
513.21	19646.46
513.38	20063.07
513.56	20201.16
513.73	20023.28
513.90	19768.16
514.08	19985.83
514.25	19763.48
514.43	20231.59
514.60	20144.99
514.77	20226.91
514.95	20519.48
515.12	20297.13
515.29	20346.28
515.47	20599.05
515.64	20776.94
515.81	20198.82
515.99	20706.72
516.16	20587.35
516.33	20648.21
516.51	20475.01
516.68	20858.85
516.85	20943.11
517.03	20961.84
517.20	20826.09
517.37	21050.78
517.54	20940.77
517.72	20893.96
517.89	20905.66
518.06	21013.33
518.24	20961.84
518.41	21188.87
518.58	21249.72
518.75	21401.86
518.93	21521.23
519.10	21668.68
519.27	21612.51
519.45	21453.35
519.62	21708.47
519.79	21436.97
519.96	21717.83
520.14	22017.42
520.31	21898.05
520.48	22040.82
520.65	21891.03
520.83	22008.06
521.00	21984.65
521.17	21734.21
521.34	21790.39
521.52	21989.33
521.69	22040.82
521.86	22469.14
522.03	22089.98
522.20	22403.61
522.38	22251.47
522.55	22270.20
522.72	22164.87
522.89	22347.44
523.07	22462.12
523.24	22464.46
523.41	22511.27
523.58	22625.96
523.75	22745.33
523.92	22452.76
524.10	22530.00
524.27	22953.63
524.44	22993.42
524.61	23328.12
524.78	22934.91
524.96	23185.35
525.13	23293.01
525.30	23124.49
525.47	23087.04
525.64	23257.90
525.81	23318.76
525.98	23651.11
526.16	23222.80
526.33	23213.43
526.50	23262.58
526.67	22998.10
526.84	23456.85
527.01	23290.67
527.18	23889.85
527.36	23475.57
527.53	23618.35
527.70	23936.66
527.87	24039.64
528.04	23735.37
528.21	23761.12
528.38	23969.43
528.55	23613.66
528.72	23735.37
528.89	23711.97
529.07	23770.48
529.24	23852.40
529.41	23934.32
529.58	23971.77
529.75	23854.74
529.92	24149.65
530.09	23875.80
530.26	24559.24
530.43	24105.18
530.60	24250.29
530.77	24067.73
530.94	24407.11
531.11	24357.96
531.28	24051.34
531.46	24463.28
531.63	24432.85
531.80	24500.73
531.97	24697.33
532.14	24533.50
532.31	24629.46
532.48	24603.71
532.65	24723.08
532.82	24819.04
532.99	24882.24
533.16	24547.54
533.33	24849.47
533.50	25443.96
533.67	25408.86
533.84	24746.48
534.01	24807.34
534.18	24980.54
534.35	25458.01
534.52	25235.66
534.69	25266.08
534.86	25443.96
535.03	24985.22
535.20	24924.36
535.37	25525.88
535.54	25523.54
535.71	25163.10
535.88	25120.97
536.05	25202.89
536.22	25493.12
536.38	25612.48
536.55	25324.60
536.72	25729.51
536.89	25455.67
537.06	25469.71
537.23	25631.21
537.40	25497.80
537.57	25818.45
537.74	25399.49
537.91	25949.52
538.08	25883.98
538.25	25617.16
538.42	25813.77
538.59	26136.76
538.75	25916.75
538.92	26174.21
539.09	26057.18
539.26	25867.60
539.43	26307.62
539.60	26127.40
539.77	26082.93
539.94	26370.82
540.11	26005.69
540.28	26256.13
540.44	26157.83
540.61	26443.37
540.78	26071.23
540.95	26370.82
541.12	26499.55
541.29	26602.53
541.46	26321.66
541.62	26483.16
541.79	26546.36
541.96	26197.62
542.13	26450.39
542.30	26389.54
542.47	26270.17
542.63	26778.07
542.80	26700.83
542.97	26656.36
543.14	27152.55
543.31	26749.98
543.48	26532.31
543.64	27168.94
543.81	27051.91
543.98	27199.37
544.15	27047.23
544.32	26981.70
544.48	27388.95
544.65	27204.05
544.82	27391.29
544.99	26955.95
545.16	27264.90
545.32	27316.39
545.49	27711.94
545.66	27351.50
545.83	27398.31
546.00	27545.76
546.16	27288.31
546.33	27702.58
546.50	26991.06
546.67	27604.28
546.83	27412.35
547.00	27686.20
547.17	27360.86
547.34	27924.93
547.50	27826.63
547.67	28116.86
547.84	27461.51
548.00	27990.47
548.17	27821.95
548.34	27894.50
548.51	27946.00
548.67	27601.94
548.84	27971.74
549.01	27953.02
549.18	27948.34
549.34	27747.05
549.51	27707.26
549.68	27906.21
549.84	27817.27
550.01	28084.09
550.18	27927.27
550.34	28147.28
550.51	28404.74
550.68	28390.70
550.84	28166.01
551.01	28177.71
551.18	28034.94
551.34	27866.42
551.51	28119.20
551.68	28371.97
551.84	28449.21
552.01	28189.41
552.18	28498.36
552.34	28306.44
552.51	28505.38
552.68	28144.94
552.84	28205.80
553.01	28486.66
553.18	28477.30
553.34	28638.80
553.51	28582.62
553.67	28528.79
553.84	29036.69
554.01	28762.84
554.17	28390.70
554.34	28723.05
554.51	28273.67
554.67	28975.83
554.84	28615.39
555.00	28334.53
555.17	28451.55
555.33	29029.66
555.50	28807.31
555.67	28840.08
555.83	28889.23
556.00	28781.57
556.16	28938.38
556.33	29060.09
556.50	28903.28
556.66	29163.08
556.83	28861.15
556.99	28795.61
557.16	29214.57
557.32	28945.41
557.49	29188.82
557.65	28971.15
557.82	29020.30
557.98	29254.36
558.15	29149.03
558.32	29186.48
558.48	29394.79
558.65	29102.22
558.81	29462.66
558.98	29170.10
559.14	29582.03
559.31	29212.23
559.47	29326.91
559.64	29331.59
559.80	29649.91
559.97	29518.84
560.13	29270.74
560.30	29530.54
560.46	29839.49
560.63	29532.88
560.79	29228.61
560.96	29699.06
561.12	29242.65
561.29	29422.87
561.45	29689.70
561.61	29682.67
561.78	29830.13
561.94	29752.89
562.11	29551.60
562.27	29724.80
562.44	29570.33
562.60	29617.14
562.77	29663.95
562.93	29408.83
563.10	29738.85
563.26	29612.46
563.42	30061.84
563.59	29535.22
563.75	29366.70
563.92	30036.09
564.08	29490.75
564.24	29722.46
564.41	29642.88
564.57	29528.20
564.74	29963.54
564.90	30363.77
565.07	29986.94
565.23	29731.83
565.39	29532.88
565.56	30457.39
565.72	29724.80
565.88	29797.36
566.05	29888.64
566.21	29750.55
566.38	30171.85
566.54	29991.62
566.70	30134.40
566.87	30457.39
567.03	30192.91
567.19	30052.48
567.36	30064.18
567.52	29759.91
567.68	30452.71
567.85	29912.05
568.01	29944.81
568.17	30401.22
568.34	30054.82
568.50	30522.93
568.66	29888.64
568.83	30115.67
568.99	30246.74
569.15	30026.73
569.32	30522.93
569.48	30174.19
569.64	30316.96
569.81	30422.28
569.97	30249.08
570.13	30312.28
570.30	30281.85
570.46	30499.52
570.62	30232.70
570.78	30338.02
570.95	29989.28
571.11	30204.61
571.27	29797.36
571.43	30312.28
571.60	30281.85
571.76	30321.64
571.92	30160.14
572.09	30738.26
572.25	30782.73
572.41	30431.65
572.57	30436.33
572.74	30682.08
572.90	30157.80
573.06	30263.13
573.22	30258.45
573.38	30443.35
573.55	30022.05
573.71	30740.60
573.87	30342.70
574.03	30279.51
574.20	30471.43
574.36	30176.53
574.52	30288.87
574.68	30118.01
574.84	30658.68
575.01	30689.10
575.17	30202.27
575.33	30389.52
575.49	30785.07
575.65	30029.07
575.82	30396.54
575.98	30391.86
576.14	30328.66
576.30	30302.92
576.46	30443.35
576.62	30192.91
576.79	30752.30
576.95	30609.53
577.11	30993.37
577.27	30930.18
577.43	30771.02
577.59	30895.07
577.75	30724.21
577.92	30008.01
578.08	30661.02
578.24	30529.95
578.40	30452.71
578.56	30532.29
578.72	30366.11
578.88	31166.57
579.04	31185.30
579.21	30920.82
579.37	30548.67
579.53	30595.48
579.69	30476.12
579.85	30487.82
580.01	30661.02
580.17	30469.09
580.33	30520.59
580.49	30595.48
580.65	30890.39
580.82	30614.21
580.98	30775.70
581.14	30986.35
581.30	30761.66
581.46	30597.82
581.62	30354.41
581.78	30504.20
581.94	30553.35
582.10	30848.26
582.26	30742.94
582.42	30487.82
582.58	30803.79
582.74	30735.92
582.90	30719.53
583.06	30539.31
583.22	30567.40
583.38	30415.26
583.54	30665.70
583.70	30431.65
583.86	30352.07
584.02	30342.70
584.18	30785.07
584.34	30740.60
584.50	31028.48
584.66	30670.38
584.82	30677.40
584.98	30876.35
585.14	30682.08
585.30	30712.51
585.46	30314.62
585.62	30913.80
585.78	30864.64
585.94	30457.39
586.10	30810.81
586.26	30663.36
586.42	31157.21
586.58	31030.82
586.74	30677.40
586.90	30665.70
587.06	30817.83
587.22	30794.43
587.38	30768.68
587.54	30876.35
587.70	31260.20
587.86	30675.06
588.02	31182.96
588.18	31138.49
588.34	30890.39
588.49	31047.21
588.65	30972.31
588.81	30822.51
588.97	30948.90
589.13	30536.97
589.29	31016.78
589.45	30782.73
589.61	31058.91
589.77	31372.54
589.93	31297.64
590.08	30969.97
590.24	31695.53
590.40	30984.01
590.56	31166.57
590.72	30756.98
590.88	31068.27
591.04	31065.93
591.20	31271.90
591.35	31639.36
591.51	30974.65
591.67	31079.97
591.83	32135.56
591.99	31232.11
