SpectraSuite Data File
++++++++++++++++++++++++++++++++++++
Date: Fri Oct 18 13:58:16 GMT-05:00 2013
User: bianchi
Dark Spectrum Present: No
Reference Spectrum Present: No
Number of Sampled Component Spectra: 1
Spectrometers: USB2+H05261
Integration Time (usec): 50000 (USB2+H05261)
Spectra Averaged: 1 (USB2+H05261)
Boxcar Smoothing: 0 (USB2+H05261)
Correct for Electrical Dark: No (USB2+H05261)
Strobe/Lamp Enabled: No (USB2+H05261)
Correct for Detector Non-linearity: No (USB2+H05261)
Correct for Stray Light: No (USB2+H05261)
Number of Pixels in Processed Spectrum: 2048
>>>>>Begin Processed Spectral Data<<<<<
365.73	0.00
365.92	0.00
366.12	0.00
366.32	0.00
366.52	0.00
366.72	0.00
366.91	0.00
367.11	0.00
367.31	0.00
367.51	0.00
367.70	0.00
367.90	0.00
368.10	0.00
368.30	0.00
368.49	0.00
368.69	0.00
368.89	0.00
369.09	0.00
369.28	0.00
369.48	0.00
369.68	0.00
369.87	0.00
370.07	0.00
370.27	0.00
370.47	0.00
370.66	23.41
370.86	77.24
371.06	149.79
371.25	140.43
371.45	173.20
371.65	133.41
371.84	196.60
372.04	250.44
372.24	208.31
372.44	142.77
372.63	161.50
372.83	222.35
373.03	257.46
373.22	159.16
373.42	229.37
373.62	189.58
373.81	259.80
374.01	299.59
374.21	234.05
374.40	262.14
374.60	276.18
374.79	231.71
374.99	107.66
375.19	238.73
375.38	290.23
375.58	238.73
375.78	203.63
375.97	203.63
376.17	315.97
376.37	243.42
376.56	292.57
376.76	227.03
376.95	306.61
377.15	198.95
377.35	292.57
377.54	250.44
377.74	217.67
377.93	273.84
378.13	259.80
378.33	271.50
378.52	234.05
378.72	262.14
378.91	297.25
379.11	332.36
379.31	280.86
379.50	285.55
379.70	290.23
379.89	241.08
380.09	243.42
380.28	278.52
380.48	388.53
380.68	339.38
380.87	287.89
381.07	362.78
381.26	318.31
381.46	308.95
381.65	353.42
381.85	376.83
382.04	294.91
382.24	341.72
382.43	304.27
382.63	362.78
382.83	369.80
383.02	358.10
383.22	430.66
383.41	353.42
383.61	369.80
383.80	348.74
384.00	287.89
384.19	337.04
384.39	409.59
384.58	414.27
384.78	489.17
384.97	355.76
385.17	327.68
385.36	360.44
385.56	454.06
385.75	423.64
385.95	428.32
386.14	344.06
386.34	360.44
386.53	440.02
386.72	423.64
386.92	423.64
387.11	390.87
387.31	493.85
387.50	369.80
387.70	440.02
387.89	496.19
388.09	451.72
388.28	346.40
388.48	444.70
388.67	425.98
388.86	418.96
389.06	430.66
389.25	545.34
389.45	528.96
389.64	475.13
389.84	437.68
390.03	468.11
390.22	491.51
390.42	425.98
390.61	470.45
390.81	463.43
391.00	465.77
391.19	557.05
391.39	421.30
391.58	575.77
391.78	561.73
391.97	505.56
392.16	498.53
392.36	613.22
392.55	587.47
392.75	617.90
392.94	533.64
393.13	578.11
393.33	458.74
393.52	615.56
393.71	505.56
393.91	493.85
394.10	564.07
394.29	528.96
394.49	669.39
394.68	535.98
394.88	571.09
395.07	496.19
395.26	571.09
395.46	566.41
395.65	580.45
395.84	678.76
396.04	683.44
396.23	543.00
396.42	655.35
396.62	617.90
396.81	671.73
397.00	578.11
397.19	674.07
397.39	650.67
397.58	653.01
397.77	655.35
397.97	723.23
398.16	627.26
398.35	730.25
398.55	601.52
398.74	692.80
398.93	770.04
399.12	662.37
399.32	643.65
399.51	645.99
399.70	697.48
399.90	767.70
400.09	699.82
400.28	739.61
400.47	725.57
400.67	751.31
400.86	758.33
401.05	711.52
401.24	746.63
401.44	791.10
401.63	866.00
401.82	713.86
402.01	812.17
402.21	798.12
402.40	758.33
402.59	826.21
402.78	774.72
402.97	800.46
403.17	873.02
403.36	826.21
403.55	868.34
403.74	889.40
403.93	931.53
404.13	880.04
404.32	882.38
404.51	971.32
404.70	889.40
404.89	922.17
405.09	1006.43
405.28	964.30
405.47	910.47
405.66	952.60
405.85	931.53
406.05	943.24
406.24	1041.54
406.43	968.98
406.62	976.00
406.81	1039.20
407.00	1034.52
407.20	1057.92
407.39	1036.86
407.58	950.26
407.77	1006.43
407.96	1041.54
408.15	1074.31
408.34	1076.65
408.54	1006.43
408.73	964.30
408.92	1151.54
409.11	992.39
409.30	1121.12
409.49	1207.72
409.68	1081.33
409.87	1121.12
410.07	1242.82
410.26	1163.25
410.45	1139.84
410.64	1186.65
410.83	1205.38
411.02	1256.87
411.21	1184.31
411.40	1263.89
411.59	1256.87
411.78	1186.65
411.98	1224.10
412.17	1266.23
412.36	1242.82
412.55	1385.60
412.74	1341.13
412.93	1306.02
413.12	1238.14
413.31	1364.53
413.50	1383.26
413.69	1345.81
413.88	1383.26
414.07	1547.09
414.26	1397.30
414.45	1350.49
414.64	1394.96
414.83	1427.73
415.02	1535.39
415.22	1661.78
415.41	1547.09
415.60	1540.07
415.79	1514.33
415.98	1680.50
416.17	1692.21
416.36	1603.27
416.55	1605.61
416.74	1643.06
416.93	1650.08
417.12	1582.20
417.31	1582.20
417.50	1727.32
417.69	1764.76
417.88	1739.02
418.07	1678.16
418.26	1692.21
418.45	1666.46
418.64	1732.00
418.83	1820.94
419.02	1818.60
419.21	1837.32
419.39	1877.11
419.58	1713.27
419.77	1736.68
419.96	1820.94
420.15	1799.87
420.34	1926.26
420.53	1771.79
420.72	2008.18
420.91	1886.47
421.10	2050.31
421.29	1898.17
421.48	1956.69
421.67	1970.73
421.86	1844.34
422.05	1970.73
422.24	2008.18
422.43	1989.46
422.61	2045.63
422.80	1949.67
422.99	2097.12
423.18	1984.77
423.37	2017.54
423.56	1996.48
423.75	1994.14
423.94	1940.30
424.13	1799.87
424.32	1973.07
424.50	2050.31
424.69	2010.52
424.88	2120.53
425.07	2043.29
425.26	1994.14
425.45	1940.30
425.64	2071.37
425.83	1987.11
426.01	2127.55
426.20	2071.37
426.39	2071.37
426.58	1998.82
426.77	2097.12
426.96	2162.66
427.15	2125.21
427.33	2148.61
427.52	2157.97
427.71	2122.87
427.90	2097.12
428.09	2092.44
428.28	2143.93
428.46	2225.85
428.65	2228.19
428.84	2188.40
429.03	2312.45
429.22	2108.82
429.40	2207.13
429.59	2228.19
429.78	2129.89
429.97	2181.38
430.16	2202.44
430.34	2270.32
430.53	2335.85
430.72	2338.20
430.91	2214.15
431.10	2284.36
431.28	2310.11
431.47	2352.24
431.66	2427.14
431.85	2363.94
432.03	2438.84
432.22	2497.35
432.41	2443.52
432.60	2448.20
432.79	2597.99
432.97	2431.82
433.16	2455.22
433.35	2443.52
433.54	2581.61
433.72	2546.50
433.91	2555.86
434.10	2548.84
434.28	2490.33
434.47	2523.10
434.66	2518.42
434.85	2523.10
435.03	2457.56
435.22	2572.25
435.41	2708.00
435.59	2661.19
435.78	2658.85
435.97	2682.25
436.16	2588.63
436.34	2551.18
436.53	2705.66
436.72	2726.72
436.90	2658.85
437.09	2766.51
437.28	2705.66
437.46	2785.24
437.65	2712.68
437.84	2705.66
438.02	2818.00
438.21	2705.66
438.40	2726.72
438.58	2710.34
438.77	2810.98
438.96	2888.22
439.14	2836.73
439.33	2878.86
439.52	2768.85
439.70	2813.32
439.89	3040.36
440.08	2981.84
440.26	2991.20
440.45	3075.46
440.63	3101.21
440.82	3141.00
441.01	3126.96
441.19	3056.74
441.38	3082.49
441.57	3176.11
441.75	3267.39
441.94	3267.39
442.12	3300.16
442.31	3258.03
442.50	3236.96
442.68	3316.54
442.87	3393.78
443.05	3218.24
443.24	3372.71
443.43	3463.99
443.61	3400.80
443.80	3492.08
443.98	3344.63
444.17	3290.79
444.35	3468.67
444.54	3499.10
444.73	3400.80
444.91	3339.94
445.10	3417.18
445.28	3344.63
445.47	3449.95
445.65	3417.18
445.84	3466.33
446.02	3365.69
446.21	3524.85
446.39	3375.05
446.58	3557.61
446.77	3564.64
446.95	3503.78
447.14	3510.80
447.32	3529.53
447.51	3527.19
447.69	3531.87
447.88	3480.38
448.06	3492.08
448.25	3531.87
448.43	3508.46
448.62	3445.27
448.80	3562.30
448.99	3471.01
449.17	3597.40
449.36	3522.51
449.54	3688.68
449.73	3716.77
449.91	3637.19
450.10	3726.13
450.28	3700.39
450.46	3660.60
450.65	3641.87
450.83	3831.46
451.02	3908.69
451.20	3803.37
451.39	3786.99
451.57	3646.55
451.76	3859.54
451.94	3754.22
452.13	3768.26
452.31	3887.63
452.49	3789.33
452.68	3887.63
452.86	3772.94
453.05	3857.20
453.23	3953.16
453.42	3868.91
453.60	3822.09
453.78	4025.72
453.97	3990.61
454.15	3906.35
454.34	3819.75
454.52	4002.32
454.70	4049.13
454.89	3861.88
455.07	4009.34
455.26	4056.15
455.44	4007.00
455.62	4079.55
455.81	4072.53
455.99	4152.11
456.17	4114.66
456.36	4109.98
456.54	4194.24
456.73	4135.73
456.91	4100.62
457.09	4250.41
457.28	4358.08
457.46	4283.18
457.64	4341.69
457.83	4449.36
458.01	4304.25
458.19	4437.66
458.38	4344.03
458.56	4355.74
458.74	4362.76
458.93	4360.42
459.11	4386.16
459.29	4472.76
459.48	4442.34
459.66	4596.81
459.84	4615.54
460.03	4566.39
460.21	4526.60
460.39	4379.14
460.57	4580.43
460.76	4456.38
460.94	4706.82
461.12	4636.60
461.31	4592.13
461.49	4477.44
461.67	4493.83
461.85	4739.58
462.04	4657.67
462.22	4929.17
462.40	4702.14
462.59	4634.26
462.77	4739.58
462.95	4777.03
463.13	4870.65
463.32	4718.52
463.50	4706.82
463.68	4901.08
463.86	4910.44
464.05	4744.27
464.23	4924.49
464.41	4926.83
464.59	4814.48
464.78	4922.15
464.96	4870.65
465.14	4968.96
465.32	5006.41
465.50	4840.23
465.69	4903.42
465.87	4910.44
466.05	4844.91
466.23	4940.87
466.41	4959.60
466.60	5163.22
466.78	5018.11
466.96	4966.62
467.14	4973.64
467.32	5132.79
467.51	5256.84
467.69	5055.56
467.87	5158.54
468.05	5102.37
468.23	5020.45
468.41	4961.94
468.60	5207.69
468.78	5093.01
468.96	5245.14
469.14	5317.70
469.32	5270.89
469.50	5184.29
469.69	5296.63
469.87	5380.89
470.05	5376.21
470.23	5490.90
470.41	5481.53
470.59	5453.45
470.77	5397.28
470.95	5565.79
471.14	5572.82
471.32	5418.34
471.50	5631.33
471.68	5570.48
471.86	5612.60
472.04	5640.69
472.22	5783.46
472.40	5565.79
472.58	5624.31
472.77	5776.44
472.95	5769.42
473.13	5863.04
473.31	5809.21
473.49	5879.43
473.67	5935.60
473.85	5682.82
474.03	6017.52
474.21	6242.21
474.39	6001.13
474.57	6125.18
474.75	6190.72
474.93	6136.88
475.12	6083.05
475.30	6127.52
475.48	6125.18
475.66	6303.06
475.84	6317.11
476.02	6438.81
476.20	6448.18
476.38	6637.76
476.56	6424.77
476.74	6539.46
476.92	6483.28
477.10	6509.03
477.28	6539.46
477.46	6534.78
477.64	6834.36
477.82	6672.87
478.00	6888.20
478.18	6853.09
478.36	6909.26
478.54	6899.90
478.72	7009.90
478.90	7222.89
479.08	7267.36
479.26	7119.91
479.44	7133.95
479.62	7321.20
479.80	7344.60
479.98	7311.83
480.16	7414.82
480.34	7517.80
480.52	7693.34
480.70	7541.21
480.88	7449.93
481.06	7723.77
481.24	7779.94
481.41	7857.18
481.59	7793.98
481.77	7894.63
481.95	7922.71
482.13	7913.35
482.31	8131.02
482.49	8191.88
482.67	8224.64
482.85	8318.26
483.03	8437.63
483.21	8575.72
483.39	8535.93
483.57	8627.21
483.74	8655.30
483.92	8819.14
484.10	8734.88
484.28	8681.05
484.46	8910.42
484.64	9158.52
484.82	8929.14
485.00	9116.39
485.18	9263.84
485.35	9357.46
485.53	9329.38
485.71	9357.46
485.89	9446.40
486.07	9675.77
486.25	9696.84
486.43	9790.46
486.61	9989.41
486.78	9837.27
486.96	9905.15
487.14	10155.58
487.32	9795.14
487.50	10139.20
487.68	10019.83
487.85	10228.14
488.03	10544.11
488.21	10604.97
488.39	10576.88
488.57	10682.20
488.75	10558.16
488.92	10899.87
489.10	10981.79
489.28	11002.86
489.46	10995.84
489.64	11105.84
489.81	11321.17
489.99	11311.81
490.17	11398.41
490.35	11236.91
490.53	11449.90
490.70	11501.39
490.88	11461.60
491.06	11976.52
491.24	11714.38
491.41	11644.17
491.59	12175.47
491.77	12058.44
491.95	11868.86
492.13	12018.65
492.30	12365.05
492.48	12198.87
492.66	12243.34
492.84	12325.26
493.01	12442.29
493.19	12442.29
493.37	12690.38
493.54	12741.88
493.72	12959.55
493.90	12774.64
494.08	12837.84
494.25	12954.87
494.43	13298.92
494.61	13383.18
494.79	13338.71
494.96	13429.99
495.14	13188.92
495.32	13511.91
495.49	13617.24
495.67	13659.37
495.85	13413.61
496.02	14052.58
496.20	13951.93
496.38	13701.50
496.55	13961.30
496.73	14097.05
496.91	14260.88
497.09	14094.71
497.26	14232.80
497.44	14218.75
497.62	14429.40
497.79	14366.21
497.97	14457.49
498.14	14525.36
498.32	14974.75
498.50	14738.35
498.67	14801.55
498.85	15026.24
499.03	14874.10
499.20	14906.87
499.38	15194.76
499.56	15241.57
499.73	15426.47
499.91	15578.61
500.08	15508.39
500.26	15384.34
500.44	15454.56
500.61	15683.93
500.79	15531.80
500.97	15686.27
501.14	15852.45
501.32	15548.18
501.49	15800.96
501.67	15733.08
501.84	15840.75
502.02	15929.69
502.20	16049.05
502.37	16212.89
502.55	15889.90
502.72	16025.65
502.90	16166.08
503.07	16208.21
503.25	15957.77
503.43	16070.12
503.60	16531.20
503.78	16573.33
503.95	16568.65
504.13	16526.52
504.30	16566.31
504.48	16744.19
504.65	16673.98
504.83	16776.96
505.01	16973.56
505.18	16821.43
505.36	17158.47
505.53	16987.61
505.71	16954.84
505.88	17097.61
506.06	16936.12
506.23	17174.85
506.41	17245.07
506.58	17205.28
506.76	17046.12
506.93	17626.57
507.11	17163.15
507.28	17561.04
507.46	17350.39
507.63	17652.32
507.81	17724.88
507.98	17813.82
508.16	17715.51
508.33	17909.78
508.50	17776.37
508.68	17982.34
508.85	17874.67
509.03	18054.89
509.20	18380.23
509.38	18581.51
509.55	18178.94
509.73	18174.26
509.90	17958.93
510.08	18242.14
510.25	18284.26
510.42	18359.16
510.60	18579.17
510.77	18480.87
510.95	18464.49
511.12	18532.36
511.30	18324.05
511.47	18803.86
511.64	18607.26
511.82	19194.73
511.99	19044.94
512.17	19094.09
512.34	19049.62
512.51	19201.76
512.69	18934.93
512.86	19328.14
513.04	19302.40
513.21	19590.28
513.38	19482.62
513.56	19405.38
513.73	19227.50
513.90	19456.87
514.08	19281.33
514.25	19506.02
514.43	19627.73
514.60	19864.13
514.77	19763.48
514.95	19957.75
515.12	19674.54
515.29	19967.11
515.47	19784.55
515.64	19981.15
515.81	19948.39
515.99	19971.79
516.16	20341.60
516.33	20460.96
516.51	20308.83
516.68	20107.54
516.85	20262.02
517.03	20463.30
517.20	20496.07
517.37	20411.81
517.54	20339.26
517.72	20493.73
517.89	20402.45
518.06	20374.36
518.24	20692.68
518.41	20442.24
518.58	20816.72
518.75	20847.15
518.93	20936.09
519.10	20889.28
519.27	20896.30
519.45	21060.14
519.62	21003.97
519.79	21137.38
519.96	21113.97
520.14	21015.67
520.31	21034.39
520.48	21315.26
520.65	21137.38
520.83	21458.03
521.00	20945.45
521.17	21355.05
521.34	21296.53
521.52	21397.18
521.69	21731.87
521.86	21521.23
522.03	21830.18
522.20	21776.34
522.38	21745.92
522.55	21736.56
522.72	21537.61
522.89	21752.94
523.07	22345.09
523.24	21905.07
523.41	22183.60
523.58	22052.53
523.75	22333.39
523.92	21788.05
524.10	22122.74
524.27	21813.79
524.44	22305.31
524.61	22558.08
524.78	22534.68
524.96	22307.65
525.13	22506.59
525.30	22611.92
525.47	22541.70
525.64	22295.94
525.81	22405.95
525.98	22717.24
526.16	22710.22
526.33	22778.09
526.50	22459.78
526.67	22803.84
526.84	22696.17
527.01	22810.86
527.18	22967.68
527.36	22647.02
527.53	23033.21
527.70	23302.37
527.87	23370.25
528.04	23164.28
528.21	23044.91
528.38	23054.28
528.55	23243.86
528.72	23243.86
528.89	23075.34
529.07	23316.42
529.24	23463.87
529.41	23236.84
529.58	23697.92
529.75	23386.63
529.92	23630.05
530.09	23477.91
530.26	23742.39
530.43	23653.45
530.60	23330.46
530.77	23424.08
530.94	23770.48
531.11	23475.57
531.28	23903.89
531.46	23679.20
531.63	23751.76
531.80	23805.59
531.97	23775.16
532.14	23995.17
532.31	24067.73
532.48	24084.11
532.65	24074.75
532.82	24203.48
532.99	23836.02
533.16	24144.97
533.33	24264.33
533.50	24493.71
533.67	24177.73
533.84	23831.33
534.01	24348.59
534.18	24114.54
534.35	24449.24
534.52	24814.36
534.69	24437.53
534.86	24629.46
535.03	24503.07
535.20	24507.75
535.37	24835.42
535.54	24479.66
535.71	24694.99
535.88	24725.42
536.05	24699.67
536.22	25085.86
536.38	25184.16
536.55	24760.53
536.72	24940.75
536.89	24664.57
537.06	24938.41
537.23	24835.42
537.40	24734.78
537.57	24716.06
537.74	25160.76
537.91	25102.25
538.08	25275.45
538.25	25200.55
538.42	24662.22
538.59	25507.16
538.75	24933.73
538.92	25078.84
539.09	25252.04
539.26	25369.07
539.43	25418.22
539.60	25586.74
539.77	25345.66
539.94	25673.34
540.11	25577.37
540.28	25488.43
540.44	25535.24
540.61	25085.86
540.78	25460.35
540.95	25418.22
541.12	25600.78
541.29	25778.66
541.46	25851.22
541.62	25481.41
541.79	25539.93
541.96	25516.52
542.13	25649.93
542.30	25741.21
542.47	25755.26
542.63	26101.65
542.80	25984.63
542.97	26265.49
543.14	26403.58
543.31	26235.06
543.48	26230.38
543.64	26391.88
543.81	26307.62
543.98	26703.17
544.15	26459.76
544.32	26824.88
544.48	26614.23
544.65	26122.72
544.82	26515.93
544.99	26066.55
545.16	26309.96
545.32	26246.77
545.49	27281.28
545.66	26682.11
545.83	26590.83
546.00	27152.55
546.16	26656.36
546.33	26281.88
546.50	26438.69
546.67	26771.05
546.83	26316.98
547.00	26958.29
547.17	26677.43
547.34	26913.82
547.50	26590.83
547.67	27494.27
547.84	27194.68
548.00	27026.17
548.17	27278.94
548.34	26867.01
548.51	27218.09
548.67	27009.78
548.84	27201.71
549.01	27346.82
549.18	27206.39
549.34	27056.59
549.51	27005.10
549.68	26906.80
549.84	26874.03
550.01	27515.34
550.18	27456.82
550.34	27168.94
550.51	27253.20
550.68	27295.33
550.84	27185.32
551.01	27267.24
551.18	27393.63
551.34	27087.02
551.51	27300.01
551.68	27300.01
551.84	27412.35
552.01	27527.04
552.18	27623.00
552.34	27646.41
552.51	27838.33
552.68	27300.01
552.84	27470.87
553.01	27810.25
553.18	27812.59
553.34	27786.84
553.51	27594.92
553.67	27835.99
553.84	28208.14
554.01	27981.10
554.17	27990.47
554.34	28226.86
554.51	27995.15
554.67	27999.83
554.84	27941.32
555.00	27871.10
555.17	27733.01
555.33	28158.99
555.50	27835.99
555.67	28060.68
555.83	28386.02
556.00	28039.62
556.16	28250.27
556.33	27810.25
556.50	28259.63
556.66	28912.64
556.83	27992.81
556.99	28212.82
557.16	28685.61
557.32	28697.31
557.49	28460.91
557.65	28187.07
557.82	28292.40
557.98	28505.38
558.15	28371.97
558.32	28489.00
558.48	28425.81
558.65	28444.53
558.81	28187.07
558.98	28400.06
559.14	28601.35
559.31	28664.54
559.47	28591.98
559.64	28521.77
559.80	28407.08
559.97	28765.18
560.13	28535.81
560.30	28847.10
560.46	28900.94
560.63	28547.51
560.79	28814.34
560.96	29188.82
561.12	28776.89
561.29	28201.11
561.45	28858.81
561.61	28788.59
561.78	29003.92
561.94	28741.78
562.11	29001.58
562.27	28690.29
562.44	28996.90
562.60	28608.37
562.77	28783.91
562.93	28697.31
563.10	29200.52
563.26	28704.33
563.42	29329.25
563.59	28865.83
563.75	28945.41
563.92	29032.00
564.08	28563.90
564.24	28591.98
564.41	29055.41
564.57	28746.46
564.74	29102.22
564.90	29172.44
565.07	29003.92
565.23	28989.88
565.39	28903.28
565.56	29338.62
565.72	28720.71
565.88	29223.93
566.05	28936.04
566.21	29532.88
566.38	29275.42
566.54	29179.46
566.70	28996.90
566.87	29436.92
567.03	29076.48
567.19	29336.27
567.36	29357.34
567.52	29329.25
567.68	29177.12
567.85	29156.05
568.01	29209.89
568.17	29509.47
568.34	29853.53
568.50	29626.50
568.66	29509.47
568.83	29640.54
568.99	29336.27
569.15	29331.59
569.32	29008.60
569.48	29039.03
569.64	29240.31
569.81	28900.94
569.97	29399.47
570.13	29406.49
570.30	29364.36
570.46	29436.92
570.62	29273.08
570.78	29085.84
570.95	29209.89
571.11	29071.79
571.27	29151.37
571.43	29675.65
571.60	29567.99
571.76	29619.48
571.92	29675.65
572.09	29825.45
572.25	29502.45
572.41	29963.54
572.57	29642.88
572.74	29771.61
572.90	29591.39
573.06	29097.54
573.22	29315.21
573.38	29790.34
573.55	29521.18
573.71	29596.07
573.87	29755.23
574.03	29675.65
574.20	29692.04
574.36	29125.63
574.52	29310.53
574.68	29551.60
574.84	29696.72
575.01	29542.24
575.17	29670.97
575.33	29343.30
575.49	29387.77
575.65	29677.99
575.82	29692.04
575.98	29560.97
576.14	29872.26
576.30	29586.71
576.46	29759.91
576.62	29357.34
576.79	29654.59
576.95	29408.83
577.11	29853.53
577.27	29778.64
577.43	29448.62
577.59	29605.44
577.75	29923.75
577.92	29235.63
578.08	29294.14
578.24	29481.39
578.40	29504.79
578.56	29567.99
578.72	29823.11
578.88	30164.82
579.04	30052.48
579.21	29682.67
579.37	29556.28
579.53	29851.19
579.69	29436.92
579.85	29434.58
580.01	29853.53
580.17	29326.91
580.33	29900.34
580.49	29986.94
580.65	29930.77
580.82	29823.11
580.98	30010.35
581.14	29874.60
581.30	29638.20
581.46	29607.78
581.62	29666.29
581.78	29525.86
581.94	30052.48
582.10	29624.16
582.26	29675.65
582.42	29907.37
582.58	29923.75
582.74	30022.05
582.90	29825.45
583.06	29989.28
583.22	29942.47
583.38	29436.92
583.54	30160.14
583.70	29645.23
583.86	30045.46
584.02	29593.73
584.18	29813.74
584.34	29621.82
584.50	29956.52
584.66	29883.96
584.82	29834.81
584.98	29869.92
585.14	29675.65
585.30	30019.71
585.46	29436.92
585.62	29589.05
585.78	29993.97
585.94	29900.34
586.10	29764.59
586.26	29951.84
586.42	29823.11
586.58	30204.61
586.74	29972.90
586.90	29287.12
587.06	29785.66
587.22	30057.16
587.38	29640.54
587.54	30066.52
587.70	29916.73
587.86	30120.35
588.02	29933.11
588.18	29984.60
588.34	30188.23
588.49	29748.21
588.65	29865.24
588.81	29853.53
588.97	30160.14
589.13	29766.93
589.29	29717.78
589.45	29949.50
589.61	30082.91
589.77	30162.48
589.93	30543.99
590.08	30110.99
590.24	30621.23
590.40	30246.74
590.56	30630.59
590.72	29968.22
590.88	30314.62
591.04	30099.29
591.20	30628.25
591.35	30478.46
591.51	30466.75
591.67	30558.03
591.83	30553.35
591.99	30342.70
