SpectraSuite Data File
++++++++++++++++++++++++++++++++++++
Date: Fri Oct 18 13:58:09 GMT-05:00 2013
User: bianchi
Dark Spectrum Present: No
Reference Spectrum Present: No
Number of Sampled Component Spectra: 1
Spectrometers: USB2+H05261
Integration Time (usec): 50000 (USB2+H05261)
Spectra Averaged: 1 (USB2+H05261)
Boxcar Smoothing: 0 (USB2+H05261)
Correct for Electrical Dark: No (USB2+H05261)
Strobe/Lamp Enabled: No (USB2+H05261)
Correct for Detector Non-linearity: No (USB2+H05261)
Correct for Stray Light: No (USB2+H05261)
Number of Pixels in Processed Spectrum: 2048
>>>>>Begin Processed Spectral Data<<<<<
365.73	0.00
365.92	0.00
366.12	0.00
366.32	0.00
366.52	0.00
366.72	0.00
366.91	0.00
367.11	0.00
367.31	0.00
367.51	0.00
367.70	0.00
367.90	0.00
368.10	0.00
368.30	0.00
368.49	0.00
368.69	0.00
368.89	0.00
369.09	0.00
369.28	0.00
369.48	0.00
369.68	0.00
369.87	0.00
370.07	0.00
370.27	0.00
370.47	35.11
370.66	107.66
370.86	72.56
371.06	124.05
371.25	145.11
371.45	152.13
371.65	220.01
371.84	156.82
372.04	145.11
372.24	234.05
372.44	163.84
372.63	250.44
372.83	201.29
373.03	140.43
373.22	142.77
373.42	187.24
373.62	208.31
373.81	243.42
374.01	292.57
374.21	259.80
374.40	222.35
374.60	220.01
374.79	299.59
374.99	285.55
375.19	318.31
375.38	297.25
375.58	255.12
375.78	224.69
375.97	220.01
376.17	325.33
376.37	278.52
376.56	301.93
376.76	217.67
376.95	236.39
377.15	355.76
377.35	255.12
377.54	276.18
377.74	241.08
377.93	222.35
378.13	257.46
378.33	299.59
378.52	222.35
378.72	334.70
378.91	297.25
379.11	283.20
379.31	315.97
379.50	208.31
379.70	325.33
379.89	299.59
380.09	262.14
380.28	318.31
380.48	299.59
380.68	311.29
380.87	243.42
381.07	294.91
381.26	294.91
381.46	189.58
381.65	280.86
381.85	276.18
382.04	322.99
382.24	264.48
382.43	337.04
382.63	395.55
382.83	294.91
383.02	376.83
383.22	327.68
383.41	341.72
383.61	332.36
383.80	318.31
384.00	327.68
384.19	402.57
384.39	400.23
384.58	369.80
384.78	367.46
384.97	346.40
385.17	376.83
385.36	262.14
385.56	355.76
385.75	287.89
385.95	379.17
386.14	486.83
386.34	383.85
386.53	365.12
386.72	472.79
386.92	416.62
387.11	416.62
387.31	470.45
387.50	379.17
387.70	418.96
387.89	451.72
388.09	451.72
388.28	430.66
388.48	428.32
388.67	423.64
388.86	505.56
389.06	381.51
389.25	449.38
389.45	418.96
389.64	416.62
389.84	496.19
390.03	496.19
390.22	451.72
390.42	489.17
390.61	461.09
390.81	458.74
391.00	437.68
391.19	470.45
391.39	465.77
391.58	545.34
391.78	482.15
391.97	624.92
392.16	463.43
392.36	580.45
392.55	568.75
392.75	641.31
392.94	557.05
393.13	514.92
393.33	545.34
393.52	578.11
393.71	613.22
393.91	519.60
394.10	564.07
394.29	559.39
394.49	631.94
394.68	589.82
394.88	538.32
395.07	615.56
395.26	608.54
395.46	650.67
395.65	617.90
395.84	610.88
396.04	739.61
396.23	741.95
396.42	720.88
396.62	748.97
396.81	744.29
397.00	608.54
397.19	580.45
397.39	641.31
397.58	702.16
397.77	709.18
397.97	688.12
398.16	671.73
398.35	683.44
398.55	669.39
398.74	732.59
398.93	697.48
399.12	784.08
399.32	753.65
399.51	711.52
399.70	793.44
399.90	716.20
400.09	791.10
400.28	720.88
400.47	709.18
400.67	854.30
400.86	753.65
401.05	837.91
401.24	795.78
401.44	835.57
401.63	809.83
401.82	823.87
402.01	765.36
402.21	844.93
402.40	835.57
402.59	830.89
402.78	819.19
402.97	819.19
403.17	877.70
403.36	875.36
403.55	837.91
403.74	896.43
403.93	889.40
404.13	898.77
404.32	875.36
404.51	833.23
404.70	978.34
404.89	945.58
405.09	968.98
405.28	908.13
405.47	961.96
405.66	968.98
405.85	976.00
406.05	968.98
406.24	1095.37
406.43	1008.77
406.62	1071.97
406.81	1111.75
407.00	1142.18
407.20	912.81
407.39	1013.45
407.58	1064.94
407.77	1064.94
407.96	1064.94
408.15	1130.48
408.34	1086.01
408.54	1074.31
408.73	1074.31
408.92	1064.94
409.11	1076.65
409.30	1083.67
409.49	1156.22
409.68	1177.29
409.87	1163.25
410.07	1210.06
410.26	1064.94
410.45	1291.98
410.64	1266.23
410.83	1235.80
411.02	1299.00
411.21	1240.48
411.40	1266.23
411.59	1331.76
411.78	1268.57
411.98	1181.97
412.17	1334.11
412.36	1336.45
412.55	1219.42
412.74	1336.45
412.93	1448.79
413.12	1376.24
413.31	1423.05
413.50	1430.07
413.69	1467.52
413.88	1380.92
414.07	1460.49
414.26	1411.34
414.45	1404.32
414.64	1451.13
414.83	1481.56
415.02	1474.54
415.22	1563.48
415.41	1537.73
415.60	1610.29
415.79	1537.73
415.98	1591.56
416.17	1647.74
416.36	1568.16
416.55	1500.28
416.74	1713.27
416.93	1729.66
417.12	1586.88
417.31	1680.50
417.50	1689.87
417.69	1755.40
417.88	1652.42
418.07	1757.74
418.26	1743.70
418.45	1706.25
418.64	1760.08
418.83	1816.26
419.02	1809.23
419.21	1879.45
419.39	1830.30
419.58	1806.89
419.77	1823.28
419.96	1898.17
420.15	1926.26
420.34	1928.60
420.53	1930.94
420.72	1919.24
420.91	1905.20
421.10	1898.17
421.29	2033.93
421.48	1902.86
421.67	1830.30
421.86	1989.46
422.05	1973.07
422.24	1867.75
422.43	1937.96
422.61	1996.48
422.80	1987.11
422.99	2022.22
423.18	2052.65
423.37	2045.63
423.56	2003.50
423.75	1984.77
423.94	2050.31
424.13	1844.34
424.32	1898.17
424.50	2045.63
424.69	2069.03
424.88	2115.84
425.07	1984.77
425.26	1977.75
425.45	2026.90
425.64	2069.03
425.83	2050.31
426.01	2160.31
426.20	2064.35
426.39	2108.82
426.58	2143.93
426.77	2122.87
426.96	2087.76
427.15	2019.88
427.33	2169.68
427.52	2129.89
427.71	2202.44
427.90	2087.76
428.09	2321.81
428.28	2146.27
428.46	2272.66
428.65	2200.10
428.84	2298.41
429.03	2253.94
429.22	2307.77
429.40	2289.04
429.59	2263.30
429.78	2251.60
429.97	2097.12
430.16	2183.72
430.34	2267.98
430.53	2441.18
430.72	2415.43
430.91	2291.38
431.10	2242.23
431.28	2361.60
431.47	2429.48
431.66	2504.37
431.85	2333.51
432.03	2513.74
432.22	2553.52
432.41	2464.58
432.60	2452.88
432.79	2321.81
432.97	2553.52
433.16	2532.46
433.35	2459.90
433.54	2537.14
433.72	2483.31
433.91	2567.57
434.10	2605.02
434.28	2506.71
434.47	2558.21
434.66	2635.44
434.85	2593.31
435.03	2733.75
435.22	2579.27
435.41	2747.79
435.59	2607.36
435.78	2719.70
435.97	2586.29
436.16	2682.25
436.34	2717.36
436.53	2752.47
436.72	2860.13
436.90	2743.11
437.09	2724.38
437.28	2764.17
437.46	2609.70
437.65	2778.22
437.84	2761.83
438.02	2640.12
438.21	2745.45
438.40	2745.45
438.58	2951.42
438.77	2867.16
438.96	2930.35
439.14	2991.20
439.33	2979.50
439.52	2972.48
439.70	2925.67
439.89	3122.27
440.08	3054.40
440.26	3098.87
440.45	3091.85
440.63	3131.64
440.82	3215.90
441.01	3045.04
441.19	3148.02
441.38	3157.38
441.57	3241.64
441.75	3253.34
441.94	3204.19
442.12	3295.47
442.31	3234.62
442.50	3262.71
442.68	3438.25
442.87	3272.07
443.05	3309.52
443.24	3508.46
443.43	3431.23
443.61	3496.76
443.80	3527.19
443.98	3330.58
444.17	3325.90
444.35	3328.24
444.54	3492.08
444.73	3485.06
444.91	3412.50
445.10	3499.10
445.28	3536.55
445.47	3435.91
445.65	3424.20
445.84	3534.21
446.02	3489.74
446.21	3513.14
446.39	3506.12
446.58	3454.63
446.77	3566.98
446.95	3524.85
447.14	3487.40
447.32	3548.25
447.51	3520.17
447.69	3428.88
447.88	3604.42
448.06	3445.27
448.25	3449.95
448.43	3609.11
448.62	3564.64
448.80	3548.25
448.99	3644.21
449.17	3529.53
449.36	3693.37
449.54	3705.07
449.73	3618.47
449.91	3733.15
450.10	3742.52
450.28	3740.18
450.46	3845.50
450.65	3723.79
450.83	3747.20
451.02	3911.04
451.20	3960.19
451.39	3819.75
451.57	3896.99
451.76	3744.86
451.94	3815.07
452.13	3815.07
452.31	3824.44
452.49	3871.25
452.68	3892.31
452.86	3915.72
453.05	3922.74
453.23	3981.25
453.42	3864.22
453.60	3796.35
453.78	3974.23
453.97	3981.25
454.15	3904.01
454.34	4060.83
454.52	4102.96
454.70	3999.98
454.89	4042.11
455.07	4072.53
455.26	4177.86
455.44	4065.51
455.62	4147.43
455.81	4166.15
455.99	4252.75
456.17	4229.35
456.36	4121.68
456.54	4299.56
456.73	4259.78
456.91	4528.94
457.09	4355.74
457.28	4355.74
457.46	4308.93
457.64	4444.68
457.83	4521.92
458.01	4337.01
458.19	4447.02
458.38	4301.90
458.56	4547.66
458.74	4477.44
458.93	4573.41
459.11	4498.51
459.29	4596.81
459.48	4526.60
459.66	4559.36
459.84	4587.45
460.03	4594.47
460.21	4657.67
460.39	4578.09
460.57	4496.17
460.76	4629.58
460.94	4641.28
461.12	4716.18
461.31	4739.58
461.49	4582.77
461.67	4545.32
461.85	4795.76
462.04	4779.37
462.22	4975.98
462.40	4891.72
462.59	4753.63
462.77	4919.81
462.95	4814.48
463.13	4793.42
463.32	4791.08
463.50	4896.40
463.68	4908.10
463.86	4830.87
464.05	4952.57
464.23	4929.17
464.41	5027.47
464.59	4690.43
464.78	5071.94
464.96	5018.11
465.14	5081.30
465.32	4983.00
465.50	5181.95
465.69	5048.54
465.87	4992.36
466.05	4943.21
466.23	4983.00
466.41	5050.88
466.60	5261.52
466.78	5032.15
466.96	5153.86
467.14	5219.39
467.32	5043.85
467.51	5142.16
467.69	4980.66
467.87	4978.32
468.05	5399.62
468.23	5177.26
468.41	5327.06
468.60	5254.50
468.78	5238.12
468.96	5109.39
469.14	5259.18
469.32	5500.26
469.50	5139.82
469.69	5476.85
469.87	5322.38
470.05	5610.26
470.23	5509.62
470.41	5434.72
470.59	5563.45
470.77	5579.84
470.95	5514.30
471.14	5685.16
471.32	5516.64
471.50	5647.71
471.68	5729.63
471.86	5628.99
472.04	5724.95
472.22	5827.93
472.40	5661.76
472.58	5682.82
472.77	5804.53
472.95	6005.81
473.13	5907.51
473.31	5963.68
473.49	5781.12
473.67	6066.67
473.85	5856.02
474.03	6291.36
474.21	6153.27
474.39	6036.24
474.57	6340.51
474.75	6239.87
474.93	6293.70
475.12	6136.88
475.30	6150.93
475.48	6251.57
475.66	6333.49
475.84	6181.35
476.02	6349.87
476.20	6193.06
476.38	6609.67
476.56	6654.14
476.74	6633.08
476.92	6712.66
477.10	6691.59
477.28	6630.74
477.46	6607.33
477.64	6796.92
477.82	6717.34
478.00	7023.95
478.18	6986.50
478.36	6965.43
478.54	7084.80
478.72	7157.36
478.90	7171.40
479.08	7407.80
479.26	7358.64
479.44	7187.79
479.62	7323.54
479.80	7410.14
479.98	7524.82
480.16	7583.34
480.34	7489.71
480.52	7784.62
480.70	7789.30
480.88	7555.25
481.06	7737.81
481.24	7712.07
481.41	7852.50
481.59	8135.70
481.77	7976.55
481.95	8063.15
482.13	8086.55
482.31	8070.17
482.49	8498.49
482.67	8339.33
482.85	8482.10
483.03	8477.42
483.21	8713.81
483.39	8535.93
483.57	8725.52
483.74	8753.60
483.92	8959.57
484.10	8816.80
484.28	9001.70
484.46	9032.13
484.64	9205.33
484.82	9064.89
485.00	9177.24
485.18	9247.46
485.35	9692.16
485.53	9748.33
485.71	9359.80
485.89	9708.54
486.07	9621.94
486.25	9617.26
486.43	9633.64
486.61	9912.17
486.78	9949.62
486.96	9958.98
487.14	10111.11
487.32	10045.58
487.50	10244.52
487.68	10237.50
487.85	10359.21
488.03	10604.97
488.21	10635.39
488.39	10846.04
488.57	10789.87
488.75	10944.34
488.92	10906.90
489.10	10878.81
489.28	11265.00
489.46	11297.77
489.64	11204.14
489.81	11337.56
489.99	11431.18
490.17	11447.56
490.35	11477.99
490.53	11662.89
490.70	11698.00
490.88	11714.38
491.06	11990.56
491.24	11962.48
491.41	11925.03
491.59	12032.69
491.77	12222.28
491.95	12091.21
492.13	12159.08
492.30	12381.43
492.48	12519.53
492.66	12776.98
492.84	12587.40
493.01	12741.88
493.19	12753.58
493.37	12784.01
493.54	12903.37
493.72	13008.70
493.90	13095.30
494.08	12978.27
494.25	13167.85
494.43	13198.28
494.61	13434.68
494.79	13551.70
494.96	13247.43
495.14	13186.58
495.32	13802.14
495.49	13848.95
495.67	13996.40
495.85	14160.24
496.02	13991.72
496.20	14193.01
496.38	13951.93
496.55	14228.12
496.73	14361.53
496.91	14279.61
497.09	14389.61
497.26	14649.41
497.44	14436.42
497.62	14544.09
497.79	14778.14
497.97	14586.22
498.14	14965.39
498.32	15197.10
498.50	14677.50
498.67	15080.07
498.85	15014.54
499.03	15365.62
499.20	14923.26
499.38	15248.59
499.56	15489.67
499.73	15527.11
499.91	15653.50
500.08	15590.31
500.26	15733.08
500.44	15667.55
500.61	15969.48
500.79	15805.64
500.97	15901.60
501.14	16049.05
501.32	16100.55
501.49	16011.60
501.67	16208.21
501.84	16123.95
502.02	16240.98
502.20	16152.04
502.37	16327.58
502.55	16215.23
502.72	16397.79
502.90	16482.05
503.07	16498.44
503.25	16547.59
503.43	16365.03
503.60	16706.74
503.78	16641.21
503.95	16610.78
504.13	16908.03
504.30	16800.37
504.48	16943.14
504.65	17055.48
504.83	17226.34
505.01	17273.15
505.18	17343.37
505.36	17362.09
505.53	17039.10
505.71	17413.59
505.88	17474.44
506.06	17322.30
506.23	17310.60
506.41	17565.72
506.58	17556.36
506.76	17530.61
506.93	17757.64
507.11	17554.02
507.28	17797.43
507.46	18031.49
507.63	17888.71
507.81	17947.23
507.98	17589.13
508.16	17933.18
508.33	18019.78
508.50	18150.85
508.68	18256.18
508.85	18366.18
509.03	18338.10
509.20	18288.95
509.38	18780.46
509.55	18616.62
509.73	18513.64
509.90	18588.53
510.08	18838.97
510.25	18787.48
510.42	18693.86
510.60	18853.02
510.77	19070.68
510.95	18909.19
511.12	18904.51
511.30	18934.93
511.47	18810.89
511.64	18984.09
511.82	19213.46
511.99	19440.49
512.17	19459.21
512.34	19030.90
512.51	19405.38
512.69	19351.55
512.86	19491.98
513.04	19630.07
513.21	19798.59
513.38	19871.15
513.56	19639.44
513.73	19728.38
513.90	19786.89
514.08	19826.68
514.25	19955.41
514.43	20130.95
514.60	20023.28
514.77	20133.29
514.95	20334.57
515.12	19967.11
515.29	19812.63
515.47	20262.02
515.64	20255.00
515.81	20259.68
515.99	20470.33
516.16	20706.72
516.33	20493.73
516.51	20526.50
516.68	20608.42
516.85	20486.71
517.03	20863.54
517.20	20751.19
517.37	20657.57
517.54	21003.97
517.72	20830.77
517.89	20751.19
518.06	20826.09
518.24	20786.30
518.41	20858.85
518.58	20917.37
518.75	21228.66
518.93	21172.49
519.10	21142.06
519.27	21453.35
519.45	21481.44
519.62	21624.21
519.79	21649.96
519.96	21193.55
520.14	21441.65
520.31	21401.86
520.48	21467.39
520.65	21645.27
520.83	22036.14
521.00	21745.92
521.17	21612.51
521.34	21689.74
521.52	21788.05
521.69	21858.26
521.86	22178.92
522.03	22340.41
522.20	22279.56
522.38	22190.62
522.55	22202.32
522.72	22122.74
522.89	22347.44
523.07	22340.41
523.24	22246.79
523.41	22689.15
523.58	22120.40
523.75	22251.47
523.92	22422.33
524.10	22668.09
524.27	22778.09
524.44	22471.48
524.61	22867.03
524.78	22977.04
524.96	22506.59
525.13	22895.12
525.30	22850.65
525.47	23012.15
525.64	23068.32
525.81	23028.53
525.98	23166.62
526.16	23307.05
526.33	23138.54
526.50	23384.29
526.67	23080.02
526.84	23365.57
527.01	22967.68
527.18	23311.74
527.36	23260.24
527.53	23538.77
527.70	24011.56
527.87	23667.50
528.04	23349.18
528.21	23463.87
528.38	23510.68
528.55	23845.38
528.72	23372.59
528.89	23775.16
529.07	23545.79
529.24	23583.24
529.41	23775.16
529.58	23648.77
529.75	23929.64
529.92	23697.92
530.09	23885.17
530.26	23805.59
530.43	24142.63
530.60	23985.81
530.77	24201.14
530.94	24137.94
531.11	23988.15
531.28	23632.39
531.46	24528.81
531.63	24212.84
531.80	24641.16
531.97	24430.51
532.14	24781.59
532.31	24320.51
532.48	24615.41
532.65	24641.16
532.82	24407.11
532.99	24367.32
533.16	24713.72
533.33	24868.19
533.50	24994.58
533.67	24570.94
533.84	24669.25
534.01	24762.87
534.18	24308.80
534.35	24856.49
534.52	24683.29
534.69	24835.42
534.86	24858.83
535.03	24821.38
535.20	24765.21
535.37	25095.22
535.54	25027.35
535.71	24748.82
535.88	25039.05
536.05	25095.22
536.22	25671.00
536.38	25266.08
536.55	25841.85
536.72	25130.33
536.89	25172.46
537.06	25348.00
537.23	25399.49
537.40	25572.69
537.57	25340.98
537.74	25649.93
537.91	25380.77
538.08	25420.56
538.25	25511.84
538.42	25628.87
538.59	25893.35
538.75	25390.13
538.92	26031.44
539.09	25703.76
539.26	25984.63
539.43	26015.05
539.60	25722.49
539.77	26101.65
539.94	25912.07
540.11	26054.84
540.28	26143.78
540.44	25869.94
540.61	25954.20
540.78	25881.64
540.95	26045.48
541.12	26054.84
541.29	26099.31
541.46	26579.12
541.62	26148.46
541.79	26129.74
541.96	25675.68
542.13	25989.31
542.30	26658.70
542.47	26391.88
542.63	26565.08
542.80	26644.66
542.97	26682.11
543.14	26555.72
543.31	26394.22
543.48	26663.38
543.64	26890.41
543.81	27080.00
543.98	27040.21
544.15	27035.53
544.32	26906.80
544.48	27220.43
544.65	26747.64
544.82	27222.77
544.99	26939.57
545.16	26810.84
545.32	27295.33
545.49	27255.54
545.66	27063.61
545.83	27438.10
546.00	27012.12
546.16	27157.24
546.33	26771.05
546.50	26890.41
546.67	27119.79
546.83	26817.86
547.00	27094.04
547.17	27241.50
547.34	27608.96
547.50	27346.82
547.67	27749.39
547.84	27555.13
548.00	27527.04
548.17	27623.00
548.34	27381.93
548.51	27199.37
548.67	27812.59
548.84	27552.79
549.01	27665.13
549.18	27274.26
549.34	27810.25
549.51	27674.49
549.68	27550.45
549.84	27917.91
550.01	27655.77
550.18	27955.36
550.34	27920.25
550.51	28025.57
550.68	27871.10
550.84	27943.66
551.01	28187.07
551.18	27828.97
551.34	28133.24
551.51	27765.78
551.68	28032.60
551.84	28187.07
552.01	28060.68
552.18	28107.49
552.34	27833.65
552.51	27934.29
552.68	27901.53
552.84	28058.34
553.01	27772.80
553.18	28020.89
553.34	28201.11
553.51	28336.87
553.67	28444.53
553.84	28505.38
554.01	28648.16
554.17	28320.48
554.34	28500.70
554.51	28606.03
554.67	28524.11
554.84	28423.47
555.00	28400.06
555.17	28514.75
555.33	28510.07
555.50	28278.35
555.67	28208.14
555.83	28418.78
556.00	28196.43
556.16	28751.14
556.33	28400.06
556.50	28828.38
556.66	28786.25
556.83	28819.02
556.99	28996.90
557.16	29078.82
557.32	28685.61
557.49	29170.10
557.65	28748.80
557.82	28910.30
557.98	28844.76
558.15	28933.70
558.32	28821.36
558.48	28683.27
558.65	29434.58
558.81	29055.41
558.98	28807.31
559.14	29228.61
559.31	28779.23
559.47	29003.92
559.64	28989.88
559.80	29483.73
559.97	29369.04
560.13	29027.32
560.30	28893.91
560.46	29139.67
560.63	29371.38
560.79	29343.30
560.96	29167.76
561.12	29067.11
561.29	29191.16
561.45	29291.80
561.61	29151.37
561.78	29319.89
561.94	29109.24
562.11	29336.27
562.27	29352.66
562.44	29347.98
562.60	29315.21
562.77	28922.00
562.93	29174.78
563.10	29411.17
563.26	29495.43
563.42	29757.57
563.59	29539.90
563.75	29427.56
563.92	29635.86
564.08	29352.66
564.24	29312.87
564.41	29525.86
564.57	29099.88
564.74	29404.15
564.90	29947.15
565.07	29895.66
565.23	29902.68
565.39	29411.17
565.56	29912.05
565.72	29720.12
565.88	29626.50
566.05	29586.71
566.21	29387.77
566.38	29362.02
566.54	30075.88
566.70	29998.65
566.87	29734.17
567.03	29757.57
567.19	29963.54
567.36	29549.26
567.52	29804.38
567.68	29816.08
567.85	29921.41
568.01	29628.84
568.17	29570.33
568.34	29970.56
568.50	29853.53
568.66	29797.36
568.83	30146.10
568.99	29921.41
569.15	29844.17
569.32	29619.48
569.48	29516.50
569.64	30106.31
569.81	30031.41
569.97	30251.42
570.13	29876.94
570.30	30045.46
570.46	30094.61
570.62	30141.42
570.78	29734.17
570.95	29701.40
571.11	29872.26
571.27	29600.76
571.43	30181.21
571.60	30125.04
571.76	30038.44
571.92	30068.86
572.09	30260.79
572.25	30094.61
572.41	29820.77
572.57	29890.98
572.74	30279.51
572.90	29862.90
573.06	30045.46
573.22	30382.49
573.38	30529.95
573.55	30029.07
573.71	30352.07
573.87	30078.22
574.03	30235.04
574.20	30174.19
574.36	29949.50
574.52	29996.31
574.68	30000.99
574.84	29685.01
575.01	30192.91
575.17	29977.58
575.33	29844.17
575.49	29799.70
575.65	30494.84
575.82	30815.49
575.98	30354.41
576.14	30342.70
576.30	30052.48
576.46	30134.40
576.62	29900.34
576.79	29965.88
576.95	30022.05
577.11	30190.57
577.27	30595.48
577.43	30691.44
577.59	29961.20
577.75	29972.90
577.92	30092.27
578.08	30321.64
578.24	29951.84
578.40	30188.23
578.56	30522.93
578.72	30192.91
578.88	30036.09
579.04	30675.06
579.21	30239.72
579.37	30836.56
579.53	30265.47
579.69	30256.11
579.85	30235.04
580.01	30178.87
580.17	30036.09
580.33	30295.89
580.49	29996.31
580.65	30576.76
580.82	30267.81
580.98	30522.93
581.14	30202.27
581.30	30515.90
581.46	30064.18
581.62	30384.83
581.78	30118.01
581.94	30373.13
582.10	30265.47
582.26	30567.40
582.42	30323.98
582.58	30141.42
582.74	30485.48
582.90	30548.67
583.06	30869.33
583.22	30532.29
583.38	30359.09
583.54	30127.38
583.70	30321.64
583.86	30331.00
584.02	30169.51
584.18	30527.61
584.34	30543.99
584.50	30403.56
584.66	30485.48
584.82	30136.74
584.98	30663.36
585.14	30543.99
585.30	30134.40
585.46	30244.40
585.62	30443.35
585.78	30721.87
585.94	30010.35
586.10	30246.74
586.26	30541.65
586.42	30590.80
586.58	30536.97
586.74	30520.59
586.90	30455.05
587.06	30045.46
587.22	30611.87
587.38	30391.86
587.54	30733.57
587.70	30436.33
587.86	30881.03
588.02	30286.53
588.18	30731.23
588.34	30895.07
588.49	30515.90
588.65	30452.71
588.81	30356.75
588.97	30836.56
589.13	30604.84
589.29	30202.27
589.45	30742.94
589.61	30878.69
589.77	30918.48
589.93	30836.56
590.08	30747.62
590.24	30637.61
590.40	30735.92
590.56	30976.99
590.72	30677.40
590.88	30370.79
591.04	30742.94
591.20	30923.16
591.35	31269.56
591.51	31222.75
591.67	31112.74
591.83	31047.21
591.99	30941.88
