SpectraSuite Data File
++++++++++++++++++++++++++++++++++++
Date: Fri Oct 18 13:58:06 GMT-05:00 2013
User: bianchi
Dark Spectrum Present: No
Reference Spectrum Present: No
Number of Sampled Component Spectra: 1
Spectrometers: USB2+H05261
Integration Time (usec): 50000 (USB2+H05261)
Spectra Averaged: 1 (USB2+H05261)
Boxcar Smoothing: 0 (USB2+H05261)
Correct for Electrical Dark: No (USB2+H05261)
Strobe/Lamp Enabled: No (USB2+H05261)
Correct for Detector Non-linearity: No (USB2+H05261)
Correct for Stray Light: No (USB2+H05261)
Number of Pixels in Processed Spectrum: 2048
>>>>>Begin Processed Spectral Data<<<<<
365.73	0.00
365.92	0.00
366.12	0.00
366.32	0.00
366.52	0.00
366.72	0.00
366.91	0.00
367.11	0.00
367.31	0.00
367.51	0.00
367.70	0.00
367.90	0.00
368.10	0.00
368.30	0.00
368.49	0.00
368.69	0.00
368.89	0.00
369.09	0.00
369.28	0.00
369.48	0.00
369.68	0.00
369.87	0.00
370.07	0.00
370.27	0.00
370.47	0.00
370.66	30.43
370.86	86.60
371.06	161.50
371.25	135.75
371.45	173.20
371.65	159.16
371.84	114.69
372.04	243.42
372.24	159.16
372.44	182.56
372.63	208.31
372.83	184.90
373.03	196.60
373.22	203.63
373.42	133.41
373.62	205.97
373.81	231.71
374.01	187.24
374.21	250.44
374.40	320.65
374.60	292.57
374.79	227.03
374.99	220.01
375.19	285.55
375.38	203.63
375.58	266.82
375.78	327.68
375.97	170.86
376.17	287.89
376.37	210.65
376.56	262.14
376.76	283.20
376.95	292.57
377.15	273.84
377.35	248.10
377.54	238.73
377.74	285.55
377.93	304.27
378.13	301.93
378.33	351.08
378.52	318.31
378.72	376.83
378.91	414.27
379.11	245.76
379.31	280.86
379.50	327.68
379.70	322.99
379.89	339.38
380.09	276.18
380.28	360.44
380.48	313.63
380.68	285.55
380.87	362.78
381.07	313.63
381.26	332.36
381.46	264.48
381.65	381.51
381.85	332.36
382.04	308.95
382.24	318.31
382.43	283.20
382.63	383.85
382.83	390.87
383.02	383.85
383.22	301.93
383.41	304.27
383.61	390.87
383.80	465.77
384.00	362.78
384.19	369.80
384.39	348.74
384.58	337.04
384.78	423.64
384.97	337.04
385.17	383.85
385.36	411.93
385.56	332.36
385.75	390.87
385.95	414.27
386.14	367.46
386.34	393.21
386.53	418.96
386.72	442.36
386.92	498.53
387.11	411.93
387.31	500.87
387.50	397.89
387.70	440.02
387.89	519.60
388.09	475.13
388.28	486.83
388.48	484.49
388.67	454.06
388.86	390.87
389.06	428.32
389.25	550.03
389.45	393.21
389.64	482.15
389.84	535.98
390.03	470.45
390.22	465.77
390.42	444.70
390.61	491.51
390.81	521.94
391.00	510.24
391.19	491.51
391.39	468.11
391.58	552.37
391.78	566.41
391.97	540.66
392.16	557.05
392.36	571.09
392.55	552.37
392.75	592.16
392.94	535.98
393.13	561.73
393.33	543.00
393.52	645.99
393.71	575.77
393.91	606.20
394.10	589.82
394.29	603.86
394.49	620.24
394.68	641.31
394.88	702.16
395.07	734.93
395.26	557.05
395.46	552.37
395.65	608.54
395.84	695.14
396.04	636.63
396.23	741.95
396.42	631.94
396.62	613.22
396.81	627.26
397.00	674.07
397.19	674.07
397.39	730.25
397.58	627.26
397.77	660.03
397.97	704.50
398.16	732.59
398.35	730.25
398.55	674.07
398.74	725.57
398.93	807.48
399.12	720.88
399.32	704.50
399.51	774.72
399.70	833.23
399.90	739.61
400.09	760.67
400.28	748.97
400.47	826.21
400.67	866.00
400.86	737.27
401.05	772.38
401.24	837.91
401.44	802.80
401.63	842.59
401.82	835.57
402.01	898.77
402.21	844.93
402.40	898.77
402.59	819.19
402.78	926.85
402.97	837.91
403.17	798.12
403.36	866.00
403.55	835.57
403.74	866.00
403.93	917.49
404.13	985.37
404.32	866.00
404.51	903.45
404.70	910.47
404.89	924.51
405.09	1032.18
405.28	1088.35
405.47	1046.22
405.66	983.02
405.85	894.08
406.05	943.24
406.24	973.66
406.43	1088.35
406.62	1125.80
406.81	1001.75
407.00	1036.86
407.20	1076.65
407.39	1137.50
407.58	1074.31
407.77	1156.22
407.96	1048.56
408.15	1111.75
408.34	1118.78
408.54	1102.39
408.73	1081.33
408.92	1128.14
409.11	1207.72
409.30	1212.40
409.49	1137.50
409.68	1210.06
409.87	1186.65
410.07	1341.13
410.26	1184.31
410.45	1210.06
410.64	1203.04
410.83	1308.36
411.02	1205.38
411.21	1210.06
411.40	1277.93
411.59	1224.10
411.78	1308.36
411.98	1334.11
412.17	1371.55
412.36	1291.98
412.55	1378.58
412.74	1401.98
412.93	1369.21
413.12	1345.81
413.31	1420.71
413.50	1277.93
413.69	1355.17
413.88	1483.90
414.07	1373.89
414.26	1526.03
414.45	1554.12
414.64	1502.62
414.83	1439.43
415.02	1469.86
415.22	1554.12
415.41	1526.03
415.60	1519.01
415.79	1561.14
415.98	1666.46
416.17	1703.91
416.36	1643.06
416.55	1563.48
416.74	1654.76
416.93	1710.93
417.12	1785.83
417.31	1715.61
417.50	1661.78
417.69	1827.96
417.88	1746.04
418.07	1806.89
418.26	1708.59
418.45	1706.25
418.64	1909.88
418.83	1874.77
419.02	1694.55
419.21	1893.49
419.39	1947.33
419.58	1853.70
419.77	1820.94
419.96	1879.45
420.15	1802.21
420.34	1907.54
420.53	1886.47
420.72	2120.53
420.91	1919.24
421.10	1874.77
421.29	1975.41
421.48	1977.75
421.67	2017.54
421.86	1952.01
422.05	2066.69
422.24	1994.14
422.43	2010.52
422.61	2038.61
422.80	2101.80
422.99	2132.23
423.18	2097.12
423.37	2148.61
423.56	1980.09
423.75	2017.54
423.94	2087.76
424.13	1930.94
424.32	1959.03
424.50	2054.99
424.69	2106.48
424.88	2181.38
425.07	2232.87
425.26	2094.78
425.45	2092.44
425.64	2097.12
425.83	2054.99
426.01	2059.67
426.20	2097.12
426.39	2148.61
426.58	2139.25
426.77	2165.00
426.96	2242.23
427.15	2143.93
427.33	2150.95
427.52	2209.47
427.71	2193.08
427.90	2150.95
428.09	2195.42
428.28	2204.78
428.46	2275.00
428.65	2207.13
428.84	2246.91
429.03	2314.79
429.22	2385.01
429.40	2296.07
429.59	2321.81
429.78	2157.97
429.97	2172.02
430.16	2235.21
430.34	2338.20
430.53	2317.13
430.72	2487.99
430.91	2370.96
431.10	2375.64
431.28	2347.56
431.47	2530.12
431.66	2462.24
431.85	2473.95
432.03	2464.58
432.22	2525.44
432.41	2499.69
432.60	2605.02
432.79	2523.10
432.97	2558.21
433.16	2499.69
433.35	2363.94
433.54	2614.38
433.72	2640.12
433.91	2558.21
434.10	2670.55
434.28	2499.69
434.47	2600.34
434.66	2588.63
434.85	2705.66
435.03	2597.99
435.22	2672.89
435.41	2740.77
435.59	2640.12
435.78	2555.86
435.97	2679.91
436.16	2703.32
436.34	2588.63
436.53	2862.48
436.72	2818.00
436.90	2684.59
437.09	2743.11
437.28	2696.30
437.46	2883.54
437.65	2827.37
437.84	2794.60
438.02	2810.98
438.21	2822.69
438.40	2820.35
438.58	2988.86
438.77	2892.90
438.96	2827.37
439.14	3042.70
439.33	3049.72
439.52	3035.67
439.70	3042.70
439.89	3073.12
440.08	3136.32
440.26	3117.59
440.45	3105.89
440.63	3112.91
440.82	3098.87
441.01	3133.98
441.19	3241.64
441.38	3272.07
441.57	3201.85
441.75	3382.07
441.94	3265.05
442.12	3265.05
442.31	3487.40
442.50	3344.63
442.68	3344.63
442.87	3405.48
443.05	3339.94
443.24	3459.31
443.43	3478.04
443.61	3499.10
443.80	3574.00
443.98	3398.46
444.17	3398.46
444.35	3403.14
444.54	3513.14
444.73	3496.76
444.91	3613.79
445.10	3545.91
445.28	3447.61
445.47	3536.55
445.65	3356.33
445.84	3538.89
446.02	3616.13
446.21	3569.32
446.39	3393.78
446.58	3552.93
446.77	3592.72
446.95	3405.48
447.14	3574.00
447.32	3637.19
447.51	3501.44
447.69	3492.08
447.88	3545.91
448.06	3634.85
448.25	3510.80
448.43	3698.05
448.62	3454.63
448.80	3536.55
448.99	3627.83
449.17	3620.81
449.36	3709.75
449.54	3709.75
449.73	3719.11
449.91	3805.71
450.10	3929.76
450.28	3819.75
450.46	3847.84
450.65	3784.65
450.83	3894.65
451.02	3796.35
451.20	3840.82
451.39	3967.21
451.57	3875.93
451.76	3894.65
451.94	3796.35
452.13	3918.06
452.31	3934.44
452.49	3911.04
452.68	3995.29
452.86	3948.48
453.05	4114.66
453.23	4004.66
453.42	3997.64
453.60	3971.89
453.78	3971.89
453.97	3955.51
454.15	4002.32
454.34	3995.29
454.52	3985.93
454.70	4114.66
454.89	4177.86
455.07	3997.64
455.26	4067.85
455.44	4154.45
455.62	4131.05
455.81	4138.07
455.99	4154.45
456.17	4264.46
456.36	4306.59
456.54	4402.55
456.73	4315.95
456.91	4393.19
457.09	4383.82
457.28	4552.34
457.46	4440.00
457.64	4486.81
457.83	4517.23
458.01	4285.52
458.19	4535.96
458.38	4484.47
458.56	4603.83
458.74	4461.06
458.93	4461.06
459.11	4550.00
459.29	4484.47
459.48	4669.37
459.66	4652.98
459.84	4458.72
460.03	4678.73
460.21	4641.28
460.39	4568.73
460.57	4526.60
460.76	4596.81
460.94	4725.54
461.12	4517.23
461.31	4620.22
461.49	4596.81
461.67	4800.44
461.85	4819.16
462.04	4713.84
462.22	4940.87
462.40	4713.84
462.59	4933.85
462.77	4732.56
462.95	4947.89
463.13	4821.50
463.32	4961.94
463.50	4894.06
463.68	4926.83
463.86	5013.43
464.05	4887.04
464.23	5022.79
464.41	5053.22
464.59	4961.94
464.78	4971.30
464.96	5008.75
465.14	5041.51
465.32	5034.49
465.50	5060.24
465.69	5039.17
465.87	4980.66
466.05	5123.43
466.23	5118.75
466.41	5004.07
466.60	5188.97
466.78	5057.90
466.96	5107.05
467.14	5179.61
467.32	5247.48
467.51	5343.44
467.69	5093.01
467.87	5245.14
468.05	5336.42
468.23	5231.10
468.41	5198.33
468.60	5203.01
468.78	5275.57
468.96	5399.62
469.14	5345.78
469.32	5467.49
469.50	5397.28
469.69	5472.17
469.87	5633.67
470.05	5554.09
470.23	5371.53
470.41	5577.50
470.59	5516.64
470.77	5612.60
470.95	5495.58
471.14	5582.18
471.32	5488.56
471.50	5666.44
471.68	5687.50
471.86	5792.83
472.04	5879.43
472.22	5900.49
472.40	5736.65
472.58	5853.68
472.77	6015.18
472.95	5909.85
473.13	6031.56
473.31	5989.43
473.49	5774.10
473.67	6005.81
473.85	6078.37
474.03	6085.39
474.21	6106.46
474.39	6118.16
474.57	6258.59
474.75	6263.27
474.93	6216.46
475.12	6340.51
475.30	6289.02
475.48	6317.11
475.66	6230.51
475.84	6483.28
476.02	6506.69
476.20	6544.14
476.38	6604.99
476.56	6773.51
476.74	6740.74
476.92	6649.46
477.10	6799.26
477.28	6768.83
477.46	6668.19
477.64	7019.27
477.82	6930.33
478.00	7192.47
478.18	7049.69
478.36	7281.41
478.54	7108.21
478.72	7452.27
478.90	7192.47
479.08	7117.57
479.26	7466.31
479.44	7419.50
479.62	7290.77
479.80	7566.95
479.98	7613.76
480.16	7700.36
480.34	7686.32
480.52	7866.54
480.70	7815.05
480.88	7779.94
481.06	8013.99
481.24	7719.09
481.41	7969.52
481.59	8079.53
481.77	8187.19
481.95	8262.09
482.13	8315.92
482.31	8252.73
482.49	8517.21
482.67	8631.90
482.85	8575.72
483.03	8662.32
483.21	8842.54
483.39	8856.59
483.57	9032.13
483.74	8678.71
483.92	8774.67
484.10	8739.56
484.28	9256.82
484.46	9224.05
484.64	9308.31
484.82	9252.14
485.00	9312.99
485.18	9549.39
485.35	9551.73
485.53	9535.34
485.71	9823.23
485.89	10038.56
486.07	9942.60
486.25	9804.50
486.43	10005.79
486.61	9942.60
486.78	10022.17
486.96	10059.62
487.14	10429.43
487.32	10298.36
487.50	10431.77
487.68	10391.98
487.85	10611.99
488.03	10766.46
488.21	10555.82
488.39	10881.15
488.57	10808.59
488.75	10965.41
488.92	10878.81
489.10	11070.73
489.28	11162.01
489.46	11279.04
489.64	11372.66
489.81	11442.88
489.99	11571.61
490.17	11796.30
490.35	11758.85
490.53	11728.42
490.70	11906.31
490.88	11969.50
491.06	12203.55
491.24	11812.68
491.41	12091.21
491.59	12395.48
491.77	12343.99
491.95	12353.35
492.13	12599.10
492.30	12659.96
492.48	12400.16
492.66	12774.64
492.84	12889.33
493.01	13069.55
493.19	12875.29
493.37	12999.34
493.54	13406.59
493.72	13015.72
493.90	13193.60
494.08	13214.66
494.25	13570.43
494.43	13331.69
494.61	13472.12
494.79	13603.19
494.96	13666.39
495.14	13813.84
495.32	13841.93
495.49	14026.83
495.67	13902.78
495.85	14019.81
496.02	14197.69
496.20	14310.04
496.38	14174.28
496.55	14389.61
496.73	14537.07
496.91	14441.11
497.09	14843.68
497.26	14513.66
497.44	15016.88
497.62	14743.03
497.79	14979.43
497.97	15133.90
498.14	14988.79
498.32	15094.11
498.50	14923.26
498.67	15204.12
498.85	15520.09
499.03	15522.43
499.20	15286.04
499.38	15295.40
499.56	15925.00
499.73	15824.36
499.91	15901.60
500.08	15803.30
500.26	15637.12
500.44	15520.09
500.61	15943.73
500.79	15810.32
500.97	16269.06
501.14	16624.83
501.32	16156.72
501.49	16147.36
501.67	16388.43
501.84	16292.47
502.02	16074.80
502.20	16582.70
502.37	16877.60
502.55	16568.65
502.72	16741.85
502.90	16676.32
503.07	16573.33
503.25	16475.03
503.43	16610.78
503.60	16966.54
503.78	16999.31
503.95	16985.27
504.13	17053.14
504.30	17207.62
504.48	16961.86
504.65	17160.81
504.83	17329.33
505.01	17570.40
505.18	17469.76
505.36	17554.02
505.53	17472.10
505.71	17181.87
505.88	17547.00
506.06	17460.40
506.23	17675.73
506.41	17750.62
506.58	18036.17
506.76	17701.47
506.93	18045.53
507.11	17671.04
507.28	17724.88
507.46	17640.62
507.63	18054.89
507.81	18478.53
507.98	18302.99
508.16	18340.44
508.33	18228.09
508.50	18349.80
508.68	18293.63
508.85	18515.98
509.03	18469.17
509.20	18684.50
509.38	18883.44
509.55	19030.90
509.73	18787.48
509.90	18799.18
510.08	18824.93
510.25	18956.00
510.42	18974.72
510.60	19051.96
510.77	19208.78
510.95	19330.48
511.12	19166.65
511.30	19147.92
511.47	19393.68
511.64	19728.38
511.82	19260.27
511.99	19360.91
512.17	19545.81
512.34	19763.48
512.51	19667.52
512.69	19744.76
512.86	19768.16
513.04	20049.03
513.21	19847.74
513.38	19880.51
513.56	20009.24
513.73	19894.55
513.90	19899.23
514.08	19920.30
514.25	20091.16
514.43	20166.06
514.60	20353.30
514.77	20449.26
514.95	20301.81
515.12	20379.04
515.29	20357.98
515.47	20421.17
515.64	20706.72
515.81	20776.94
515.99	20430.54
516.16	20919.71
516.33	20624.80
516.51	20945.45
516.68	20624.80
516.85	20580.33
517.03	20922.05
517.20	21179.51
517.37	20994.61
517.54	21022.69
517.72	21418.24
517.89	21160.78
518.06	20678.63
518.24	21088.23
518.41	21282.49
518.58	21319.94
518.75	21341.00
518.93	21406.54
519.10	21570.38
519.27	21390.16
519.45	21259.09
519.62	21600.80
519.79	21568.04
519.96	21561.02
520.14	21621.87
520.31	21898.05
520.48	21937.84
520.65	21891.03
520.83	21956.57
521.00	21905.07
521.17	21867.63
521.34	21977.63
521.52	22047.85
521.69	22387.22
521.86	22108.70
522.03	22345.09
522.20	22483.19
522.38	22567.45
522.55	22398.93
522.72	22387.22
522.89	22710.22
523.07	22888.10
523.24	22693.83
523.41	22735.96
523.58	22899.80
523.75	22672.77
523.92	22766.39
524.10	22909.16
524.27	22637.66
524.44	23168.96
524.61	23159.60
524.78	23316.42
524.96	23197.05
525.13	23157.26
525.30	22904.48
525.47	23248.54
525.64	23164.28
525.81	23274.29
525.98	23447.49
526.16	23517.70
526.33	23491.96
526.50	23845.38
526.67	23613.66
526.84	23566.85
527.01	23288.33
527.18	23367.91
527.36	23702.61
527.53	23754.10
527.70	23873.46
527.87	24084.11
528.04	24020.92
528.21	23913.25
528.38	23431.10
528.55	23838.36
528.72	24261.99
528.89	23843.04
529.07	24070.07
529.24	24065.39
529.41	24381.36
529.58	24025.60
529.75	23971.77
529.92	24315.83
530.09	23974.11
530.26	23988.15
530.43	24343.91
530.60	24329.87
530.77	24156.67
530.94	24325.19
531.11	24514.77
531.28	24395.40
531.46	24573.28
531.63	24678.61
531.80	25090.54
531.97	24584.99
532.14	24680.95
532.31	24470.30
532.48	25027.35
532.65	24631.80
532.82	24601.37
532.99	25181.82
533.16	24514.77
533.33	25308.21
533.50	25324.60
533.67	25113.95
533.84	25020.33
534.01	24896.28
534.18	25242.68
534.35	25458.01
534.52	25135.01
534.69	25315.23
534.86	25626.53
535.03	25390.13
535.20	25319.92
535.37	25537.59
535.54	25553.97
535.71	25219.27
535.88	25544.61
536.05	25322.26
536.22	25572.69
536.38	25989.31
536.55	25727.17
536.72	25752.91
536.89	25619.50
537.06	25727.17
537.23	25673.34
537.40	25923.77
537.57	25916.75
537.74	25785.68
537.91	25610.14
538.08	25853.56
538.25	25855.90
538.42	26174.21
538.59	25811.43
538.75	25710.78
538.92	26209.32
539.09	25914.41
539.26	25963.56
539.43	26129.74
539.60	26398.90
539.77	26492.52
539.94	26082.93
540.11	26127.40
540.28	25982.29
540.44	26504.23
540.61	26375.50
540.78	26698.49
540.95	26316.98
541.12	26558.06
541.29	26363.79
541.46	26412.95
541.62	26541.68
541.79	26930.20
541.96	26412.95
542.13	26150.81
542.30	26712.53
542.47	26717.22
542.63	26955.95
542.80	26775.73
542.97	27152.55
543.14	27143.19
543.31	26986.38
543.48	26850.63
543.64	27274.26
543.81	27058.93
543.98	27292.99
544.15	27447.46
544.32	27580.87
544.48	27241.50
544.65	27417.04
544.82	27438.10
544.99	26881.05
545.16	27386.61
545.32	27585.55
545.49	27234.47
545.66	27166.60
545.83	27578.53
546.00	27323.41
546.16	27505.98
546.33	27522.36
546.50	27033.19
546.67	27728.33
546.83	27234.47
547.00	27335.12
547.17	27562.15
547.34	27459.16
547.50	27927.27
547.67	28376.66
547.84	27751.73
548.00	27683.86
548.17	28154.30
548.34	27978.76
548.51	28247.93
548.67	28577.94
548.84	28180.05
549.01	27946.00
549.18	27950.68
549.34	27740.03
549.51	27793.86
549.68	28095.79
549.84	27861.74
550.01	28156.64
550.18	28006.85
550.34	28332.18
550.51	28088.77
550.68	28407.08
550.84	28278.35
551.01	28484.32
551.18	27843.01
551.34	28453.89
551.51	28276.01
551.68	28243.24
551.84	28395.38
552.01	28060.68
552.18	28620.07
552.34	28596.67
552.51	28624.75
552.68	28582.62
552.84	28217.50
553.01	28760.50
553.18	28690.29
553.34	28767.52
553.51	28690.29
553.67	29081.16
553.84	29158.39
554.01	29139.67
554.17	28570.92
554.34	29053.07
554.51	28617.73
554.67	28737.10
554.84	28519.43
555.00	28706.67
555.17	28776.89
555.33	28788.59
555.50	28517.09
555.67	28666.88
555.83	29006.26
556.00	29085.84
556.16	29291.80
556.33	28739.44
556.50	29296.49
556.66	29457.98
556.83	29151.37
556.99	29392.45
557.16	29418.19
557.32	29439.26
557.49	29273.08
557.65	29020.30
557.82	29338.62
557.98	28746.46
558.15	29355.00
558.32	29542.24
558.48	29247.33
558.65	29385.43
558.81	29858.21
558.98	29415.85
559.14	29806.72
559.31	29642.88
559.47	29355.00
559.64	29474.37
559.80	29996.31
559.97	29956.52
560.13	29584.37
560.30	29539.90
560.46	29848.85
560.63	29687.36
560.79	29993.97
560.96	29369.04
561.12	29460.32
561.29	29460.32
561.45	29720.12
561.61	30000.99
561.78	30005.67
561.94	30260.79
562.11	29656.93
562.27	29656.93
562.44	29495.43
562.60	29879.28
562.77	29528.20
562.93	29743.53
563.10	29968.22
563.26	29738.85
563.42	30096.95
563.59	30003.33
563.75	29708.42
563.92	30387.18
564.08	29956.52
564.24	30183.55
564.41	29347.98
564.57	29649.91
564.74	29989.28
564.90	29991.62
565.07	30300.58
565.23	30029.07
565.39	29865.24
565.56	30225.68
565.72	30047.80
565.88	29954.18
566.05	29846.51
566.21	29949.50
566.38	30218.66
566.54	30202.27
566.70	30536.97
566.87	30096.95
567.03	30387.18
567.19	30841.24
567.36	30431.65
567.52	30246.74
567.68	30333.34
567.85	30333.34
568.01	30410.58
568.17	30256.11
568.34	30263.13
568.50	30611.87
568.66	30333.34
568.83	30291.21
568.99	30473.78
569.15	30003.33
569.32	30244.40
569.48	30291.21
569.64	30295.89
569.81	30312.28
569.97	30600.16
570.13	30445.69
570.30	30504.20
570.46	30141.42
570.62	30284.19
570.78	29879.28
570.95	29949.50
571.11	30047.80
571.27	30211.64
571.43	30270.15
571.60	30436.33
571.76	30328.66
571.92	30789.75
572.09	30693.79
572.25	30436.33
572.41	30590.80
572.57	30455.05
572.74	30675.06
572.90	30478.46
573.06	30288.87
573.22	30323.98
573.38	30675.06
573.55	30476.12
573.71	30976.99
573.87	31175.94
574.03	30352.07
574.20	30672.72
574.36	30125.04
574.52	30609.53
574.68	30672.72
574.84	30850.60
575.01	30553.35
575.17	30433.99
575.33	30387.18
575.49	30504.20
575.65	30497.18
575.82	30866.98
575.98	30656.34
576.14	30518.25
576.30	30258.45
576.46	30260.79
576.62	30651.66
576.79	30448.03
576.95	30813.15
577.11	30153.12
577.27	30710.17
577.43	30689.10
577.59	31147.85
577.75	30787.41
577.92	30471.43
578.08	30565.06
578.24	30724.21
578.40	30775.70
578.56	30522.93
578.72	30759.32
578.88	30714.85
579.04	31098.70
579.21	30946.56
579.37	30937.20
579.53	31000.40
579.69	30565.06
579.85	30799.11
580.01	30752.30
580.17	30597.82
580.33	30707.83
580.49	30766.34
580.65	30822.51
580.82	30778.04
580.98	30890.39
581.14	31023.80
581.30	30948.90
581.46	30864.64
581.62	30817.83
581.78	30639.95
581.94	30597.82
582.10	30565.06
582.26	30518.25
582.42	30625.91
582.58	31072.95
582.74	30618.89
582.90	31365.52
583.06	30764.00
583.22	30410.58
583.38	30637.61
583.54	30668.04
583.70	30735.92
583.86	31002.74
584.02	30792.09
584.18	30820.17
584.34	30932.52
584.50	31117.42
584.66	31077.63
584.82	30890.39
584.98	30960.61
585.14	30689.10
585.30	30415.26
585.46	30541.65
585.62	30731.23
585.78	31339.77
585.94	30752.30
586.10	31042.53
586.26	30810.81
586.42	31505.95
586.58	31461.48
586.74	31101.04
586.90	30782.73
587.06	30815.49
587.22	31033.16
587.38	30696.13
587.54	30909.11
587.70	31180.62
587.86	31295.30
588.02	31166.57
588.18	31115.08
588.34	31197.00
588.49	31115.08
588.65	30876.35
588.81	31009.76
588.97	30979.33
589.13	30794.43
589.29	30932.52
589.45	31161.89
589.61	30649.32
589.77	31796.18
589.93	31491.91
590.08	31119.76
590.24	31232.11
590.40	31632.34
590.56	31264.88
590.72	31197.00
590.88	31101.04
591.04	31377.22
591.20	31491.91
591.35	31391.26
591.51	31749.37
591.67	31360.84
591.83	31454.46
