SpectraSuite Data File
++++++++++++++++++++++++++++++++++++
Date: Fri Oct 18 13:58:30 GMT-05:00 2013
User: bianchi
Dark Spectrum Present: No
Reference Spectrum Present: No
Number of Sampled Component Spectra: 1
Spectrometers: USB2+H05261
Integration Time (usec): 50000 (USB2+H05261)
Spectra Averaged: 1 (USB2+H05261)
Boxcar Smoothing: 0 (USB2+H05261)
Correct for Electrical Dark: No (USB2+H05261)
Strobe/Lamp Enabled: No (USB2+H05261)
Correct for Detector Non-linearity: No (USB2+H05261)
Correct for Stray Light: No (USB2+H05261)
Number of Pixels in Processed Spectrum: 2048
>>>>>Begin Processed Spectral Data<<<<<
365.73	51.49
365.92	51.49
366.12	51.49
366.32	0.00
366.52	0.00
366.72	0.00
366.91	0.00
367.11	0.00
367.31	0.00
367.51	0.00
367.70	0.00
367.90	0.00
368.10	0.00
368.30	0.00
368.49	0.00
368.69	0.00
368.89	0.00
369.09	0.00
369.28	0.00
369.48	0.00
369.68	0.00
369.87	0.00
370.07	0.00
370.27	0.00
370.47	23.41
370.66	65.54
370.86	84.26
371.06	100.64
371.25	168.52
371.45	77.24
371.65	142.77
371.84	135.75
372.04	156.82
372.24	220.01
372.44	152.13
372.63	163.84
372.83	292.57
373.03	208.31
373.22	220.01
373.42	227.03
373.62	205.97
373.81	255.12
374.01	269.16
374.21	217.67
374.40	215.33
374.60	161.50
374.79	248.10
374.99	231.71
375.19	252.78
375.38	264.48
375.58	149.79
375.78	201.29
375.97	217.67
376.17	252.78
376.37	278.52
376.56	327.68
376.76	287.89
376.95	229.37
377.15	313.63
377.35	313.63
377.54	222.35
377.74	248.10
377.93	280.86
378.13	280.86
378.33	315.97
378.52	308.95
378.72	245.76
378.91	236.39
379.11	203.63
379.31	313.63
379.50	306.61
379.70	379.17
379.89	344.06
380.09	341.72
380.28	290.23
380.48	262.14
380.68	255.12
380.87	234.05
381.07	287.89
381.26	276.18
381.46	311.29
381.65	348.74
381.85	241.08
382.04	283.20
382.24	360.44
382.43	325.33
382.63	269.16
382.83	344.06
383.02	390.87
383.22	325.33
383.41	306.61
383.61	353.42
383.80	339.38
384.00	299.59
384.19	337.04
384.39	358.10
384.58	344.06
384.78	400.23
384.97	416.62
385.17	330.02
385.36	390.87
385.56	367.46
385.75	372.15
385.95	461.09
386.14	351.08
386.34	379.17
386.53	339.38
386.72	425.98
386.92	402.57
387.11	346.40
387.31	379.17
387.50	386.19
387.70	461.09
387.89	496.19
388.09	395.55
388.28	507.90
388.48	430.66
388.67	379.17
388.86	407.25
389.06	428.32
389.25	486.83
389.45	503.22
389.64	475.13
389.84	489.17
390.03	442.36
390.22	470.45
390.42	470.45
390.61	507.90
390.81	491.51
391.00	514.92
391.19	468.11
391.39	489.17
391.58	512.58
391.78	477.47
391.97	557.05
392.16	505.56
392.36	472.79
392.55	496.19
392.75	519.60
392.94	538.32
393.13	587.47
393.33	505.56
393.52	540.66
393.71	615.56
393.91	606.20
394.10	617.90
394.29	594.50
394.49	531.30
394.68	603.86
394.88	543.00
395.07	594.50
395.26	561.73
395.46	638.97
395.65	601.52
395.84	601.52
396.04	603.86
396.23	543.00
396.42	589.82
396.62	629.60
396.81	634.29
397.00	653.01
397.19	559.39
397.39	667.05
397.58	631.94
397.77	636.63
397.97	709.18
398.16	741.95
398.35	688.12
398.55	725.57
398.74	660.03
398.93	704.50
399.12	748.97
399.32	692.80
399.51	615.56
399.70	744.29
399.90	592.16
400.09	781.74
400.28	802.80
400.47	758.33
400.67	723.23
400.86	788.76
401.05	802.80
401.24	716.20
401.44	737.27
401.63	765.36
401.82	807.48
402.01	805.14
402.21	784.08
402.40	828.55
402.59	788.76
402.78	903.45
402.97	828.55
403.17	950.26
403.36	798.12
403.55	912.81
403.74	915.15
403.93	795.78
404.13	917.49
404.32	917.49
404.51	950.26
404.70	922.17
404.89	957.28
405.09	933.87
405.28	929.19
405.47	952.60
405.66	940.90
405.85	1008.77
406.05	1015.79
406.24	936.21
406.43	905.79
406.62	997.07
406.81	1015.79
407.00	994.73
407.20	1001.75
407.39	931.53
407.58	1041.54
407.77	1027.50
407.96	1004.09
408.15	1067.28
408.34	1090.69
408.54	1069.62
408.73	1116.44
408.92	1064.94
409.11	1116.44
409.30	1149.20
409.49	1100.05
409.68	1163.25
409.87	1088.35
410.07	1198.35
410.26	1170.27
410.45	1188.99
410.64	1212.40
410.83	1186.65
411.02	1158.57
411.21	1268.57
411.40	1191.33
411.59	1273.25
411.78	1263.89
411.98	1221.76
412.17	1224.10
412.36	1322.40
412.55	1320.06
412.74	1315.38
412.93	1371.55
413.12	1404.32
413.31	1409.00
413.50	1401.98
413.69	1369.21
413.88	1409.00
414.07	1359.85
414.26	1416.02
414.45	1423.05
414.64	1387.94
414.83	1409.00
415.02	1462.83
415.22	1535.39
415.41	1479.22
415.60	1610.29
415.79	1502.62
415.98	1582.20
416.17	1495.60
416.36	1448.79
416.55	1530.71
416.74	1612.63
416.93	1619.65
417.12	1633.69
417.31	1610.29
417.50	1671.14
417.69	1724.97
417.88	1685.19
418.07	1771.79
418.26	1685.19
418.45	1771.79
418.64	1846.68
418.83	1696.89
419.02	1863.07
419.21	1820.94
419.39	1781.15
419.58	1813.92
419.77	1849.02
419.96	1837.32
420.15	1743.70
420.34	1790.51
420.53	1802.21
420.72	1912.22
420.91	1928.60
421.10	1937.96
421.29	1937.96
421.48	1830.30
421.67	1923.92
421.86	1806.89
422.05	1905.20
422.24	1942.64
422.43	1851.36
422.61	2057.33
422.80	2026.90
422.99	1947.33
423.18	2052.65
423.37	2022.22
423.56	2069.03
423.75	2003.50
423.94	1975.41
424.13	1919.24
424.32	1877.11
424.50	1956.69
424.69	2022.22
424.88	2015.20
425.07	1928.60
425.26	1937.96
425.45	1975.41
425.64	1912.22
425.83	1849.02
426.01	1970.73
426.20	2122.87
426.39	1991.80
426.58	2047.97
426.77	2024.56
426.96	2101.80
427.15	2099.46
427.33	2118.18
427.52	2120.53
427.71	2076.06
427.90	2083.08
428.09	2136.91
428.28	2153.29
428.46	2188.40
428.65	2146.27
428.84	2296.07
429.03	2153.29
429.22	2169.68
429.40	2275.00
429.59	2275.00
429.78	2148.61
429.97	2162.66
430.16	2239.89
430.34	2305.43
430.53	2253.94
430.72	2214.15
430.91	2279.68
431.10	2300.75
431.28	2368.62
431.47	2413.09
431.66	2361.60
431.85	2356.92
432.03	2387.35
432.22	2455.22
432.41	2310.11
432.60	2420.11
432.79	2385.01
432.97	2525.44
433.16	2455.22
433.35	2445.86
433.54	2417.77
433.72	2389.69
433.91	2417.77
434.10	2434.16
434.28	2490.33
434.47	2462.24
434.66	2478.63
434.85	2548.84
435.03	2466.92
435.22	2504.37
435.41	2544.16
435.59	2572.25
435.78	2628.42
435.97	2574.59
436.16	2616.72
436.34	2588.63
436.53	2633.10
436.72	2810.98
436.90	2612.04
437.09	2647.15
437.28	2558.21
437.46	2740.77
437.65	2649.49
437.84	2731.41
438.02	2780.56
438.21	2813.32
438.40	2792.26
438.58	2827.37
438.77	2782.90
438.96	2928.01
439.14	2834.39
439.33	2771.19
439.52	2935.03
439.70	2951.42
439.89	2970.14
440.08	2928.01
440.26	2977.16
440.45	3084.83
440.63	3026.31
440.82	3101.21
441.01	3042.70
441.19	3094.19
441.38	3110.57
441.57	3068.44
441.75	3148.02
441.94	3206.53
442.12	3119.93
442.31	3185.47
442.50	3208.87
442.68	3251.00
442.87	3253.34
443.05	3377.39
443.24	3396.12
443.43	3267.39
443.61	3304.84
443.80	3396.12
443.98	3229.94
444.17	3227.60
444.35	3325.90
444.54	3328.24
444.73	3323.56
444.91	3332.92
445.10	3440.59
445.28	3375.05
445.47	3337.60
445.65	3361.01
445.84	3454.63
446.02	3389.10
446.21	3337.60
446.39	3496.76
446.58	3372.71
446.77	3501.44
446.95	3311.86
447.14	3431.23
447.32	3400.80
447.51	3487.40
447.69	3363.35
447.88	3447.61
448.06	3339.94
448.25	3407.82
448.43	3454.63
448.62	3588.04
448.80	3440.59
448.99	3648.90
449.17	3552.93
449.36	3557.61
449.54	3674.64
449.73	3698.05
449.91	3466.33
450.10	3740.18
450.28	3702.73
450.46	3709.75
450.65	3681.66
450.83	3667.62
451.02	3651.24
451.20	3648.90
451.39	3522.51
451.57	3648.90
451.76	3613.79
451.94	3779.97
452.13	3878.27
452.31	3824.44
452.49	3702.73
452.68	3859.54
452.86	3751.88
453.05	3829.12
453.23	3763.58
453.42	3880.61
453.60	3887.63
453.78	3824.44
453.97	3850.18
454.15	3922.74
454.34	3707.41
454.52	3934.44
454.70	3815.07
454.89	4037.42
455.07	3826.78
455.26	3964.87
455.44	4107.64
455.62	3859.54
455.81	3957.85
455.99	3913.38
456.17	4058.49
456.36	4142.75
456.54	4210.62
456.73	4086.58
456.91	4250.41
457.09	4131.05
457.28	4269.14
457.46	4063.17
457.64	4234.03
457.83	4320.63
458.01	4201.26
458.19	4243.39
458.38	4332.33
458.56	4138.07
458.74	4241.05
458.93	4070.19
459.11	4388.50
459.29	4299.56
459.48	4470.42
459.66	4475.10
459.84	4493.83
460.03	4496.17
460.21	4423.61
460.39	4381.48
460.57	4519.57
460.76	4535.96
460.94	4554.68
461.12	4435.32
461.31	4564.04
461.49	4503.19
461.67	4447.02
461.85	4690.43
462.04	4580.43
462.22	4669.37
462.40	4748.95
462.59	4779.37
462.77	4678.73
462.95	4699.80
463.13	4685.75
463.32	4610.86
463.50	4781.71
463.68	4833.21
463.86	4777.03
464.05	4821.50
464.23	4770.01
464.41	4826.18
464.59	4613.20
464.78	4835.55
464.96	4847.25
465.14	4781.71
465.32	4842.57
465.50	5018.11
465.69	4863.63
465.87	4985.34
466.05	4877.68
466.23	4966.62
466.41	5001.72
466.60	5008.75
466.78	4903.42
466.96	4985.34
467.14	4987.68
467.32	5088.32
467.51	5097.69
467.69	5071.94
467.87	4959.60
468.05	4992.36
468.23	4980.66
468.41	5060.24
468.60	5027.47
468.78	5172.58
468.96	5100.03
469.14	5149.18
469.32	5242.80
469.50	5090.67
469.69	5205.35
469.87	5254.50
470.05	5313.02
470.23	5383.23
470.41	5296.63
470.59	5397.28
470.77	5392.59
470.95	5329.40
471.14	5343.44
471.32	5341.10
471.50	5643.03
471.68	5586.86
471.86	5502.60
472.04	5600.90
472.22	5645.37
472.40	5547.07
472.58	5645.37
472.77	5692.18
472.95	5788.14
473.13	5921.56
473.31	5558.77
473.49	5586.86
473.67	5783.46
473.85	5860.70
474.03	5930.92
474.21	5956.66
474.39	6024.54
474.57	6092.41
474.75	5998.79
474.93	6169.65
475.12	6097.10
475.30	6008.16
475.48	5921.56
475.66	5947.30
475.84	6099.44
476.02	6190.72
476.20	6223.48
476.38	6237.53
476.56	6497.33
476.74	6525.41
476.92	6377.96
477.10	6331.15
477.28	6593.29
477.46	6553.50
477.64	6459.88
477.82	6661.16
478.00	7096.50
478.18	6862.45
478.36	6993.52
478.54	6850.75
478.72	6825.00
478.90	6918.62
479.08	7190.13
479.26	7087.14
479.44	7080.12
479.62	7316.51
479.80	7119.91
479.98	7353.96
480.16	7508.44
480.34	7356.30
480.52	7566.95
480.70	7573.97
480.88	7548.23
481.06	7447.58
481.24	7723.77
481.41	7564.61
481.59	7791.64
481.77	7857.18
481.95	7999.95
482.13	8006.97
482.31	7955.48
482.49	8100.59
482.67	8271.45
482.85	8138.04
483.03	8390.82
483.21	8175.49
483.39	8390.82
483.57	8472.74
483.74	8470.40
483.92	8695.09
484.10	8655.30
484.28	8842.54
484.46	8945.53
484.64	8870.63
484.82	8828.50
485.00	8690.41
485.18	8950.21
485.35	8966.59
485.53	9158.52
485.71	9249.80
485.89	9441.72
486.07	9476.83
486.25	9497.89
486.43	9584.49
486.61	9628.96
486.78	9696.84
486.96	9769.40
487.14	9926.21
487.32	9867.70
487.50	10036.22
487.68	9806.84
487.85	10216.44
488.03	10267.93
488.21	10171.97
488.39	10387.30
488.57	10525.39
488.75	10429.43
488.92	10787.53
489.10	10761.78
489.28	10619.01
489.46	10710.29
489.64	10902.22
489.81	10949.03
489.99	10991.16
490.17	11229.89
490.35	11204.14
490.53	10970.09
490.70	11386.71
490.88	11414.79
491.06	11590.33
491.24	11513.10
491.41	11812.68
491.59	11630.12
491.77	11920.35
491.95	11943.75
492.13	12018.65
492.30	12020.99
492.48	12194.19
492.66	11896.94
492.84	12276.11
493.01	12430.59
493.19	12339.30
493.37	12416.54
493.54	12655.28
493.72	12514.84
493.90	12519.53
494.08	12648.26
494.25	12868.27
494.43	12945.50
494.61	13111.68
494.79	13228.71
494.96	12968.91
495.14	13207.64
495.32	13305.95
495.49	13462.76
495.67	13399.57
495.85	13603.19
496.02	13680.43
496.20	13661.71
496.38	13497.87
496.55	13626.60
496.73	14263.22
496.91	14033.85
497.09	14005.77
497.26	14057.26
497.44	13902.78
497.62	14216.41
497.79	14396.64
497.97	14284.29
498.14	14415.36
498.32	14340.46
498.50	14445.79
498.67	14682.18
498.85	14635.37
499.03	14764.10
499.20	14768.78
499.38	14785.16
499.56	14743.03
499.73	14878.79
499.91	15150.29
500.08	15178.37
500.26	14850.70
500.44	15033.26
500.61	15119.86
500.79	15330.51
500.97	15522.43
501.14	15604.35
501.32	15620.74
501.49	15728.40
501.67	15410.09
501.84	15562.22
502.02	15625.42
502.20	15499.03
502.37	15882.88
502.55	15772.87
502.72	15964.79
502.90	16004.58
503.07	15983.52
503.25	15910.96
503.43	16049.05
503.60	16114.59
503.78	16341.62
503.95	16262.04
504.13	16329.92
504.30	16107.57
504.48	16156.72
504.65	16540.57
504.83	16435.24
505.01	16730.15
505.18	16685.68
505.36	16568.65
505.53	16737.17
505.71	16706.74
505.88	16664.61
506.06	16645.89
506.23	16875.26
506.41	17039.10
506.58	16844.84
506.76	16903.35
506.93	17013.35
507.11	17081.23
507.28	17039.10
507.46	17228.68
507.63	17170.17
507.81	17640.62
507.98	17341.03
508.16	17319.96
508.33	17308.26
508.50	17708.49
508.68	17661.68
508.85	17713.17
509.03	17869.99
509.20	17811.48
509.38	17888.71
509.55	18146.17
509.73	18078.30
509.90	18057.23
510.08	17748.28
510.25	17881.69
510.42	18171.92
510.60	18331.08
510.77	18403.63
510.95	18537.04
511.12	18223.41
511.30	18354.48
511.47	18431.72
511.64	18614.28
511.82	18293.63
511.99	18593.22
512.17	18469.17
512.34	18663.43
512.51	18789.82
512.69	18822.59
512.86	18651.73
513.04	18970.04
513.21	19054.30
513.38	19110.47
513.56	18808.54
513.73	18965.36
513.90	19054.30
514.08	19033.24
514.25	19168.99
514.43	19140.90
514.60	19367.93
514.77	19499.00
514.95	19510.71
515.12	19630.07
515.29	19412.40
515.47	19747.10
515.64	19824.34
515.81	19939.02
515.99	19660.50
516.16	19939.02
516.33	19733.06
516.51	19999.88
516.68	19810.29
516.85	19700.29
517.03	19908.60
517.20	20072.43
517.37	20056.05
517.54	20269.04
517.72	20140.31
517.89	20163.72
518.06	20257.34
518.24	20112.22
518.41	20079.46
518.58	20072.43
518.75	20493.73
518.93	20533.52
519.10	20301.81
519.27	20851.83
519.45	20510.11
519.62	20788.64
519.79	20664.59
519.96	20734.81
520.14	20908.01
520.31	20629.48
520.48	21181.85
520.65	20882.26
520.83	20959.50
521.00	20975.88
521.17	20999.29
521.34	20746.51
521.52	20989.92
521.69	21394.84
521.86	21226.32
522.03	21451.01
522.20	21270.79
522.38	21305.90
522.55	21387.82
522.72	21458.03
522.89	21479.10
523.07	21689.74
523.24	21610.17
523.41	21884.01
523.58	21448.67
523.75	21619.53
523.92	21694.43
524.10	21865.28
524.27	21514.20
524.44	22012.74
524.61	21972.95
524.78	21923.80
524.96	21678.04
525.13	22036.14
525.30	22207.00
525.47	21996.35
525.64	22029.12
525.81	22539.36
525.98	22499.57
526.16	21984.65
526.33	22010.40
526.50	22321.69
526.67	22209.34
526.84	22246.79
527.01	22417.65
527.18	22600.21
527.36	22808.52
527.53	22579.15
527.70	23019.17
527.87	22768.73
528.04	22789.80
528.21	22747.67
528.38	22766.39
528.55	22677.45
528.72	23112.79
528.89	23026.19
529.07	23042.57
529.24	22913.84
529.41	23393.65
529.58	23206.41
529.75	22888.10
529.92	23145.56
530.09	23154.92
530.26	23070.66
530.43	23412.38
530.60	23129.17
530.77	23403.02
530.94	23248.54
531.11	22946.61
531.28	23592.60
531.46	23503.66
531.63	23351.52
531.80	23765.80
531.97	23676.86
532.14	23344.50
532.31	23552.81
532.48	23655.79
532.65	23611.32
532.82	23594.94
532.99	23594.94
533.16	23803.25
533.33	23997.51
533.50	24077.09
533.67	23992.83
533.84	23721.33
534.01	23742.39
534.18	23573.88
534.35	23791.55
534.52	23957.72
534.69	24130.92
534.86	23859.42
535.03	24006.87
535.20	24128.58
535.37	23913.25
535.54	24116.88
535.71	24116.88
535.88	24711.38
536.05	24386.04
536.22	24603.71
536.38	24552.22
536.55	24545.20
536.72	24491.37
536.89	24137.94
537.06	24575.62
537.23	24807.34
537.40	24418.81
537.57	24561.58
537.74	24503.07
537.91	24718.40
538.08	24744.14
538.25	24517.11
538.42	24805.00
538.59	24631.80
538.75	25132.67
538.92	25010.96
539.09	24980.54
539.26	24931.39
539.43	24971.18
539.60	24877.55
539.77	25249.70
539.94	24987.56
540.11	24800.32
540.28	24987.56
540.44	24725.42
540.61	24926.71
540.78	24730.10
540.95	25289.49
541.12	25034.37
541.29	25429.92
541.46	25397.15
541.62	24996.92
541.79	25048.41
541.96	24907.98
542.13	25165.44
542.30	25277.79
542.47	25329.28
542.63	25530.56
542.80	25830.15
542.97	25682.70
543.14	25516.52
543.31	25806.75
543.48	25582.06
543.64	25977.61
543.81	25867.60
543.98	26324.01
544.15	25855.90
544.32	25893.35
544.48	25993.99
544.65	26089.95
544.82	25984.63
544.99	25968.24
545.16	25727.17
545.32	25869.94
545.49	26036.12
545.66	26272.51
545.83	26705.51
546.00	26408.26
546.16	26410.60
546.33	26094.63
546.50	25979.95
546.67	26401.24
546.83	26141.44
547.00	26527.63
547.17	26270.17
547.34	26197.62
547.50	26469.12
547.67	26749.98
547.84	26309.96
548.00	26321.66
548.17	26661.04
548.34	26457.42
548.51	26780.41
548.67	26796.79
548.84	26410.60
549.01	26473.80
549.18	26834.24
549.34	26581.46
549.51	26415.29
549.68	26848.29
549.84	26824.88
550.01	26754.66
550.18	26520.61
550.34	27201.71
550.51	27072.98
550.68	26780.41
550.84	27239.15
551.01	27204.05
551.18	26735.94
551.34	26960.63
551.51	26916.16
551.68	27056.59
551.84	26789.77
552.01	27115.11
552.18	27274.26
552.34	27257.88
552.51	26941.91
552.68	27112.77
552.84	27075.32
553.01	27019.14
553.18	27000.42
553.34	27358.52
553.51	27199.37
553.67	27325.75
553.84	27852.38
554.01	27419.38
554.17	27426.40
554.34	27461.51
554.51	27304.69
554.67	27316.39
554.84	27477.89
555.00	27695.56
555.17	27243.84
555.33	27484.91
555.50	27098.72
555.67	27669.81
555.83	27508.32
556.00	27482.57
556.16	27765.78
556.33	27620.66
556.50	27775.14
556.66	28009.19
556.83	27950.68
556.99	28088.77
557.16	27976.42
557.32	27906.21
557.49	27805.56
557.65	27744.71
557.82	27974.08
557.98	27683.86
558.15	27765.78
558.32	27960.04
558.48	27805.56
558.65	27927.27
558.81	28217.50
558.98	27791.52
559.14	27880.46
559.31	28086.43
559.47	27744.71
559.64	28503.04
559.80	28189.41
559.97	28046.64
560.13	28093.45
560.30	28439.85
560.46	28521.77
560.63	28332.18
560.79	28027.92
560.96	28034.94
561.12	28135.58
561.29	28318.14
561.45	28470.28
561.61	28194.09
561.78	28556.88
561.94	28486.66
562.11	28367.29
562.27	28362.61
562.44	28105.15
562.60	28428.15
562.77	28442.19
562.93	27831.31
563.10	28339.21
563.26	28102.81
563.42	28851.78
563.59	28233.88
563.75	28400.06
563.92	28673.90
564.08	28311.12
564.24	28215.16
564.41	28414.10
564.57	28222.18
564.74	28116.86
564.90	28704.33
565.07	28512.41
565.23	28655.18
565.39	28528.79
565.56	28734.76
565.72	28329.84
565.88	28559.22
566.05	28620.07
566.21	28538.15
566.38	28479.64
566.54	28641.14
566.70	28437.51
566.87	29003.92
567.03	28807.31
567.19	28517.09
567.36	28947.75
567.52	28835.40
567.68	28975.83
567.85	28524.11
568.01	28936.04
568.17	28521.77
568.34	28659.86
568.50	28393.04
568.66	28563.90
568.83	29275.42
568.99	28786.25
569.15	29057.75
569.32	28865.83
569.48	28608.37
569.64	29081.16
569.81	28699.65
569.97	28844.76
570.13	28907.96
570.30	28982.85
570.46	28732.42
570.62	29237.97
570.78	28903.28
570.95	28629.43
571.11	28982.85
571.27	28877.53
571.43	28442.19
571.60	28835.40
571.76	28479.64
571.92	28732.42
572.09	29481.39
572.25	28835.40
572.41	29046.05
572.57	28863.49
572.74	29123.29
572.90	28732.42
573.06	28776.89
573.22	29104.56
573.38	29046.05
573.55	29127.97
573.71	29106.90
573.87	29046.05
574.03	29177.12
574.20	28854.12
574.36	28690.29
574.52	28865.83
574.68	28835.40
574.84	29118.60
575.01	28914.98
575.17	29219.25
575.33	28914.98
575.49	29006.26
575.65	29273.08
575.82	29357.34
575.98	29139.67
576.14	29296.49
576.30	29055.41
576.46	28884.55
576.62	28996.90
576.79	29130.31
576.95	28418.78
577.11	29221.59
577.27	29230.95
577.43	29226.27
577.59	29237.97
577.75	29106.90
577.92	29041.37
578.08	29048.39
578.24	29034.35
578.40	28811.99
578.56	28957.11
578.72	29127.97
578.88	29111.58
579.04	29600.76
579.21	29308.19
579.37	29062.43
579.53	29280.10
579.69	28631.77
579.85	28961.79
580.01	29125.63
580.17	28751.14
580.33	29474.37
580.49	29191.16
580.65	29436.92
580.82	29095.20
580.98	29434.58
581.14	29275.42
581.30	29495.43
581.46	29352.66
581.62	29102.22
581.78	29261.38
581.94	29202.86
582.10	29610.12
582.26	29282.44
582.42	29230.95
582.58	29804.38
582.74	29230.95
582.90	29256.70
583.06	29422.87
583.22	29425.22
583.38	29111.58
583.54	29249.67
583.70	29331.59
583.86	29170.10
584.02	29142.01
584.18	29895.66
584.34	29575.01
584.50	29312.87
584.66	29067.11
584.82	29376.06
584.98	29347.98
585.14	29350.32
585.30	29259.04
585.46	28741.78
585.62	28819.02
585.78	29708.42
585.94	29230.95
586.10	29317.55
586.26	29731.83
586.42	29420.53
586.58	29242.65
586.74	29359.68
586.90	29191.16
587.06	29074.13
587.22	29385.43
587.38	29158.39
587.54	29523.52
587.70	29553.94
587.86	29432.24
588.02	29607.78
588.18	29596.07
588.34	29181.80
588.49	29127.97
588.65	29132.65
588.81	29280.10
588.97	29132.65
589.13	29308.19
589.29	29411.17
589.45	29539.90
589.61	29582.03
589.77	29874.60
589.93	29713.10
590.08	29551.60
590.24	29294.14
590.40	29369.04
590.56	29624.16
590.72	29284.78
590.88	29317.55
591.04	29551.60
591.20	29729.48
591.35	29633.52
591.51	30223.34
591.67	29734.17
591.83	29778.64
591.99	29846.51
