SpectraSuite Data File
++++++++++++++++++++++++++++++++++++
Date: Fri Oct 18 13:58:04 GMT-05:00 2013
User: bianchi
Dark Spectrum Present: No
Reference Spectrum Present: No
Number of Sampled Component Spectra: 1
Spectrometers: USB2+H05261
Integration Time (usec): 50000 (USB2+H05261)
Spectra Averaged: 1 (USB2+H05261)
Boxcar Smoothing: 0 (USB2+H05261)
Correct for Electrical Dark: No (USB2+H05261)
Strobe/Lamp Enabled: No (USB2+H05261)
Correct for Detector Non-linearity: No (USB2+H05261)
Correct for Stray Light: No (USB2+H05261)
Number of Pixels in Processed Spectrum: 2048
>>>>>Begin Processed Spectral Data<<<<<
365.73	0.00
365.92	0.00
366.12	0.00
366.32	0.00
366.52	0.00
366.72	0.00
366.91	0.00
367.11	0.00
367.31	0.00
367.51	0.00
367.70	0.00
367.90	0.00
368.10	0.00
368.30	0.00
368.49	0.00
368.69	0.00
368.89	0.00
369.09	0.00
369.28	0.00
369.48	0.00
369.68	0.00
369.87	0.00
370.07	0.00
370.27	0.00
370.47	0.00
370.66	142.77
370.86	140.43
371.06	145.11
371.25	149.79
371.45	124.05
371.65	145.11
371.84	135.75
372.04	133.41
372.24	229.37
372.44	91.28
372.63	147.45
372.83	205.97
373.03	205.97
373.22	250.44
373.42	234.05
373.62	224.69
373.81	184.90
374.01	227.03
374.21	175.54
374.40	234.05
374.60	245.76
374.79	133.41
374.99	255.12
375.19	271.50
375.38	278.52
375.58	236.39
375.78	255.12
375.97	257.46
376.17	287.89
376.37	252.78
376.56	194.26
376.76	252.78
376.95	311.29
377.15	292.57
377.35	290.23
377.54	283.20
377.74	248.10
377.93	269.16
378.13	257.46
378.33	231.71
378.52	297.25
378.72	320.65
378.91	325.33
379.11	276.18
379.31	308.95
379.50	315.97
379.70	278.52
379.89	348.74
380.09	301.93
380.28	290.23
380.48	285.55
380.68	383.85
380.87	332.36
381.07	280.86
381.26	353.42
381.46	327.68
381.65	353.42
381.85	301.93
382.04	327.68
382.24	287.89
382.43	299.59
382.63	313.63
382.83	332.36
383.02	381.51
383.22	353.42
383.41	330.02
383.61	339.38
383.80	355.76
384.00	451.72
384.19	376.83
384.39	332.36
384.58	418.96
384.78	479.81
384.97	383.85
385.17	365.12
385.36	374.49
385.56	435.34
385.75	351.08
385.95	372.15
386.14	447.04
386.34	416.62
386.53	423.64
386.72	496.19
386.92	470.45
387.11	421.30
387.31	409.59
387.50	496.19
387.70	510.24
387.89	543.00
388.09	428.32
388.28	437.68
388.48	449.38
388.67	444.70
388.86	500.87
389.06	414.27
389.25	489.17
389.45	507.90
389.64	411.93
389.84	409.59
390.03	519.60
390.22	465.77
390.42	475.13
390.61	486.83
390.81	512.58
391.00	463.43
391.19	528.96
391.39	592.16
391.58	514.92
391.78	418.96
391.97	505.56
392.16	486.83
392.36	514.92
392.55	587.47
392.75	603.86
392.94	582.79
393.13	601.52
393.33	561.73
393.52	552.37
393.71	566.41
393.91	571.09
394.10	580.45
394.29	592.16
394.49	617.90
394.68	575.77
394.88	596.84
395.07	681.10
395.26	575.77
395.46	631.94
395.65	636.63
395.84	596.84
396.04	624.92
396.23	657.69
396.42	695.14
396.62	615.56
396.81	655.35
397.00	603.86
397.19	755.99
397.39	737.27
397.58	634.29
397.77	638.97
397.97	641.31
398.16	688.12
398.35	699.82
398.55	657.69
398.74	716.20
398.93	725.57
399.12	753.65
399.32	800.46
399.51	725.57
399.70	758.33
399.90	741.95
400.09	702.16
400.28	784.08
400.47	788.76
400.67	734.93
400.86	751.31
401.05	739.61
401.24	847.27
401.44	779.40
401.63	770.04
401.82	779.40
402.01	793.44
402.21	823.87
402.40	823.87
402.59	842.59
402.78	880.04
402.97	882.38
403.17	861.32
403.36	760.67
403.55	905.79
403.74	929.19
403.93	894.08
404.13	905.79
404.32	940.90
404.51	875.36
404.70	896.43
404.89	901.11
405.09	1004.09
405.28	882.38
405.47	959.62
405.66	1046.22
405.85	1102.39
406.05	1036.86
406.24	997.07
406.43	1125.80
406.62	1064.94
406.81	1001.75
407.00	1041.54
407.20	1027.50
407.39	1006.43
407.58	1111.75
407.77	1069.62
407.96	1137.50
408.15	1086.01
408.34	1046.22
408.54	1125.80
408.73	1203.04
408.92	1109.41
409.11	1114.10
409.30	1111.75
409.49	1128.14
409.68	1188.99
409.87	1097.71
410.07	1125.80
410.26	1315.38
410.45	1188.99
410.64	1212.40
410.83	1277.93
411.02	1198.35
411.21	1193.67
411.40	1221.76
411.59	1273.25
411.78	1329.42
411.98	1273.25
412.17	1268.57
412.36	1327.08
412.55	1369.21
412.74	1406.66
412.93	1444.11
413.12	1355.17
413.31	1476.88
413.50	1411.34
413.69	1380.92
413.88	1479.22
414.07	1465.18
414.26	1409.00
414.45	1563.48
414.64	1469.86
414.83	1507.30
415.02	1584.54
415.22	1607.95
415.41	1561.14
415.60	1474.54
415.79	1612.63
415.98	1640.72
416.17	1629.01
416.36	1778.81
416.55	1582.20
416.74	1708.59
416.93	1767.10
417.12	1687.53
417.31	1701.57
417.50	1706.25
417.69	1739.02
417.88	1666.46
418.07	1757.74
418.26	1678.16
418.45	1755.40
418.64	1912.22
418.83	1755.40
419.02	1858.39
419.21	1802.21
419.39	1827.96
419.58	1830.30
419.77	1872.43
419.96	1900.52
420.15	1942.64
420.34	1842.00
420.53	1856.04
420.72	1928.60
420.91	1959.03
421.10	2057.33
421.29	2045.63
421.48	1944.99
421.67	1905.20
421.86	1947.33
422.05	1963.71
422.24	2073.71
422.43	1952.01
422.61	2092.44
422.80	2052.65
422.99	2026.90
423.18	1982.43
423.37	2069.03
423.56	1980.09
423.75	2008.18
423.94	1963.71
424.13	1858.39
424.32	1902.86
424.50	2024.56
424.69	1872.43
424.88	2038.61
425.07	2015.20
425.26	1970.73
425.45	2003.50
425.64	2113.50
425.83	2153.29
426.01	2101.80
426.20	2101.80
426.39	2040.95
426.58	2113.50
426.77	2106.48
426.96	2160.31
427.15	2169.68
427.33	2010.52
427.52	2120.53
427.71	2188.40
427.90	2062.01
428.09	2148.61
428.28	2172.02
428.46	2195.42
428.65	2134.57
428.84	2244.57
429.03	2338.20
429.22	2052.65
429.40	2370.96
429.59	2363.94
429.78	2115.84
429.97	2277.34
430.16	2225.85
430.34	2361.60
430.53	2298.41
430.72	2207.13
430.91	2352.24
431.10	2298.41
431.28	2487.99
431.47	2363.94
431.66	2415.43
431.85	2380.32
432.03	2480.97
432.22	2579.27
432.41	2443.52
432.60	2476.29
432.79	2466.92
432.97	2541.82
433.16	2504.37
433.35	2581.61
433.54	2485.65
433.72	2502.03
433.91	2539.48
434.10	2499.69
434.28	2560.55
434.47	2663.53
434.66	2527.78
434.85	2595.65
435.03	2520.76
435.22	2665.87
435.41	2686.94
435.59	2726.72
435.78	2722.04
435.97	2675.23
436.16	2782.90
436.34	2686.94
436.53	2757.15
436.72	2857.79
436.90	2647.15
437.09	2801.62
437.28	2684.59
437.46	2712.68
437.65	2796.94
437.84	2860.13
438.02	2871.84
438.21	2825.03
438.40	2773.53
438.58	2937.37
438.77	2998.23
438.96	2855.45
439.14	2897.58
439.33	3000.57
439.52	2937.37
439.70	2949.08
439.89	3056.74
440.08	3068.44
440.26	3080.14
440.45	2998.23
440.63	3038.02
440.82	3187.81
441.01	3206.53
441.19	3136.32
441.38	3368.03
441.57	3220.58
441.75	3304.84
441.94	3377.39
442.12	3133.98
442.31	3463.99
442.50	3251.00
442.68	3304.84
442.87	3365.69
443.05	3417.18
443.24	3290.79
443.43	3384.41
443.61	3302.50
443.80	3527.19
443.98	3382.07
444.17	3304.84
444.35	3456.97
444.54	3473.36
444.73	3459.31
444.91	3356.33
445.10	3592.72
445.28	3391.44
445.47	3403.14
445.65	3442.93
445.84	3543.57
446.02	3485.06
446.21	3538.89
446.39	3396.12
446.58	3536.55
446.77	3548.25
446.95	3604.42
447.14	3571.66
447.32	3435.91
447.51	3501.44
447.69	3602.08
447.88	3541.23
448.06	3480.38
448.25	3522.51
448.43	3669.96
448.62	3574.00
448.80	3613.79
448.99	3641.87
449.17	3698.05
449.36	3681.66
449.54	3648.90
449.73	3777.62
449.91	3716.77
450.10	3691.02
450.28	3751.88
450.46	3775.28
450.65	3920.40
450.83	3719.11
451.02	3770.60
451.20	3908.69
451.39	3782.31
451.57	3786.99
451.76	3854.86
451.94	3791.67
452.13	3819.75
452.31	3836.14
452.49	3829.12
452.68	3829.12
452.86	3878.27
453.05	4091.26
453.23	3985.93
453.42	4011.68
453.60	3885.29
453.78	4098.28
453.97	3962.53
454.15	3990.61
454.34	3913.38
454.52	4025.72
454.70	3999.98
454.89	4180.20
455.07	4004.66
455.26	4177.86
455.44	4138.07
455.62	4135.73
455.81	4124.02
455.99	4149.77
456.17	4170.83
456.36	4334.67
456.54	4264.46
456.73	4334.67
456.91	4397.87
457.09	4311.27
457.28	4421.27
457.46	4369.78
457.64	4573.41
457.83	4451.70
458.01	4402.55
458.19	4526.60
458.38	4327.65
458.56	4629.58
458.74	4301.90
458.93	4498.51
459.11	4573.41
459.29	4421.27
459.48	4564.04
459.66	4533.62
459.84	4552.34
460.03	4599.15
460.21	4678.73
460.39	4709.16
460.57	4526.60
460.76	4709.16
460.94	4641.28
461.12	4559.36
461.31	4638.94
461.49	4599.15
461.67	4629.58
461.85	4898.74
462.04	4737.24
462.22	4957.25
462.40	4723.20
462.59	4681.07
462.77	4770.01
462.95	4744.27
463.13	4786.40
463.32	4814.48
463.50	4870.65
463.68	4905.76
463.86	5060.24
464.05	4908.10
464.23	4940.87
464.41	4889.38
464.59	4901.08
464.78	5093.01
464.96	4978.32
465.14	4922.15
465.32	4952.57
465.50	5011.09
465.69	5074.28
465.87	4924.49
466.05	5198.33
466.23	5104.71
466.41	5296.63
466.60	5266.21
466.78	5039.17
466.96	5116.41
467.14	5078.96
467.32	5305.99
467.51	5219.39
467.69	5008.75
467.87	5219.39
468.05	5238.12
468.23	5193.65
468.41	5287.27
468.60	5270.89
468.78	5179.61
468.96	5025.13
469.14	5586.86
469.32	5380.89
469.50	5217.05
469.69	5437.06
469.87	5521.32
470.05	5472.17
470.23	5479.19
470.41	5483.88
470.59	5643.03
470.77	5533.03
470.95	5624.31
471.14	5753.04
471.32	5518.98
471.50	5699.20
471.68	5584.52
471.86	5650.05
472.04	5638.35
472.22	5895.81
472.40	5708.57
472.58	5839.64
472.77	5902.83
472.95	5991.77
473.13	6043.26
473.31	5956.66
473.49	5844.32
473.67	5898.15
473.85	5928.58
474.03	6143.91
474.21	6012.84
474.39	6265.61
474.57	6104.12
474.75	6267.95
474.93	6169.65
475.12	6267.95
475.30	6403.71
475.48	6239.87
475.66	6317.11
475.84	6319.45
476.02	6431.79
476.20	6523.07
476.38	6651.80
476.56	6642.44
476.74	6668.19
476.92	6794.58
477.10	6588.61
477.28	6794.58
477.46	6642.44
477.64	6850.75
477.82	7007.56
478.00	7002.88
478.18	7059.06
478.36	7096.50
478.54	7173.74
478.72	7162.04
478.90	7117.57
479.08	7311.83
479.26	7386.73
479.44	7494.40
479.62	7187.79
479.80	7515.46
479.98	7463.97
480.16	7578.65
480.34	7627.81
480.52	7768.24
480.70	7749.51
480.88	7777.60
481.06	7908.67
481.24	7838.45
481.41	7915.69
481.59	8105.28
481.77	8191.88
481.95	8081.87
482.13	8292.52
482.31	8327.63
482.49	8395.50
482.67	8423.59
482.85	8505.51
483.03	8652.96
483.21	8816.80
483.39	8774.67
483.57	8713.81
483.74	8898.72
483.92	8936.17
484.10	8746.58
484.28	8816.80
484.46	9198.31
484.64	9092.98
484.82	8915.10
485.00	9181.92
485.18	9420.66
485.35	9837.27
485.53	9619.60
485.71	9518.96
485.89	9654.71
486.07	9362.14
486.25	9680.46
486.43	9909.83
486.61	9811.53
486.78	10050.26
486.96	10136.86
487.14	10333.47
487.32	10033.88
487.50	10366.23
487.68	10572.20
487.85	10331.12
488.03	10761.78
488.21	10726.68
488.39	10689.23
488.57	10871.79
488.75	10972.43
488.92	11112.86
489.10	10979.45
489.28	11286.06
489.46	11162.01
489.64	11152.65
489.81	11384.37
489.99	11513.10
490.17	11552.88
490.35	11548.20
490.53	11674.59
490.70	11864.18
490.88	11742.47
491.06	11964.82
491.24	12063.12
491.41	12044.40
491.59	12093.55
491.77	12135.68
491.95	12138.02
492.13	12463.35
492.30	12545.27
492.48	12510.16
492.66	12290.15
492.84	12542.93
493.01	12760.60
493.19	12699.75
493.37	12835.50
493.54	12823.80
493.72	12947.84
493.90	12973.59
494.08	13345.73
494.25	13184.24
494.43	13174.88
494.61	13781.07
494.79	13628.94
494.96	13586.81
495.14	13444.04
495.32	13851.29
495.49	13743.63
495.67	13937.89
495.85	13682.77
496.02	13963.64
496.20	13900.44
496.38	13998.74
496.55	14235.14
496.73	14698.56
496.91	14586.22
497.09	14565.15
497.26	14651.75
497.44	14609.62
497.62	14480.89
497.79	14937.30
497.97	14806.23
498.14	14740.69
498.32	15283.70
498.50	15040.28
498.67	15159.65
498.85	15000.49
499.03	15180.71
499.20	15126.88
499.38	15302.42
499.56	15185.40
499.73	15389.02
499.91	15555.20
500.08	15723.72
500.26	15487.32
500.44	15768.19
500.61	15946.07
500.79	15693.29
500.97	15807.98
501.14	15976.50
501.32	16149.70
501.49	16212.89
501.67	15908.62
501.84	16325.24
502.02	16072.46
502.20	16411.84
502.37	16463.33
502.55	16292.47
502.72	16402.47
502.90	16617.80
503.07	16601.42
503.25	16470.35
503.43	16601.42
503.60	16783.98
503.78	17095.27
503.95	16968.88
504.13	16910.37
504.30	17081.23
504.48	16760.58
504.65	17036.76
504.83	17085.91
505.01	17596.15
505.18	17137.40
505.36	17436.99
505.53	17296.56
505.71	17219.32
505.88	17165.49
506.06	17497.84
506.23	17542.32
506.41	17441.67
506.58	17549.34
506.76	17539.97
506.93	17743.60
507.11	17956.59
507.28	17926.16
507.46	17745.94
507.63	18026.81
507.81	18012.76
507.98	17940.21
508.16	18101.70
508.33	18143.83
508.50	18218.73
508.68	18221.07
508.85	18333.42
509.03	18471.51
509.20	18534.70
509.38	18373.21
509.55	18754.71
509.73	18595.56
509.90	18838.97
510.08	18712.58
510.25	18616.62
510.42	18899.83
510.60	19077.71
510.77	18771.10
510.95	19283.67
511.12	18724.29
511.30	19016.85
511.47	18778.12
511.64	18841.31
511.82	19391.34
511.99	19318.78
512.17	19543.47
512.34	19220.48
512.51	19578.58
512.69	19353.89
512.86	19634.75
513.04	19789.23
513.21	19714.33
513.38	19445.17
513.56	20051.37
513.73	19978.81
513.90	19894.55
514.08	19992.86
514.25	19817.32
514.43	19683.91
514.60	20116.90
514.77	20004.56
514.95	20348.62
515.12	20255.00
515.29	20159.03
515.47	20173.08
515.64	20407.13
515.81	20348.62
515.99	20453.94
516.16	20535.86
516.33	20542.88
516.51	20779.28
516.68	20528.84
516.85	20570.97
517.03	20772.25
517.20	20467.98
517.37	20985.24
517.54	20676.29
517.72	21074.18
517.89	20875.24
518.06	20905.66
518.24	20975.88
518.41	21036.74
518.58	21085.89
518.75	21289.51
518.93	20936.09
519.10	21219.30
519.27	21275.47
519.45	21071.84
519.62	21223.98
519.79	21446.33
519.96	21284.83
520.14	21694.43
520.31	21490.80
520.48	21759.96
520.65	21511.86
520.83	21771.66
521.00	22003.38
521.17	21816.13
521.34	21834.86
521.52	22099.34
521.69	21961.25
521.86	22033.80
522.03	22066.57
522.20	22059.55
522.38	22097.00
522.55	21825.50
522.72	22167.21
522.89	22174.24
523.07	22712.56
523.24	22527.66
523.41	22443.40
523.58	22221.05
523.75	22567.45
523.92	22588.51
524.10	22452.76
524.27	22686.81
524.44	22782.77
524.61	22864.69
524.78	22803.84
524.96	22944.27
525.13	23016.83
525.30	23082.36
525.47	22998.10
525.64	22904.48
525.81	22995.76
525.98	23014.49
526.16	23257.90
526.33	23110.45
526.50	23452.17
526.67	22838.95
526.84	23613.66
527.01	23393.65
527.18	23477.91
527.36	23510.68
527.53	23730.69
527.70	23908.57
527.87	23690.90
528.04	23709.63
528.21	23498.98
528.38	23667.50
528.55	23658.14
528.72	23875.80
528.89	24044.32
529.07	23791.55
529.24	23967.09
529.41	23770.48
529.58	23894.53
529.75	23454.51
529.92	23878.15
530.09	23676.86
530.26	24130.92
530.43	24233.91
530.60	23859.42
530.77	24161.35
530.94	24128.58
531.11	24034.96
531.28	24350.93
531.46	24100.50
531.63	24430.51
531.80	24269.01
531.97	24219.86
532.14	24247.95
532.31	24524.13
532.48	24280.72
532.65	24568.60
532.82	24489.03
532.99	24547.54
533.16	24601.37
533.33	24823.72
533.50	24844.79
533.67	24807.34
533.84	24692.65
534.01	24652.86
534.18	24929.05
534.35	24690.31
534.52	24652.86
534.69	25333.96
534.86	25156.08
535.03	25013.31
535.20	25064.80
535.37	25228.63
535.54	25268.42
535.71	25369.07
535.88	25329.28
536.05	25212.25
536.22	25399.49
536.38	25310.55
536.55	25214.59
536.72	25448.64
536.89	25483.75
537.06	25553.97
537.23	25989.31
537.40	25474.39
537.57	25310.55
537.74	25376.09
537.91	25813.77
538.08	25558.65
538.25	25359.70
538.42	25593.76
538.59	25790.36
538.75	25507.16
538.92	25944.84
539.09	25773.98
539.26	25862.92
539.43	26111.02
539.60	25804.41
539.77	25860.58
539.94	25975.27
540.11	25951.86
540.28	25984.63
540.44	26054.84
540.61	26026.76
540.78	26153.15
540.95	26122.72
541.12	26167.19
541.29	26256.13
541.46	26295.92
541.62	26038.46
541.79	26490.18
541.96	25989.31
542.13	25968.24
542.30	26328.69
542.47	26452.73
542.63	26342.73
542.80	26766.37
542.97	26850.63
543.14	27030.85
543.31	26555.72
543.48	26644.66
543.64	26815.52
543.81	27042.55
543.98	26677.43
544.15	27098.72
544.32	27122.13
544.48	27421.72
544.65	27281.28
544.82	26738.28
544.99	26710.19
545.16	27269.58
545.32	27040.21
545.49	27091.70
545.66	27391.29
545.83	27040.21
546.00	27536.40
546.16	27234.47
546.33	26927.86
546.50	26799.13
546.67	27531.72
546.83	26897.44
547.00	27498.95
547.17	27349.16
547.34	27538.74
547.50	27398.31
547.67	27517.68
547.84	27410.01
548.00	27536.40
548.17	27716.62
548.34	27573.85
548.51	27480.23
548.67	27517.68
548.84	27662.79
549.01	27751.73
549.18	27725.99
549.34	27630.02
549.51	27803.22
549.68	28044.30
549.84	27817.27
550.01	27878.12
550.18	27819.61
550.34	28100.47
550.51	28044.30
550.68	28236.22
550.84	28034.94
551.01	28170.69
551.18	28077.07
551.34	27915.57
551.51	27920.25
551.68	27770.46
551.84	27913.23
552.01	28425.81
552.18	28402.40
552.34	28254.95
552.51	28400.06
552.68	28184.73
552.84	28212.82
553.01	28123.88
553.18	28051.32
553.34	28381.34
553.51	28224.52
553.67	28498.36
553.84	28341.55
554.01	28634.11
554.17	28732.42
554.34	28643.48
554.51	28367.29
554.67	28367.29
554.84	28790.93
555.00	28404.74
555.17	28570.92
555.33	28432.83
555.50	28744.12
555.67	28610.71
555.83	28559.22
556.00	28613.05
556.16	28943.06
556.33	28666.88
556.50	28624.75
556.66	28996.90
556.83	28493.68
556.99	28978.17
557.16	29305.85
557.32	29134.99
557.49	28865.83
557.65	28826.04
557.82	28926.68
557.98	28760.50
558.15	28802.63
558.32	29020.30
558.48	29139.67
558.65	29151.37
558.81	28769.86
558.98	29200.52
559.14	29036.69
559.31	28933.70
559.47	29317.55
559.64	29137.33
559.80	29053.07
559.97	28957.11
560.13	29200.52
560.30	29277.76
560.46	29340.96
560.63	29427.56
560.79	29186.48
560.96	29373.72
561.12	29336.27
561.29	29598.41
561.45	29273.08
561.61	29528.20
561.78	29514.16
561.94	29448.62
562.11	29572.67
562.27	29441.60
562.44	29200.52
562.60	29352.66
562.77	29228.61
562.93	29188.82
563.10	29642.88
563.26	29514.16
563.42	29598.41
563.59	29340.96
563.75	29624.16
563.92	29736.51
564.08	29694.38
564.24	29820.77
564.41	29373.72
564.57	29415.85
564.74	29490.75
564.90	29408.83
565.07	29663.95
565.23	29968.22
565.39	29975.24
565.56	29825.45
565.72	29582.03
565.88	29961.20
566.05	29560.97
566.21	29659.27
566.38	29780.98
566.54	30094.61
566.70	29593.73
566.87	30089.93
567.03	29741.19
567.19	30391.86
567.36	29390.11
567.52	29713.10
567.68	30024.39
567.85	29350.32
568.01	29586.71
568.17	29277.76
568.34	29759.91
568.50	30099.29
568.66	30202.27
568.83	30064.18
568.99	30054.82
569.15	30120.35
569.32	30031.41
569.48	29619.48
569.64	30239.72
569.81	30134.40
569.97	30036.09
570.13	30242.06
570.30	29867.58
570.46	30237.38
570.62	30050.14
570.78	30391.86
570.95	29848.85
571.11	30185.89
571.27	29788.00
571.43	30174.19
571.60	29928.43
571.76	30153.12
571.92	30204.61
572.09	30019.71
572.25	29916.73
572.41	30017.37
572.57	30146.10
572.74	30244.40
572.90	30036.09
573.06	30108.65
573.22	30258.45
573.38	30291.21
573.55	29881.62
573.71	30668.04
573.87	30511.22
574.03	29961.20
574.20	30494.84
574.36	29853.53
574.52	29965.88
574.68	30167.16
574.84	30061.84
575.01	30487.82
575.17	30202.27
575.33	30291.21
575.49	30068.86
575.65	30419.94
575.82	30639.95
575.98	29862.90
576.14	30490.16
576.30	30153.12
576.46	30232.70
576.62	30342.70
576.79	30932.52
576.95	30164.82
577.11	30520.59
577.27	30316.96
577.43	30527.61
577.59	30527.61
577.75	30637.61
577.92	29977.58
578.08	30260.79
578.24	30113.33
578.40	30469.09
578.56	30436.33
578.72	30433.99
578.88	30410.58
579.04	30745.28
579.21	30483.14
579.37	30733.57
579.53	30684.42
579.69	30335.68
579.85	30331.00
580.01	30237.38
580.17	30239.72
580.33	30415.26
580.49	30242.06
580.65	30443.35
580.82	30637.61
580.98	30431.65
581.14	30735.92
581.30	30487.82
581.46	30101.63
581.62	30036.09
581.78	30333.34
581.94	30583.78
582.10	30733.57
582.26	30527.61
582.42	30307.60
582.58	30382.49
582.74	30085.25
582.90	30691.44
583.06	30848.26
583.22	30717.19
583.38	30569.74
583.54	30323.98
583.70	30504.20
583.86	30354.41
584.02	30246.74
584.18	30801.45
584.34	30888.05
584.50	30960.61
584.66	30586.12
584.82	30333.34
584.98	30464.41
585.14	30382.49
585.30	30342.70
585.46	30595.48
585.62	30113.33
585.78	30508.88
585.94	30284.19
586.10	30581.44
586.26	30794.43
586.42	30808.47
586.58	30717.19
586.74	30682.08
586.90	30707.83
587.06	30480.80
587.22	30684.42
587.38	30756.98
587.54	30859.96
587.70	30621.23
587.86	30803.79
588.02	30951.24
588.18	31012.10
588.34	30801.45
588.49	30639.95
588.65	30466.75
588.81	30890.39
588.97	30628.25
589.13	30382.49
589.29	30623.57
589.45	30602.50
589.61	30888.05
589.77	30991.03
589.93	30511.22
590.08	30850.60
590.24	31021.46
590.40	31084.65
590.56	30948.90
590.72	31112.74
590.88	30665.70
591.04	30569.74
591.20	31012.10
591.35	31157.21
591.51	31337.43
591.67	31234.45
591.83	30897.41
