SpectraSuite Data File
++++++++++++++++++++++++++++++++++++
Date: Fri Oct 18 13:58:38 GMT-05:00 2013
User: bianchi
Dark Spectrum Present: No
Reference Spectrum Present: No
Number of Sampled Component Spectra: 1
Spectrometers: USB2+H05261
Integration Time (usec): 50000 (USB2+H05261)
Spectra Averaged: 1 (USB2+H05261)
Boxcar Smoothing: 0 (USB2+H05261)
Correct for Electrical Dark: No (USB2+H05261)
Strobe/Lamp Enabled: No (USB2+H05261)
Correct for Detector Non-linearity: No (USB2+H05261)
Correct for Stray Light: No (USB2+H05261)
Number of Pixels in Processed Spectrum: 2048
>>>>>Begin Processed Spectral Data<<<<<
365.73	0.00
365.92	0.00
366.12	0.00
366.32	0.00
366.52	0.00
366.72	0.00
366.91	0.00
367.11	0.00
367.31	0.00
367.51	0.00
367.70	0.00
367.90	0.00
368.10	0.00
368.30	0.00
368.49	0.00
368.69	0.00
368.89	0.00
369.09	0.00
369.28	0.00
369.48	0.00
369.68	0.00
369.87	0.00
370.07	0.00
370.27	0.00
370.47	0.00
370.66	51.49
370.86	84.26
371.06	175.54
371.25	152.13
371.45	110.01
371.65	161.50
371.84	117.03
372.04	161.50
372.24	133.41
372.44	152.13
372.63	198.95
372.83	142.77
373.03	212.99
373.22	182.56
373.42	180.22
373.62	196.60
373.81	215.33
374.01	224.69
374.21	292.57
374.40	294.91
374.60	292.57
374.79	243.42
374.99	203.63
375.19	241.08
375.38	234.05
375.58	212.99
375.78	220.01
375.97	259.80
376.17	227.03
376.37	243.42
376.56	238.73
376.76	301.93
376.95	245.76
377.15	255.12
377.35	297.25
377.54	280.86
377.74	212.99
377.93	332.36
378.13	248.10
378.33	273.84
378.52	248.10
378.72	250.44
378.91	304.27
379.11	264.48
379.31	264.48
379.50	234.05
379.70	287.89
379.89	245.76
380.09	290.23
380.28	348.74
380.48	339.38
380.68	299.59
380.87	264.48
381.07	238.73
381.26	308.95
381.46	416.62
381.65	304.27
381.85	236.39
382.04	339.38
382.24	332.36
382.43	346.40
382.63	365.12
382.83	327.68
383.02	365.12
383.22	472.79
383.41	381.51
383.61	360.44
383.80	395.55
384.00	379.17
384.19	290.23
384.39	409.59
384.58	402.57
384.78	320.65
384.97	456.40
385.17	386.19
385.36	388.53
385.56	409.59
385.75	320.65
385.95	411.93
386.14	416.62
386.34	362.78
386.53	421.30
386.72	362.78
386.92	463.43
387.11	386.19
387.31	451.72
387.50	409.59
387.70	477.47
387.89	435.34
388.09	421.30
388.28	421.30
388.48	482.15
388.67	475.13
388.86	400.23
389.06	458.74
389.25	500.87
389.45	468.11
389.64	465.77
389.84	519.60
390.03	400.23
390.22	442.36
390.42	500.87
390.61	524.28
390.81	491.51
391.00	503.22
391.19	528.96
391.39	545.34
391.58	517.26
391.78	538.32
391.97	437.68
392.16	423.64
392.36	580.45
392.55	606.20
392.75	510.24
392.94	561.73
393.13	634.29
393.33	528.96
393.52	524.28
393.71	582.79
393.91	573.43
394.10	566.41
394.29	543.00
394.49	575.77
394.68	559.39
394.88	596.84
395.07	561.73
395.26	582.79
395.46	554.71
395.65	613.22
395.84	685.78
396.04	634.29
396.23	669.39
396.42	599.18
396.62	585.13
396.81	683.44
397.00	615.56
397.19	732.59
397.39	676.41
397.58	634.29
397.77	608.54
397.97	681.10
398.16	629.60
398.35	704.50
398.55	678.76
398.74	753.65
398.93	690.46
399.12	727.91
399.32	709.18
399.51	753.65
399.70	798.12
399.90	582.79
400.09	835.57
400.28	779.40
400.47	695.14
400.67	833.23
400.86	774.72
401.05	816.85
401.24	823.87
401.44	800.46
401.63	816.85
401.82	753.65
402.01	713.86
402.21	699.82
402.40	711.52
402.59	772.38
402.78	837.91
402.97	851.96
403.17	891.74
403.36	842.59
403.55	830.89
403.74	826.21
403.93	959.62
404.13	936.21
404.32	964.30
404.51	837.91
404.70	917.49
404.89	938.55
405.09	868.34
405.28	987.71
405.47	915.15
405.66	966.64
405.85	961.96
406.05	976.00
406.24	882.38
406.43	959.62
406.62	961.96
406.81	1142.18
407.00	1046.22
407.20	943.24
407.39	1006.43
407.58	1057.92
407.77	952.60
407.96	1034.52
408.15	973.66
408.34	1067.28
408.54	1078.99
408.73	1109.41
408.92	1008.77
409.11	1139.84
409.30	1029.84
409.49	1116.44
409.68	1118.78
409.87	1093.03
410.07	1233.46
410.26	1149.20
410.45	1188.99
410.64	1025.15
410.83	1156.22
411.02	1137.50
411.21	1212.40
411.40	1238.14
411.59	1322.40
411.78	1310.70
411.98	1299.00
412.17	1275.59
412.36	1207.72
412.55	1310.70
412.74	1357.51
412.93	1317.72
413.12	1296.66
413.31	1387.94
413.50	1378.58
413.69	1458.15
413.88	1409.00
414.07	1331.76
414.26	1467.52
414.45	1420.71
414.64	1430.07
414.83	1427.73
415.02	1582.20
415.22	1540.07
415.41	1645.40
415.60	1521.35
415.79	1565.82
415.98	1556.46
416.17	1554.12
416.36	1537.73
416.55	1638.38
416.74	1654.76
416.93	1636.03
417.12	1540.07
417.31	1720.29
417.50	1699.23
417.69	1692.21
417.88	1724.97
418.07	1713.27
418.26	1685.19
418.45	1823.28
418.64	1839.66
418.83	1717.95
419.02	1921.58
419.21	1853.70
419.39	1792.85
419.58	1795.19
419.77	1849.02
419.96	1785.83
420.15	1806.89
420.34	1863.07
420.53	1877.11
420.72	1879.45
420.91	1963.71
421.10	1942.64
421.29	1933.28
421.48	1785.83
421.67	1907.54
421.86	1942.64
422.05	1874.77
422.24	1820.94
422.43	2031.58
422.61	2005.84
422.80	1942.64
422.99	1991.80
423.18	2043.29
423.37	2087.76
423.56	2073.71
423.75	2090.10
423.94	1912.22
424.13	1858.39
424.32	1905.20
424.50	2078.40
424.69	2050.31
424.88	1991.80
425.07	2010.52
425.26	1884.13
425.45	2069.03
425.64	2054.99
425.83	2059.67
426.01	2038.61
426.20	2019.88
426.39	2083.08
426.58	2010.52
426.77	2012.86
426.96	2083.08
427.15	2022.22
427.33	2010.52
427.52	1947.33
427.71	2099.46
427.90	2132.23
428.09	2111.16
428.28	2101.80
428.46	2136.91
428.65	2235.21
428.84	2218.83
429.03	2272.66
429.22	2232.87
429.40	2200.10
429.59	2265.64
429.78	2101.80
429.97	2174.36
430.16	2202.44
430.34	2298.41
430.53	2310.11
430.72	2284.36
430.91	2223.51
431.10	2237.55
431.28	2211.81
431.47	2286.70
431.66	2328.83
431.85	2408.41
432.03	2324.15
432.22	2448.20
432.41	2338.20
432.60	2420.11
432.79	2429.48
432.97	2487.99
433.16	2385.01
433.35	2459.90
433.54	2527.78
433.72	2420.11
433.91	2420.11
434.10	2464.58
434.28	2455.22
434.47	2413.09
434.66	2586.29
434.85	2544.16
435.03	2661.19
435.22	2651.83
435.41	2586.29
435.59	2642.46
435.78	2675.23
435.97	2502.03
436.16	2663.53
436.34	2700.98
436.53	2738.43
436.72	2623.74
436.90	2651.83
437.09	2745.45
437.28	2614.38
437.46	2642.46
437.65	2768.85
437.84	2717.36
438.02	2719.70
438.21	2860.13
438.40	2754.81
438.58	2780.56
438.77	2932.69
438.96	2820.35
439.14	2965.46
439.33	2850.77
439.52	2960.78
439.70	2923.33
439.89	3061.42
440.08	2815.66
440.26	2972.48
440.45	2970.14
440.63	3056.74
440.82	3178.45
441.01	3110.57
441.19	3117.59
441.38	3201.85
441.57	3150.36
441.75	3227.60
441.94	3087.17
442.12	3288.45
442.31	3215.90
442.50	3131.64
442.68	3295.47
442.87	3302.50
443.05	3293.13
443.24	3379.73
443.43	3335.26
443.61	3358.67
443.80	3548.25
443.98	3272.07
444.17	3162.06
444.35	3253.34
444.54	3445.27
444.73	3445.27
444.91	3400.80
445.10	3318.88
445.28	3325.90
445.47	3405.48
445.65	3330.58
445.84	3346.97
446.02	3337.60
446.21	3442.93
446.39	3391.44
446.58	3548.25
446.77	3538.89
446.95	3480.38
447.14	3435.91
447.32	3398.46
447.51	3578.68
447.69	3478.04
447.88	3386.76
448.06	3417.18
448.25	3389.10
448.43	3379.73
448.62	3513.14
448.80	3454.63
448.99	3552.93
449.17	3538.89
449.36	3646.55
449.54	3625.49
449.73	3655.92
449.91	3709.75
450.10	3691.02
450.28	3684.00
450.46	3674.64
450.65	3639.53
450.83	3758.90
451.02	3707.41
451.20	3669.96
451.39	3672.30
451.57	3714.43
451.76	3733.15
451.94	3812.73
452.13	3798.69
452.31	3892.31
452.49	3798.69
452.68	3843.16
452.86	3812.73
453.05	3789.33
453.23	3943.80
453.42	3803.37
453.60	3943.80
453.78	3918.06
453.97	3859.54
454.15	3946.14
454.34	3845.50
454.52	3948.48
454.70	3967.21
454.89	3861.88
455.07	3927.42
455.26	4035.08
455.44	4173.18
455.62	4072.53
455.81	4002.32
455.99	4014.02
456.17	4147.43
456.36	4315.95
456.54	4126.36
456.73	4161.47
456.91	4231.69
457.09	4222.33
457.28	4451.70
457.46	4163.81
457.64	4379.14
457.83	4234.03
458.01	4025.72
458.19	4283.18
458.38	4301.90
458.56	4451.70
458.74	4589.79
458.93	4449.36
459.11	4332.33
459.29	4353.40
459.48	4395.53
459.66	4372.12
459.84	4447.02
460.03	4580.43
460.21	4454.04
460.39	4402.55
460.57	4580.43
460.76	4451.70
460.94	4533.62
461.12	4592.13
461.31	4699.80
461.49	4652.98
461.67	4545.32
461.85	4587.45
462.04	4606.17
462.22	4741.93
462.40	4793.42
462.59	4758.31
462.77	4795.76
462.95	4821.50
463.13	4837.89
463.32	4674.05
463.50	4826.18
463.68	4842.57
463.86	4915.12
464.05	4741.93
464.23	4643.62
464.41	4844.91
464.59	4800.44
464.78	4926.83
464.96	5011.09
465.14	4678.73
465.32	4835.55
465.50	4919.81
465.69	4938.53
465.87	5022.79
466.05	4898.74
466.23	4882.36
466.41	5071.94
466.60	5083.64
466.78	4926.83
466.96	4961.94
467.14	5088.32
467.32	5135.14
467.51	5172.58
467.69	4919.81
467.87	5111.73
468.05	5193.65
468.23	5078.96
468.41	5149.18
468.60	5093.01
468.78	5233.44
468.96	5085.98
469.14	5205.35
469.32	5441.75
469.50	5233.44
469.69	5371.53
469.87	5467.49
470.05	5303.65
470.23	5298.97
470.41	5315.36
470.59	5359.83
470.77	5273.23
470.95	5425.36
471.14	5341.10
471.32	5397.28
471.50	5500.26
471.68	5511.96
471.86	5518.98
472.04	5638.35
472.22	5792.83
472.40	5624.31
472.58	5619.63
472.77	5607.92
472.95	5825.59
473.13	5881.77
473.31	5849.00
473.49	5624.31
473.67	5675.80
473.85	5834.96
474.03	6040.92
474.21	6090.07
474.39	6043.26
474.57	5977.73
474.75	6106.46
474.93	6099.44
475.12	6118.16
475.30	6197.74
475.48	6211.78
475.66	6146.25
475.84	6211.78
476.02	6258.59
476.20	6171.99
476.38	6380.30
476.56	6509.03
476.74	6569.88
476.92	6380.30
477.10	6448.18
477.28	6502.01
477.46	6497.33
477.64	6572.22
477.82	6686.91
478.00	6965.43
478.18	6789.89
478.36	6775.85
478.54	6942.03
478.72	7014.59
478.90	6995.86
479.08	7173.74
479.26	7119.91
479.44	7183.10
479.62	7325.88
479.80	7382.05
479.98	7398.43
480.16	7548.23
480.34	7571.63
480.52	7597.38
480.70	7569.29
480.88	7569.29
481.06	7529.50
481.24	7630.15
481.41	7978.89
481.59	7885.26
481.77	7946.12
481.95	8081.87
482.13	8121.66
482.31	8067.83
482.49	8124.00
482.67	8100.59
482.85	8287.84
483.03	8470.40
483.21	8568.70
483.39	8491.46
483.57	8533.59
483.74	8667.00
483.92	8744.24
484.10	8491.46
484.28	8748.92
484.46	9025.11
484.64	9029.79
484.82	8861.27
485.00	8929.14
485.18	9200.65
485.35	9296.61
485.53	9336.40
485.71	9291.93
485.89	9647.69
486.07	9579.81
486.25	9455.76
486.43	9638.33
486.61	9544.70
486.78	9734.29
486.96	9912.17
487.14	10026.86
487.32	9942.60
487.50	10066.64
487.68	10129.84
487.85	10256.23
488.03	10232.82
488.21	10661.14
488.39	10321.76
488.57	10429.43
488.75	10698.59
488.92	10752.42
489.10	10799.23
489.28	10906.90
489.46	11007.54
489.64	10960.73
489.81	11225.21
489.99	11267.34
490.17	11391.39
490.35	11454.58
490.53	11499.05
490.70	11454.58
490.88	11405.43
491.06	11770.55
491.24	11698.00
491.41	11609.06
491.59	12009.29
491.77	11803.32
491.95	12023.33
492.13	12196.53
492.30	12201.21
492.48	12208.23
492.66	12278.45
492.84	12390.80
493.01	12418.88
493.19	12561.66
493.37	12774.64
493.54	12627.19
493.72	12737.20
493.90	12589.74
494.08	12823.80
494.25	12884.65
494.43	13043.81
494.61	13420.63
494.79	13481.49
494.96	13348.08
495.14	13348.08
495.32	13432.33
495.49	13504.89
495.67	13551.70
495.85	13479.15
496.02	13738.94
496.20	13916.83
496.38	13820.86
496.55	13827.88
496.73	14242.16
496.91	14073.64
497.09	14202.37
497.26	14211.73
497.44	14106.41
497.62	14148.54
497.79	14588.56
497.97	14415.36
498.14	14658.78
498.32	14668.14
498.50	14677.50
498.67	14600.26
498.85	14801.55
499.03	14862.40
499.20	14986.45
499.38	15012.20
499.56	14984.11
499.73	15164.33
499.91	15307.10
500.08	15506.05
500.26	14925.60
500.44	15517.75
500.61	15264.97
500.79	15517.75
500.97	15559.88
501.14	16023.31
501.32	15913.30
501.49	15704.99
501.67	15761.17
501.84	15957.77
502.02	16156.72
502.20	16049.05
502.37	16142.67
502.55	15990.54
502.72	16018.63
502.90	16395.45
503.07	16147.36
503.25	15927.35
503.43	16175.44
503.60	16517.16
503.78	16610.78
503.95	16580.36
504.13	16180.12
504.30	16524.18
504.48	16468.01
504.65	16739.51
504.83	16863.56
505.01	16971.22
505.18	17003.99
505.36	17081.23
505.53	16760.58
505.71	17125.70
505.88	17195.92
506.06	16645.89
506.23	17233.36
506.41	17448.69
506.58	17509.55
506.76	17394.86
506.93	17118.68
507.11	17200.60
507.28	17561.04
507.46	17331.67
507.63	17511.89
507.81	17752.96
507.98	17556.36
508.16	17652.32
508.33	17717.86
508.50	17774.03
508.68	17736.58
508.85	17933.18
509.03	17666.36
509.20	18174.26
509.38	18242.14
509.55	18281.92
509.73	17879.35
509.90	18239.79
510.08	18209.37
510.25	18031.49
510.42	18302.99
510.60	18604.92
510.77	18359.16
510.95	18640.03
511.12	18225.75
511.30	18616.62
511.47	18665.77
511.64	18705.56
511.82	18787.48
511.99	18810.89
512.17	18778.12
512.34	18998.13
512.51	18717.26
512.69	19143.24
512.86	19044.94
513.04	19166.65
513.21	19447.51
513.38	19501.34
513.56	19316.44
513.73	19220.48
513.90	19192.39
514.08	19412.40
514.25	19573.90
514.43	19281.33
514.60	19571.56
514.77	19431.13
514.95	19742.42
515.12	19639.44
515.29	19634.75
515.47	19651.14
515.64	20037.33
515.81	19955.41
515.99	20046.69
516.16	20271.38
516.33	20088.82
516.51	20238.61
516.68	20070.09
516.85	20163.72
517.03	20250.32
517.20	20343.94
517.37	20278.40
517.54	20409.47
517.72	20559.27
517.89	20500.75
518.06	20498.41
518.24	20311.17
518.41	20629.48
518.58	20306.49
518.75	20741.83
518.93	20973.54
519.10	20994.61
519.27	20837.79
519.45	20966.52
519.62	20936.09
519.79	21039.08
519.96	21106.95
520.14	21053.12
520.31	20968.86
520.48	21259.09
520.65	21275.47
520.83	21474.42
521.00	21081.21
521.17	21153.76
521.34	21324.62
521.52	21376.11
521.69	21621.87
521.86	21392.50
522.03	21635.91
522.20	21460.37
522.38	21603.14
522.55	21474.42
522.72	21600.80
522.89	21860.60
523.07	21954.22
523.24	22040.82
523.41	21860.60
523.58	21905.07
523.75	21839.54
523.92	21795.07
524.10	22221.05
524.27	21872.31
524.44	22181.26
524.61	22302.96
524.78	22148.49
524.96	22106.36
525.13	22771.07
525.30	22452.76
525.47	22668.09
525.64	22394.25
525.81	22562.76
525.98	22661.07
526.16	22731.28
526.33	22600.21
526.50	22890.44
526.67	22597.87
526.84	22714.90
527.01	22752.35
527.18	22927.89
527.36	22663.41
527.53	23204.07
527.70	23124.49
527.87	23316.42
528.04	22806.18
528.21	22897.46
528.38	23047.26
528.55	23269.61
528.72	23065.98
528.89	23065.98
529.07	23267.27
529.24	23297.69
529.41	23332.80
529.58	23431.10
529.75	23281.31
529.92	23520.04
530.09	23255.56
530.26	23740.05
530.43	23700.26
530.60	23388.97
530.77	23447.49
530.94	23726.01
531.11	23522.38
531.28	23344.50
531.46	23737.71
531.63	23758.78
531.80	23697.92
531.97	23791.55
532.14	23796.23
532.31	23690.90
532.48	23761.12
532.65	23950.70
532.82	23761.12
532.99	23992.83
533.16	23852.40
533.33	24470.30
533.50	24318.17
533.67	24421.15
533.84	23674.52
534.01	24224.54
534.18	24252.63
534.35	24451.58
534.52	24439.87
534.69	24678.61
534.86	24514.77
535.03	24404.77
535.20	24723.08
535.37	24542.86
535.54	24744.14
535.71	24411.79
535.88	24793.29
536.05	24367.32
536.22	24407.11
536.38	24510.09
536.55	24964.15
536.72	24828.40
536.89	24615.41
537.06	24694.99
537.23	25127.99
537.40	24669.25
537.57	24844.79
537.74	24793.29
537.91	25233.32
538.08	25120.97
538.25	24718.40
538.42	25076.50
538.59	25120.97
538.75	24774.57
538.92	25362.04
539.09	25439.28
539.26	25242.68
539.43	25092.88
539.60	25123.31
539.77	25043.73
539.94	25450.99
540.11	25598.44
540.28	25549.29
540.44	25551.63
540.61	24900.96
540.78	25287.15
540.95	25228.63
541.12	25745.89
541.29	25422.90
541.46	25443.96
541.62	25301.19
541.79	25628.87
541.96	25146.72
542.13	25626.53
542.30	25624.18
542.47	25855.90
542.63	26274.85
542.80	26099.31
542.97	25771.64
543.14	26120.38
543.31	26419.97
543.48	26052.50
543.64	26211.66
543.81	26120.38
543.98	25914.41
544.15	26394.22
544.32	26635.30
544.48	26534.65
544.65	26108.68
544.82	26029.10
544.99	26480.82
545.16	26225.70
545.32	26256.13
545.49	26752.32
545.66	26733.60
545.83	26808.50
546.00	26705.51
546.16	26506.57
546.33	26164.85
546.50	26300.60
546.67	26724.24
546.83	26052.50
547.00	26946.59
547.17	26771.05
547.34	26742.96
547.50	26948.93
547.67	27140.85
547.84	26852.97
548.00	26941.91
548.17	27136.17
548.34	27000.42
548.51	27138.51
548.67	27182.98
548.84	27222.77
549.01	27239.15
549.18	26827.22
549.34	27009.78
549.51	26925.52
549.68	27019.14
549.84	26768.71
550.01	27250.86
550.18	27091.70
550.34	27395.97
550.51	27342.14
550.68	27510.66
550.84	27232.13
551.01	27292.99
551.18	27379.59
551.34	27026.17
551.51	26927.86
551.68	27269.58
551.84	27491.93
552.01	27517.68
552.18	27772.80
552.34	27395.97
552.51	27559.81
552.68	27204.05
552.84	27718.96
553.01	27314.05
553.18	27513.00
553.34	27892.16
553.51	27473.21
553.67	27763.43
553.84	28051.32
554.01	27833.65
554.17	27859.40
554.34	27665.13
554.51	27838.33
554.67	28105.15
554.84	28046.64
555.00	28067.70
555.17	27924.93
555.33	27845.35
555.50	28016.21
555.67	27835.99
555.83	27976.42
556.00	27786.84
556.16	28147.28
556.33	27983.44
556.50	27910.89
556.66	27960.04
556.83	28205.80
556.99	28170.69
557.16	27953.02
557.32	28130.90
557.49	28067.70
557.65	27908.55
557.82	27971.74
557.98	28086.43
558.15	27950.68
558.32	28627.09
558.48	28074.73
558.65	28751.14
558.81	28517.09
558.98	28257.29
559.14	28290.06
559.31	28315.80
559.47	28318.14
559.64	28760.50
559.80	28814.34
559.97	28486.66
560.13	28524.11
560.30	27999.83
560.46	28648.16
560.63	28451.55
560.79	28411.76
560.96	28514.75
561.12	28561.56
561.29	28765.18
561.45	28383.68
561.61	28723.05
561.78	28503.04
561.94	28610.71
562.11	28741.78
562.27	28531.13
562.44	28790.93
562.60	28460.91
562.77	28397.72
562.93	28617.73
563.10	28861.15
563.26	28521.77
563.42	29221.59
563.59	28830.72
563.75	29137.33
563.92	28975.83
564.08	28720.71
564.24	28615.39
564.41	28694.97
564.57	28685.61
564.74	28767.52
564.90	29069.45
565.07	28732.42
565.23	29085.84
565.39	28514.75
565.56	28938.38
565.72	28584.96
565.88	29057.75
566.05	29228.61
566.21	28814.34
566.38	28975.83
566.54	29041.37
566.70	29366.70
566.87	29268.40
567.03	29048.39
567.19	29343.30
567.36	29443.94
567.52	29160.73
567.68	28987.53
567.85	29109.24
568.01	29015.62
568.17	29123.29
568.34	29202.86
568.50	29551.60
568.66	28533.47
568.83	29476.71
568.99	29242.65
569.15	29181.80
569.32	29160.73
569.48	29048.39
569.64	29441.60
569.81	29113.92
569.97	29312.87
570.13	29172.44
570.30	28971.15
570.46	29326.91
570.62	29563.31
570.78	29387.77
570.95	29085.84
571.11	29549.26
571.27	28919.66
571.43	29085.84
571.60	29635.86
571.76	28961.79
571.92	29546.92
572.09	29104.56
572.25	29713.10
572.41	29298.83
572.57	29670.97
572.74	29530.54
572.90	29331.59
573.06	29198.18
573.22	29806.72
573.38	29359.68
573.55	29406.49
573.71	29626.50
573.87	29432.24
574.03	29406.49
574.20	29666.29
574.36	29156.05
574.52	29366.70
574.68	29270.74
574.84	29593.73
575.01	29514.16
575.17	29640.54
575.33	29390.11
575.49	29226.27
575.65	29542.24
575.82	29886.30
575.98	29439.26
576.14	29280.10
576.30	29434.58
576.46	29404.15
576.62	29055.41
576.79	29294.14
576.95	29570.33
577.11	29535.22
577.27	29825.45
577.43	29366.70
577.59	29584.37
577.75	29270.74
577.92	29333.93
578.08	29523.52
578.24	29053.07
578.40	29640.54
578.56	29336.27
578.72	29399.47
578.88	30068.86
579.04	29855.87
579.21	29640.54
579.37	29893.32
579.53	29427.56
579.69	29109.24
579.85	29523.52
580.01	29457.98
580.17	29479.05
580.33	29558.63
580.49	29401.81
580.65	29968.22
580.82	30019.71
580.98	29507.13
581.14	29479.05
581.30	29736.51
581.46	29633.52
581.62	29680.33
581.78	29394.79
581.94	29729.48
582.10	29277.76
582.26	29921.41
582.42	29308.19
582.58	30108.65
582.74	29888.64
582.90	29720.12
583.06	29813.74
583.22	29626.50
583.38	29591.39
583.54	29696.72
583.70	29582.03
583.86	29434.58
584.02	29226.27
584.18	29139.67
584.34	29537.56
584.50	29685.01
584.66	29673.31
584.82	29539.90
584.98	30029.07
585.14	29605.44
585.30	29675.65
585.46	29371.38
585.62	29310.53
585.78	29642.88
585.94	29497.77
586.10	29947.15
586.26	29668.63
586.42	29706.08
586.58	29963.54
586.74	29111.58
586.90	29736.51
587.06	29661.61
587.22	29785.66
587.38	29930.77
587.54	29834.81
587.70	30164.82
587.86	29579.69
588.02	29752.89
588.18	30312.28
588.34	29696.72
588.49	29556.28
588.65	29647.57
588.81	29713.10
588.97	30071.20
589.13	29862.90
589.29	29855.87
589.45	30110.99
589.61	30005.67
589.77	29862.90
589.93	30115.67
590.08	30270.15
590.24	30478.46
590.40	30288.87
590.56	30096.95
590.72	30000.99
590.88	29621.82
591.04	29984.60
591.20	30176.53
591.35	29750.55
591.51	30480.80
591.67	30506.54
591.83	30436.33
591.99	30295.89
