SpectraSuite Data File
++++++++++++++++++++++++++++++++++++
Date: Fri Oct 18 13:58:20 GMT-05:00 2013
User: bianchi
Dark Spectrum Present: No
Reference Spectrum Present: No
Number of Sampled Component Spectra: 1
Spectrometers: USB2+H05261
Integration Time (usec): 50000 (USB2+H05261)
Spectra Averaged: 1 (USB2+H05261)
Boxcar Smoothing: 0 (USB2+H05261)
Correct for Electrical Dark: No (USB2+H05261)
Strobe/Lamp Enabled: No (USB2+H05261)
Correct for Detector Non-linearity: No (USB2+H05261)
Correct for Stray Light: No (USB2+H05261)
Number of Pixels in Processed Spectrum: 2048
>>>>>Begin Processed Spectral Data<<<<<
365.73	0.00
365.92	0.00
366.12	0.00
366.32	0.00
366.52	0.00
366.72	0.00
366.91	0.00
367.11	0.00
367.31	0.00
367.51	0.00
367.70	0.00
367.90	0.00
368.10	0.00
368.30	0.00
368.49	0.00
368.69	0.00
368.89	0.00
369.09	0.00
369.28	0.00
369.48	0.00
369.68	0.00
369.87	0.00
370.07	0.00
370.27	0.00
370.47	0.00
370.66	14.04
370.86	65.54
371.06	74.90
371.25	201.29
371.45	161.50
371.65	81.92
371.84	117.03
372.04	23.41
372.24	177.88
372.44	119.37
372.63	217.67
372.83	255.12
373.03	140.43
373.22	234.05
373.42	159.16
373.62	210.65
373.81	241.08
374.01	205.97
374.21	259.80
374.40	273.84
374.60	222.35
374.79	257.46
374.99	243.42
375.19	243.42
375.38	262.14
375.58	215.33
375.78	285.55
375.97	330.02
376.17	250.44
376.37	227.03
376.56	236.39
376.76	245.76
376.95	287.89
377.15	327.68
377.35	255.12
377.54	287.89
377.74	273.84
377.93	238.73
378.13	250.44
378.33	271.50
378.52	294.91
378.72	322.99
378.91	437.68
379.11	234.05
379.31	208.31
379.50	227.03
379.70	271.50
379.89	381.51
380.09	243.42
380.28	306.61
380.48	353.42
380.68	271.50
380.87	259.80
381.07	327.68
381.26	379.17
381.46	297.25
381.65	297.25
381.85	259.80
382.04	245.76
382.24	358.10
382.43	308.95
382.63	313.63
382.83	255.12
383.02	353.42
383.22	376.83
383.41	383.85
383.61	346.40
383.80	386.19
384.00	353.42
384.19	301.93
384.39	374.49
384.58	379.17
384.78	493.85
384.97	372.15
385.17	390.87
385.36	306.61
385.56	358.10
385.75	362.78
385.95	407.25
386.14	355.76
386.34	383.85
386.53	318.31
386.72	376.83
386.92	437.68
387.11	383.85
387.31	360.44
387.50	395.55
387.70	437.68
387.89	421.30
388.09	372.15
388.28	451.72
388.48	416.62
388.67	472.79
388.86	433.00
389.06	376.83
389.25	451.72
389.45	400.23
389.64	472.79
389.84	479.81
390.03	510.24
390.22	430.66
390.42	496.19
390.61	482.15
390.81	519.60
391.00	500.87
391.19	503.22
391.39	554.71
391.58	425.98
391.78	528.96
391.97	491.51
392.16	489.17
392.36	547.69
392.55	582.79
392.75	498.53
392.94	571.09
393.13	533.64
393.33	442.36
393.52	585.13
393.71	505.56
393.91	596.84
394.10	545.34
394.29	582.79
394.49	528.96
394.68	554.71
394.88	596.84
395.07	599.18
395.26	596.84
395.46	582.79
395.65	601.52
395.84	578.11
396.04	660.03
396.23	690.46
396.42	568.75
396.62	683.44
396.81	660.03
397.00	610.88
397.19	699.82
397.39	643.65
397.58	685.78
397.77	716.20
397.97	638.97
398.16	702.16
398.35	636.63
398.55	716.20
398.74	725.57
398.93	779.40
399.12	725.57
399.32	699.82
399.51	669.39
399.70	770.04
399.90	734.93
400.09	763.01
400.28	751.31
400.47	788.76
400.67	823.87
400.86	826.21
401.05	828.55
401.24	725.57
401.44	753.65
401.63	774.72
401.82	854.30
402.01	730.25
402.21	826.21
402.40	849.61
402.59	732.59
402.78	784.08
402.97	793.44
403.17	844.93
403.36	873.02
403.55	837.91
403.74	943.24
403.93	842.59
404.13	873.02
404.32	882.38
404.51	875.36
404.70	863.66
404.89	954.94
405.09	980.68
405.28	978.34
405.47	866.00
405.66	976.00
405.85	983.02
406.05	980.68
406.24	1027.50
406.43	947.92
406.62	931.53
406.81	1123.46
407.00	990.05
407.20	985.37
407.39	1107.07
407.58	1036.86
407.77	1015.79
407.96	1076.65
408.15	1217.08
408.34	1076.65
408.54	1088.35
408.73	987.71
408.92	1064.94
409.11	1102.39
409.30	1193.67
409.49	1057.92
409.68	1226.44
409.87	1210.06
410.07	1205.38
410.26	1275.59
410.45	1132.82
410.64	1184.31
410.83	1210.06
411.02	1135.16
411.21	1203.04
411.40	1217.08
411.59	1261.55
411.78	1359.85
411.98	1308.36
412.17	1294.32
412.36	1219.42
412.55	1296.66
412.74	1345.81
412.93	1350.49
413.12	1343.47
413.31	1401.98
413.50	1390.28
413.69	1378.58
413.88	1343.47
414.07	1460.49
414.26	1437.09
414.45	1446.45
414.64	1507.30
414.83	1444.11
415.02	1462.83
415.22	1563.48
415.41	1584.54
415.60	1526.03
415.79	1614.97
415.98	1603.27
416.17	1586.88
416.36	1643.06
416.55	1582.20
416.74	1586.88
416.93	1682.85
417.12	1607.95
417.31	1668.80
417.50	1540.07
417.69	1724.97
417.88	1715.61
418.07	1746.04
418.26	1715.61
418.45	1708.59
418.64	1734.34
418.83	1802.21
419.02	1729.66
419.21	1699.23
419.39	1809.23
419.58	1856.04
419.77	1884.13
419.96	1832.64
420.15	1830.30
420.34	1879.45
420.53	1977.75
420.72	1844.34
420.91	1867.75
421.10	1998.82
421.29	2019.88
421.48	1879.45
421.67	2008.18
421.86	1956.69
422.05	1989.46
422.24	1954.35
422.43	1919.24
422.61	1989.46
422.80	2040.95
422.99	2036.27
423.18	1926.26
423.37	2005.84
423.56	1984.77
423.75	1944.99
423.94	1849.02
424.13	1973.07
424.32	1825.62
424.50	1998.82
424.69	1968.39
424.88	2040.95
425.07	1994.14
425.26	2033.93
425.45	2036.27
425.64	2038.61
425.83	1954.35
426.01	2071.37
426.20	1940.30
426.39	2022.22
426.58	2036.27
426.77	1970.73
426.96	2008.18
427.15	2054.99
427.33	2064.35
427.52	2005.84
427.71	2165.00
427.90	2043.29
428.09	2197.76
428.28	2211.81
428.46	2132.23
428.65	2275.00
428.84	2207.13
429.03	2153.29
429.22	2260.96
429.40	2314.79
429.59	2267.98
429.78	2064.35
429.97	2249.25
430.16	2242.23
430.34	2326.49
430.53	2279.68
430.72	2335.85
430.91	2324.15
431.10	2303.09
431.28	2359.26
431.47	2303.09
431.66	2457.56
431.85	2401.39
432.03	2392.03
432.22	2558.21
432.41	2509.05
432.60	2487.99
432.79	2464.58
432.97	2509.05
433.16	2541.82
433.35	2544.16
433.54	2647.15
433.72	2572.25
433.91	2469.27
434.10	2548.84
434.28	2483.31
434.47	2595.65
434.66	2612.04
434.85	2553.52
435.03	2525.44
435.22	2509.05
435.41	2607.36
435.59	2609.70
435.78	2649.49
435.97	2567.57
436.16	2693.96
436.34	2703.32
436.53	2642.46
436.72	2775.88
436.90	2623.74
437.09	2759.49
437.28	2684.59
437.46	2834.39
437.65	2766.51
437.84	2794.60
438.02	2750.13
438.21	2747.79
438.40	2700.98
438.58	2885.88
438.77	2787.58
438.96	2857.79
439.14	2913.97
439.33	2822.69
439.52	2995.89
439.70	3038.02
439.89	2974.82
440.08	2965.46
440.26	2974.82
440.45	3197.17
440.63	3152.70
440.82	3049.72
441.01	3159.72
441.19	3288.45
441.38	3234.62
441.57	3126.96
441.75	3215.90
441.94	3204.19
442.12	3335.26
442.31	3290.79
442.50	3281.43
442.68	3314.20
442.87	3276.75
443.05	3265.05
443.24	3253.34
443.43	3419.52
443.61	3311.86
443.80	3585.70
443.98	3325.90
444.17	3276.75
444.35	3529.53
444.54	3428.88
444.73	3265.05
444.91	3471.01
445.10	3407.82
445.28	3471.01
445.47	3480.38
445.65	3417.18
445.84	3379.73
446.02	3503.78
446.21	3398.46
446.39	3449.95
446.58	3555.27
446.77	3482.72
446.95	3393.78
447.14	3473.36
447.32	3630.17
447.51	3571.66
447.69	3541.23
447.88	3480.38
448.06	3564.64
448.25	3433.57
448.43	3660.60
448.62	3536.55
448.80	3466.33
448.99	3667.62
449.17	3684.00
449.36	3449.95
449.54	3545.91
449.73	3707.41
449.91	3513.14
450.10	3660.60
450.28	3637.19
450.46	3662.94
450.65	3707.41
450.83	3751.88
451.02	3875.93
451.20	3817.41
451.39	3824.44
451.57	3808.05
451.76	3618.47
451.94	3829.12
452.13	3756.56
452.31	3927.42
452.49	3784.65
452.68	3777.62
452.86	3894.65
453.05	3904.01
453.23	4018.70
453.42	3805.71
453.60	3892.31
453.78	3964.87
453.97	3836.14
454.15	3892.31
454.34	3913.38
454.52	3866.56
454.70	3925.08
454.89	4007.00
455.07	4058.49
455.26	3946.14
455.44	4053.81
455.62	4086.58
455.81	4086.58
455.99	4072.53
456.17	4180.20
456.36	4088.92
456.54	4117.00
456.73	4269.14
456.91	4381.48
457.09	4297.22
457.28	4212.96
457.46	4025.72
457.64	4346.37
457.83	4322.97
458.01	4372.12
458.19	4362.76
458.38	4308.93
458.56	4348.72
458.74	4355.74
458.93	4461.06
459.11	4465.74
459.29	4638.94
459.48	4278.50
459.66	4428.29
459.84	4479.79
460.03	4559.36
460.21	4470.42
460.39	4390.84
460.57	4304.25
460.76	4610.86
460.94	4568.73
461.12	4564.04
461.31	4608.51
461.49	4620.22
461.67	4634.26
461.85	4685.75
462.04	4690.43
462.22	4786.40
462.40	4608.51
462.59	4650.64
462.77	4613.20
462.95	4971.30
463.13	4844.91
463.32	4828.53
463.50	4746.61
463.68	4697.46
463.86	4798.10
464.05	4819.16
464.23	4732.56
464.41	4875.34
464.59	4833.21
464.78	5034.49
464.96	4994.70
465.14	4807.46
465.32	4865.97
465.50	5130.45
465.69	4990.02
465.87	4915.12
466.05	4933.85
466.23	5008.75
466.41	5097.69
466.60	5116.41
466.78	4985.34
466.96	4840.23
467.14	5064.92
467.32	4936.19
467.51	5212.37
467.69	5046.20
467.87	5240.46
468.05	5203.01
468.23	5153.86
468.41	5132.79
468.60	4980.66
468.78	5224.08
468.96	5256.84
469.14	5245.14
469.32	5291.95
469.50	5151.52
469.69	5287.27
469.87	5315.36
470.05	5500.26
470.23	5434.72
470.41	5338.76
470.59	5493.24
470.77	5313.02
470.95	5404.30
471.14	5467.49
471.32	5352.81
471.50	5509.62
471.68	5460.47
471.86	5544.73
472.04	5497.92
472.22	5724.95
472.40	5600.90
472.58	5673.46
472.77	5792.83
472.95	5823.25
473.13	5905.17
473.31	5647.71
473.49	5767.08
473.67	5858.36
473.85	5954.32
474.03	5937.94
474.21	5877.09
474.39	5989.43
474.57	6150.93
474.75	6186.04
474.93	6202.42
475.12	6155.61
475.30	6246.89
475.48	6193.06
475.66	6338.17
475.84	6293.70
476.02	6272.64
476.20	6328.81
476.38	6274.98
476.56	6483.28
476.74	6595.63
476.92	6492.65
477.10	6424.77
477.28	6724.36
477.46	6600.31
477.64	6759.47
477.82	6787.55
478.00	6815.64
478.18	6904.58
478.36	6939.69
478.54	6850.75
478.72	7110.55
478.90	7201.83
479.08	7030.97
479.26	7393.75
479.44	7166.72
479.62	7363.33
479.80	7428.86
479.98	7435.88
480.16	7424.18
480.34	7442.90
480.52	7463.97
480.70	7620.78
480.88	7386.73
481.06	7599.72
481.24	7548.23
481.41	7899.31
481.59	7906.33
481.77	8140.38
481.95	7852.50
482.13	8205.92
482.31	7990.59
482.49	8346.35
482.67	8308.90
482.85	8229.32
483.03	8313.58
483.21	8404.86
483.39	8524.23
483.57	8526.57
483.74	8589.77
483.92	8669.34
484.10	8734.88
484.28	8959.57
484.46	9064.89
484.64	9200.65
484.82	9100.00
485.00	9015.74
485.18	9275.54
485.35	9394.91
485.53	9242.78
485.71	9366.82
485.89	9650.03
486.07	9640.67
486.25	9565.77
486.43	9568.11
486.61	9853.66
486.78	9884.08
486.96	9811.53
487.14	10186.01
487.32	9720.24
487.50	10258.57
487.68	10099.41
487.85	10038.56
488.03	10523.05
488.21	10511.35
488.39	10525.39
488.57	10490.28
488.75	10565.18
488.92	10892.85
489.10	10920.94
489.28	10885.83
489.46	10902.22
489.64	10965.41
489.81	11260.32
489.99	11023.92
490.17	11414.79
490.35	11477.99
490.53	11559.91
490.70	11492.03
490.88	11590.33
491.06	11859.49
491.24	11744.81
491.41	11782.26
491.59	11735.45
491.77	11885.24
491.95	12013.97
492.13	11896.94
492.30	12009.29
492.48	12315.90
492.66	12430.59
492.84	12259.73
493.01	12587.40
493.19	12315.90
493.37	12339.30
493.54	12851.88
493.72	12847.20
493.90	12936.14
494.08	12922.10
494.25	13132.75
494.43	13032.10
494.61	13338.71
494.79	13132.75
494.96	13001.68
495.14	13642.98
495.32	13371.48
495.49	13359.78
495.67	13322.33
495.85	13535.32
496.02	13783.41
496.20	13820.86
496.38	13834.91
496.55	13710.86
496.73	14120.45
496.91	14111.09
497.09	14263.22
497.26	14424.72
497.44	14171.94
497.62	14246.84
497.79	14750.06
497.97	14490.26
498.14	14527.71
498.32	14684.52
498.50	14721.97
498.67	14911.55
498.85	14747.72
499.03	14864.74
499.20	15073.05
499.38	15059.01
499.56	14855.38
499.73	15403.07
499.91	15452.22
500.08	15616.05
500.26	15314.13
500.44	15412.43
500.61	15564.56
500.79	15583.29
500.97	15761.17
501.14	15704.99
501.32	15910.96
501.49	15522.43
501.67	15651.16
501.84	15742.44
502.02	15934.37
502.20	15974.16
502.37	16116.93
502.55	16065.44
502.72	16245.66
502.90	16116.93
503.07	16025.65
503.25	16060.76
503.43	16226.93
503.60	16004.58
503.78	16540.57
503.95	16451.63
504.13	16266.72
504.30	16463.33
504.48	16517.16
504.65	16666.95
504.83	16926.75
505.01	17003.99
505.18	16847.18
505.36	16760.58
505.53	17116.34
505.71	17137.40
505.88	16945.48
506.06	17102.29
506.23	17191.23
506.41	17280.18
506.58	16929.09
506.76	17238.05
506.93	17301.24
507.11	17153.79
507.28	17406.56
507.46	17804.46
507.63	17444.01
507.81	17813.82
507.98	17600.83
508.16	17444.01
508.33	17717.86
508.50	18047.87
508.68	17898.08
508.85	17905.10
509.03	18101.70
509.20	18162.56
509.38	18237.45
509.55	18415.34
509.73	18377.89
509.90	18459.81
510.08	18195.32
510.25	18258.52
510.42	18352.14
510.60	18480.87
510.77	18555.77
510.95	18890.46
511.12	18539.38
511.30	18499.59
511.47	18618.96
511.64	18944.30
511.82	18970.04
511.99	18953.66
512.17	19058.98
512.34	18932.59
512.51	18843.65
512.69	19005.15
512.86	19058.98
513.04	19445.17
513.21	19386.66
513.38	19583.26
513.56	19606.67
513.73	19379.64
513.90	19646.46
514.08	19370.27
514.25	19683.91
514.43	19927.32
514.60	19852.42
514.77	19548.15
514.95	20072.43
515.12	20224.57
515.29	19653.48
515.47	19960.09
515.64	20102.86
515.81	20137.97
515.99	20046.69
516.16	20116.90
516.33	20177.76
516.51	20320.53
516.68	20147.33
516.85	19953.07
517.03	20390.75
517.20	20526.50
517.37	20418.83
517.54	20409.47
517.72	20594.37
517.89	20634.16
518.06	20374.36
518.24	20730.12
518.41	20795.66
518.58	20507.77
518.75	20617.78
518.93	20870.56
519.10	21149.08
519.27	21010.99
519.45	20884.60
519.62	21153.76
519.79	21046.10
519.96	20938.43
520.14	20821.41
520.31	20987.58
520.48	21233.34
520.65	21385.47
520.83	21289.51
521.00	21282.49
521.17	21436.97
521.34	21443.99
521.52	21273.13
521.69	21146.74
521.86	21439.31
522.03	21968.27
522.20	21790.39
522.38	22001.04
522.55	21598.46
522.72	22019.76
522.89	21476.76
523.07	22319.35
523.24	21759.96
523.41	21844.22
523.58	21813.79
523.75	22333.39
523.92	22188.28
524.10	21788.05
524.27	22347.44
524.44	22293.60
524.61	22190.62
524.78	22249.13
524.96	22422.33
525.13	22340.41
525.30	22295.94
525.47	22333.39
525.64	22618.94
525.81	22630.64
525.98	22410.63
526.16	22485.53
526.33	22724.26
526.50	22977.04
526.67	22728.94
526.84	22771.07
527.01	22511.27
527.18	22871.72
527.36	22918.53
527.53	23058.96
527.70	23374.93
527.87	22920.87
528.04	23042.57
528.21	23115.13
528.38	23159.60
528.55	22916.19
528.72	22963.00
528.89	23101.09
529.07	23021.51
529.24	23087.04
529.41	23620.69
529.58	23536.43
529.75	23410.04
529.92	23538.77
530.09	23569.19
530.26	23293.01
530.43	23454.51
530.60	23665.16
530.77	23433.44
530.94	23510.68
531.11	23850.06
531.28	23730.69
531.46	23489.62
531.63	23541.11
531.80	23726.01
531.97	23810.27
532.14	23718.99
532.31	23786.86
532.48	24257.31
532.65	24121.56
532.82	23723.67
532.99	23864.10
533.16	24348.59
533.33	24418.81
533.50	24304.12
533.67	24222.20
533.84	24404.77
534.01	24313.48
534.18	24350.93
534.35	24517.11
534.52	24201.14
534.69	24725.42
534.86	24671.59
535.03	24627.12
535.20	24549.88
535.37	24566.26
535.54	24542.86
535.71	24332.21
535.88	24512.43
536.05	24584.99
536.22	24709.04
536.38	24741.80
536.55	24875.21
536.72	24615.41
536.89	24678.61
537.06	24872.87
537.23	24924.36
537.40	24617.75
537.57	24900.96
537.74	24863.51
537.91	25256.72
538.08	25153.74
538.25	25010.96
538.42	25158.42
538.59	25029.69
538.75	25010.96
538.92	24805.00
539.09	25247.36
539.26	25532.90
539.43	25202.89
539.60	25483.75
539.77	25111.61
539.94	24879.89
540.11	25579.71
540.28	25238.00
540.44	25427.58
540.61	25123.31
540.78	25720.15
540.95	25542.27
541.12	25518.86
541.29	25755.26
541.46	25514.18
541.62	25532.90
541.79	25837.17
541.96	25708.44
542.13	25783.34
542.30	25694.40
542.47	25975.27
542.63	26263.15
542.80	26050.16
542.97	26087.61
543.14	26574.44
543.31	26251.45
543.48	26080.59
543.64	26593.17
543.81	26347.41
543.98	26480.82
544.15	26345.07
544.32	26602.53
544.48	26567.42
544.65	26286.56
544.82	26267.83
544.99	26352.09
545.16	26300.60
545.32	26434.01
545.49	26696.15
545.66	26647.00
545.83	26754.66
546.00	26721.90
546.16	26515.93
546.33	26761.69
546.50	26508.91
546.67	26443.37
546.83	26206.98
547.00	26541.68
547.17	26838.92
547.34	26642.32
547.50	26925.52
547.67	26852.97
547.84	26864.67
548.00	27264.90
548.17	27054.25
548.34	26944.25
548.51	27171.28
548.67	27042.55
548.84	26981.70
549.01	27173.62
549.18	26986.38
549.34	27087.02
549.51	26827.22
549.68	27487.25
549.84	27662.79
550.01	27379.59
550.18	26913.82
550.34	27697.90
550.51	27173.62
550.68	27536.40
550.84	27126.81
551.01	26977.01
551.18	27274.26
551.34	27140.85
551.51	27585.55
551.68	27648.75
551.84	27449.80
552.01	27393.63
552.18	27428.74
552.34	27634.71
552.51	27737.69
552.68	27653.43
552.84	27728.33
553.01	27747.05
553.18	27594.92
553.34	27833.65
553.51	27431.08
553.67	27962.38
553.84	28093.45
554.01	27714.28
554.17	27824.29
554.34	27417.04
554.51	27723.65
554.67	28231.54
554.84	28093.45
555.00	28041.96
555.17	27920.25
555.33	28236.22
555.50	27857.06
555.67	27903.87
555.83	27784.50
556.00	28013.87
556.16	28226.86
556.33	28313.46
556.50	28037.28
556.66	28177.71
556.83	28350.91
556.99	28168.35
557.16	28650.50
557.32	28320.48
557.49	28364.95
557.65	28065.36
557.82	27754.07
557.98	28304.10
558.15	28142.60
558.32	28299.42
558.48	28503.04
558.65	28627.09
558.81	28563.90
558.98	28477.30
559.14	28137.92
559.31	28411.76
559.47	28498.36
559.64	28332.18
559.80	28240.90
559.97	28788.59
560.13	28477.30
560.30	28694.97
560.46	28907.96
560.63	28603.69
560.79	28648.16
560.96	28830.72
561.12	28631.77
561.29	28807.31
561.45	28648.16
561.61	28891.57
561.78	28804.97
561.94	28882.21
562.11	28919.66
562.27	28758.16
562.44	28821.36
562.60	28577.94
562.77	28474.96
562.93	28762.84
563.10	28933.70
563.26	28397.72
563.42	28994.56
563.59	28987.53
563.75	28851.78
563.92	29181.80
564.08	28840.08
564.24	29139.67
564.41	29046.05
564.57	28926.68
564.74	29034.35
564.90	29123.29
565.07	29259.04
565.23	29134.99
565.39	29333.93
565.56	28952.43
565.72	29104.56
565.88	28982.85
566.05	29069.45
566.21	28709.01
566.38	29158.39
566.54	29184.14
566.70	29343.30
566.87	29343.30
567.03	29099.88
567.19	29479.05
567.36	29099.88
567.52	29317.55
567.68	29060.09
567.85	28704.33
568.01	29230.95
568.17	29036.69
568.34	29301.17
568.50	29369.04
568.66	29362.02
568.83	29319.89
568.99	29380.74
569.15	29078.82
569.32	29717.78
569.48	29069.45
569.64	29270.74
569.81	29448.62
569.97	29259.04
570.13	29394.79
570.30	29230.95
570.46	29186.48
570.62	29909.71
570.78	29275.42
570.95	29085.84
571.11	29273.08
571.27	29202.86
571.43	29315.21
571.60	29060.09
571.76	29577.35
571.92	29675.65
572.09	29226.27
572.25	29865.24
572.41	29261.38
572.57	29621.82
572.74	29539.90
572.90	29352.66
573.06	29228.61
573.22	29188.82
573.38	29160.73
573.55	29146.69
573.71	29465.00
573.87	29614.80
574.03	29378.40
574.20	29153.71
574.36	29228.61
574.52	29406.49
574.68	29228.61
574.84	29450.96
575.01	29619.48
575.17	29584.37
575.33	29523.52
575.49	29289.46
575.65	29844.17
575.82	29764.59
575.98	29570.33
576.14	29542.24
576.30	29446.28
576.46	29745.87
576.62	29521.18
576.79	29429.90
576.95	29607.78
577.11	29743.53
577.27	29380.74
577.43	29687.36
577.59	29439.26
577.75	29659.27
577.92	29804.38
578.08	29324.57
578.24	29661.61
578.40	29572.67
578.56	29490.75
578.72	29413.51
578.88	29965.88
579.04	30061.84
579.21	29668.63
579.37	29731.83
579.53	29855.87
579.69	29134.99
579.85	29207.55
580.01	29788.00
580.17	29518.84
580.33	29731.83
580.49	29596.07
580.65	29666.29
580.82	29792.68
580.98	29589.05
581.14	29902.68
581.30	29558.63
581.46	29743.53
581.62	29773.95
581.78	29717.78
581.94	29783.32
582.10	29493.09
582.26	29668.63
582.42	29832.47
582.58	29654.59
582.74	29923.75
582.90	29867.58
583.06	29942.47
583.22	29706.08
583.38	29699.06
583.54	29532.88
583.70	29549.26
583.86	29898.00
584.02	29422.87
584.18	30052.48
584.34	29607.78
584.50	29652.25
584.66	29809.06
584.82	29500.11
584.98	29649.91
585.14	29916.73
585.30	29570.33
585.46	29434.58
585.62	29827.79
585.78	29989.28
585.94	29844.17
586.10	29614.80
586.26	30033.75
586.42	30068.86
586.58	30085.25
586.74	29874.60
586.90	29507.13
587.06	29759.91
587.22	29811.40
587.38	29734.17
587.54	29881.62
587.70	30127.38
587.86	29965.88
588.02	30008.01
588.18	30316.96
588.34	29968.22
588.49	30253.76
588.65	29724.80
588.81	29546.92
588.97	30150.78
589.13	30005.67
589.29	30015.03
589.45	30312.28
589.61	30022.05
589.77	29935.45
589.93	30143.76
590.08	30204.61
590.24	30094.61
590.40	30150.78
590.56	30249.08
590.72	30263.13
590.88	29804.38
591.04	30190.57
591.20	30646.97
591.35	30272.49
591.51	30033.75
591.67	30363.77
591.83	30150.78
591.99	30352.07
