SpectraSuite Data File
++++++++++++++++++++++++++++++++++++
Date: Fri Oct 18 13:58:42 GMT-05:00 2013
User: bianchi
Dark Spectrum Present: No
Reference Spectrum Present: No
Number of Sampled Component Spectra: 1
Spectrometers: USB2+H05261
Integration Time (usec): 50000 (USB2+H05261)
Spectra Averaged: 1 (USB2+H05261)
Boxcar Smoothing: 0 (USB2+H05261)
Correct for Electrical Dark: No (USB2+H05261)
Strobe/Lamp Enabled: No (USB2+H05261)
Correct for Detector Non-linearity: No (USB2+H05261)
Correct for Stray Light: No (USB2+H05261)
Number of Pixels in Processed Spectrum: 2048
>>>>>Begin Processed Spectral Data<<<<<
365.73	0.00
365.92	0.00
366.12	0.00
366.32	0.00
366.52	0.00
366.72	0.00
366.91	0.00
367.11	0.00
367.31	0.00
367.51	0.00
367.70	0.00
367.90	0.00
368.10	0.00
368.30	0.00
368.49	0.00
368.69	0.00
368.89	0.00
369.09	0.00
369.28	0.00
369.48	0.00
369.68	0.00
369.87	0.00
370.07	0.00
370.27	0.00
370.47	0.00
370.66	88.94
370.86	93.62
371.06	112.35
371.25	142.77
371.45	128.73
371.65	184.90
371.84	135.75
372.04	133.41
372.24	147.45
372.44	149.79
372.63	212.99
372.83	210.65
373.03	177.88
373.22	227.03
373.42	163.84
373.62	229.37
373.81	236.39
374.01	201.29
374.21	220.01
374.40	224.69
374.60	220.01
374.79	196.60
374.99	287.89
375.19	308.95
375.38	236.39
375.58	227.03
375.78	301.93
375.97	297.25
376.17	280.86
376.37	315.97
376.56	212.99
376.76	205.97
376.95	292.57
377.15	215.33
377.35	313.63
377.54	285.55
377.74	278.52
377.93	257.46
378.13	266.82
378.33	337.04
378.52	245.76
378.72	308.95
378.91	292.57
379.11	280.86
379.31	271.50
379.50	231.71
379.70	271.50
379.89	346.40
380.09	262.14
380.28	259.80
380.48	306.61
380.68	269.16
380.87	311.29
381.07	294.91
381.26	292.57
381.46	283.20
381.65	299.59
381.85	348.74
382.04	304.27
382.24	290.23
382.43	327.68
382.63	283.20
382.83	287.89
383.02	337.04
383.22	365.12
383.41	355.76
383.61	334.70
383.80	372.15
384.00	355.76
384.19	400.23
384.39	397.89
384.58	383.85
384.78	292.57
384.97	262.14
385.17	334.70
385.36	397.89
385.56	360.44
385.75	397.89
385.95	428.32
386.14	339.38
386.34	381.51
386.53	383.85
386.72	430.66
386.92	475.13
387.11	369.80
387.31	407.25
387.50	337.04
387.70	421.30
387.89	425.98
388.09	411.93
388.28	456.40
388.48	493.85
388.67	472.79
388.86	447.04
389.06	400.23
389.25	458.74
389.45	470.45
389.64	486.83
389.84	458.74
390.03	465.77
390.22	442.36
390.42	479.81
390.61	559.39
390.81	514.92
391.00	407.25
391.19	519.60
391.39	510.24
391.58	538.32
391.78	477.47
391.97	540.66
392.16	491.51
392.36	559.39
392.55	559.39
392.75	477.47
392.94	592.16
393.13	535.98
393.33	461.09
393.52	528.96
393.71	660.03
393.91	587.47
394.10	475.13
394.29	568.75
394.49	573.43
394.68	622.58
394.88	617.90
395.07	601.52
395.26	552.37
395.46	561.73
395.65	678.76
395.84	554.71
396.04	648.33
396.23	615.56
396.42	610.88
396.62	608.54
396.81	758.33
397.00	573.43
397.19	589.82
397.39	709.18
397.58	636.63
397.77	615.56
397.97	662.37
398.16	732.59
398.35	678.76
398.55	688.12
398.74	730.25
398.93	683.44
399.12	772.38
399.32	648.33
399.51	713.86
399.70	753.65
399.90	718.54
400.09	641.31
400.28	791.10
400.47	784.08
400.67	835.57
400.86	725.57
401.05	748.97
401.24	840.25
401.44	826.21
401.63	702.16
401.82	692.80
402.01	807.48
402.21	847.27
402.40	748.97
402.59	870.68
402.78	777.06
402.97	884.72
403.17	880.04
403.36	947.92
403.55	917.49
403.74	882.38
403.93	847.27
404.13	915.15
404.32	933.87
404.51	833.23
404.70	997.07
404.89	964.30
405.09	950.26
405.28	954.94
405.47	973.66
405.66	964.30
405.85	952.60
406.05	978.34
406.24	1046.22
406.43	910.47
406.62	1025.15
406.81	1062.60
407.00	966.64
407.20	997.07
407.39	947.92
407.58	1153.88
407.77	1029.84
407.96	1156.22
408.15	1039.20
408.34	1076.65
408.54	1233.46
408.73	994.73
408.92	1130.48
409.11	1181.97
409.30	1018.13
409.49	1100.05
409.68	997.07
409.87	1181.97
410.07	1174.95
410.26	1203.04
410.45	1177.29
410.64	1181.97
410.83	1193.67
411.02	1156.22
411.21	1212.40
411.40	1263.89
411.59	1163.25
411.78	1315.38
411.98	1235.80
412.17	1273.25
412.36	1301.34
412.55	1249.85
412.74	1404.32
412.93	1399.64
413.12	1322.40
413.31	1453.47
413.50	1376.24
413.69	1394.96
413.88	1444.11
414.07	1507.30
414.26	1488.58
414.45	1476.88
414.64	1490.92
414.83	1483.90
415.02	1420.71
415.22	1490.92
415.41	1621.99
415.60	1624.33
415.79	1540.07
415.98	1558.80
416.17	1497.94
416.36	1596.25
416.55	1652.42
416.74	1544.75
416.93	1621.99
417.12	1633.69
417.31	1706.25
417.50	1664.12
417.69	1762.42
417.88	1809.23
418.07	1783.49
418.26	1750.72
418.45	1720.29
418.64	1739.02
418.83	1830.30
419.02	1722.63
419.21	1809.23
419.39	1856.04
419.58	1867.75
419.77	1750.72
419.96	1846.68
420.15	1832.64
420.34	1849.02
420.53	1858.39
420.72	1921.58
420.91	1830.30
421.10	1820.94
421.29	1891.15
421.48	1865.41
421.67	1975.41
421.86	1891.15
422.05	1902.86
422.24	1949.67
422.43	2003.50
422.61	1940.30
422.80	1921.58
422.99	1998.82
423.18	1930.94
423.37	1994.14
423.56	2019.88
423.75	2069.03
423.94	2031.58
424.13	1888.81
424.32	1888.81
424.50	2017.54
424.69	2047.97
424.88	2038.61
425.07	2099.46
425.26	2069.03
425.45	2132.23
425.64	2115.84
425.83	2024.56
426.01	2169.68
426.20	2019.88
426.39	2010.52
426.58	2010.52
426.77	2076.06
426.96	2108.82
427.15	2066.69
427.33	1996.48
427.52	2146.27
427.71	2209.47
427.90	2118.18
428.09	2136.91
428.28	2293.72
428.46	2225.85
428.65	2150.95
428.84	2335.85
429.03	2312.45
429.22	2172.02
429.40	2265.64
429.59	2284.36
429.78	2193.08
429.97	2251.60
430.16	2195.42
430.34	2331.17
430.53	2310.11
430.72	2181.38
430.91	2207.13
431.10	2272.66
431.28	2314.79
431.47	2417.77
431.66	2436.50
431.85	2375.64
432.03	2438.84
432.22	2417.77
432.41	2375.64
432.60	2537.14
432.79	2471.61
432.97	2415.43
433.16	2455.22
433.35	2485.65
433.54	2443.52
433.72	2483.31
433.91	2520.76
434.10	2438.84
434.28	2555.86
434.47	2614.38
434.66	2541.82
434.85	2590.97
435.03	2628.42
435.22	2689.28
435.41	2712.68
435.59	2602.68
435.78	2705.66
435.97	2684.59
436.16	2663.53
436.34	2693.96
436.53	2579.27
436.72	2822.69
436.90	2605.02
437.09	2810.98
437.28	2712.68
437.46	2710.34
437.65	2710.34
437.84	2803.96
438.02	2738.43
438.21	2846.09
438.40	2600.34
438.58	2825.03
438.77	2885.88
438.96	2923.33
439.14	2939.71
439.33	2853.11
439.52	2958.44
439.70	2979.50
439.89	3049.72
440.08	3183.13
440.26	3176.11
440.45	3087.17
440.63	3042.70
440.82	3129.30
441.01	3002.91
441.19	3180.79
441.38	3260.37
441.57	3133.98
441.75	3258.03
441.94	3267.39
442.12	3218.24
442.31	3211.22
442.50	3262.71
442.68	3279.09
442.87	3382.07
443.05	3243.98
443.24	3307.18
443.43	3307.18
443.61	3487.40
443.80	3494.42
443.98	3375.05
444.17	3356.33
444.35	3393.78
444.54	3468.67
444.73	3386.76
444.91	3550.59
445.10	3407.82
445.28	3396.12
445.47	3494.42
445.65	3410.16
445.84	3506.12
446.02	3545.91
446.21	3396.12
446.39	3499.10
446.58	3351.65
446.77	3452.29
446.95	3499.10
447.14	3330.58
447.32	3557.61
447.51	3529.53
447.69	3501.44
447.88	3417.18
448.06	3559.95
448.25	3541.23
448.43	3447.61
448.62	3361.01
448.80	3442.93
448.99	3524.85
449.17	3581.02
449.36	3693.37
449.54	3669.96
449.73	3672.30
449.91	3674.64
450.10	3590.38
450.28	3641.87
450.46	3658.26
450.65	3740.18
450.83	3693.37
451.02	3669.96
451.20	3859.54
451.39	3824.44
451.57	3695.71
451.76	3700.39
451.94	3943.80
452.13	3794.01
452.31	3896.99
452.49	3850.18
452.68	3779.97
452.86	4035.08
453.05	3911.04
453.23	4039.76
453.42	3733.15
453.60	3822.09
453.78	3803.37
453.97	3868.91
454.15	4016.36
454.34	3911.04
454.52	4109.98
454.70	4070.19
454.89	4056.15
455.07	4009.34
455.26	4032.74
455.44	4187.22
455.62	4191.90
455.81	4147.43
455.99	4163.81
456.17	3988.27
456.36	4117.00
456.54	4131.05
456.73	4198.92
456.91	4273.82
457.09	4318.29
457.28	4276.16
457.46	4315.95
457.64	4376.80
457.83	4362.76
458.01	4227.01
458.19	4271.48
458.38	4315.95
458.56	4475.10
458.74	4461.06
458.93	4365.10
459.11	4440.00
459.29	4418.93
459.48	4428.29
459.66	4444.68
459.84	4386.16
460.03	4617.88
460.21	4599.15
460.39	4482.13
460.57	4566.39
460.76	4491.49
460.94	4657.67
461.12	4566.39
461.31	4507.87
461.49	4561.70
461.67	4702.14
461.85	4660.01
462.04	4606.17
462.22	4767.67
462.40	4784.06
462.59	4812.14
462.77	4706.82
462.95	4784.06
463.13	4758.31
463.32	4861.29
463.50	4882.36
463.68	4755.97
463.86	4854.27
464.05	4685.75
464.23	4945.55
464.41	4954.91
464.59	4669.37
464.78	4823.84
464.96	4812.14
465.14	4791.08
465.32	4926.83
465.50	5177.26
465.69	5071.94
465.87	4968.96
466.05	4987.68
466.23	4985.34
466.41	4968.96
466.60	5043.85
466.78	4919.81
466.96	5144.50
467.14	5153.86
467.32	5116.41
467.51	5233.44
467.69	4973.64
467.87	5093.01
468.05	5149.18
468.23	5160.88
468.41	5090.67
468.60	5151.52
468.78	5142.16
468.96	5296.63
469.14	5362.17
469.32	5446.43
469.50	5210.03
469.69	5327.06
469.87	5427.70
470.05	5507.28
470.23	5441.75
470.41	5448.77
470.59	5500.26
470.77	5526.00
470.95	5460.47
471.14	5598.56
471.32	5490.90
471.50	5556.43
471.68	5500.26
471.86	5628.99
472.04	5593.88
472.22	5797.51
472.40	5544.73
472.58	5729.63
472.77	5633.67
472.95	5720.27
473.13	5961.34
473.31	5692.18
473.49	5778.78
473.67	5886.45
473.85	5909.85
474.03	6132.20
474.21	5921.56
474.39	5898.15
474.57	6104.12
474.75	6300.72
474.93	6265.61
475.12	6190.72
475.30	6310.08
475.48	6029.22
475.66	6134.54
475.84	6284.34
476.02	6253.91
476.20	6321.79
476.38	6342.85
476.56	6553.50
476.74	6565.20
476.92	6476.26
477.10	6492.65
477.28	6637.76
477.46	6682.23
477.64	6785.21
477.82	6724.36
478.00	6923.30
478.18	6923.30
478.36	6913.94
478.54	7012.24
478.72	7143.32
478.90	7007.56
479.08	7108.21
479.26	7185.44
479.44	7150.34
479.62	7241.62
479.80	7192.47
479.98	7358.64
480.16	7475.67
480.34	7506.10
480.52	7506.10
480.70	7545.89
480.88	7541.21
481.06	7655.89
481.24	7805.69
481.41	7962.50
481.59	7770.58
481.77	7997.61
481.95	8133.36
482.13	8093.57
482.31	8194.22
482.49	8205.92
482.67	8255.07
482.85	8313.58
483.03	8290.18
483.21	8571.04
483.39	8479.76
483.57	8528.91
483.74	8716.16
483.92	8699.77
484.10	8723.18
484.28	8922.12
484.46	8971.27
484.64	9235.75
484.82	8879.99
485.00	9050.85
485.18	9359.80
485.35	9380.87
485.53	9404.27
485.71	9420.66
485.89	9547.05
486.07	9371.50
486.25	9462.79
486.43	9589.17
486.61	9792.80
486.78	9919.19
486.96	10029.20
487.14	10143.88
487.32	10178.99
487.50	10066.64
487.68	10354.53
487.85	10504.32
488.03	10443.47
488.21	10696.25
488.39	10548.79
488.57	10581.56
488.75	10771.15
488.92	11119.89
489.10	11033.29
489.28	11066.05
489.46	10974.77
489.64	11194.78
489.81	11206.48
489.99	11276.70
490.17	11248.61
490.35	11480.33
490.53	11520.12
490.70	11875.88
490.88	11758.85
491.06	11866.52
491.24	11749.49
491.41	11796.30
491.59	11974.18
491.77	11978.86
491.95	12243.34
492.13	12184.83
492.30	12383.77
492.48	12201.21
492.66	12393.14
492.84	12418.88
493.01	12453.99
493.19	12463.35
493.37	13050.83
493.54	12578.04
493.72	12994.65
493.90	12734.85
494.08	12856.56
494.25	12912.74
494.43	13144.45
494.61	13341.05
494.79	13212.32
494.96	13226.37
495.14	13387.86
495.32	13392.55
495.49	13289.56
495.67	13406.59
495.85	13673.41
496.02	13582.13
496.20	13907.46
496.38	13940.23
496.55	13991.72
496.73	14429.40
496.91	13954.27
497.09	14284.29
497.26	14291.31
497.44	14054.92
497.62	14396.64
497.79	14586.22
497.97	14347.48
498.14	14604.94
498.32	14682.18
498.50	14857.72
498.67	14909.21
498.85	14684.52
499.03	15101.14
499.20	14911.55
499.38	14843.68
499.56	15456.90
499.73	15349.23
499.91	15115.18
500.08	15239.23
500.26	15527.11
500.44	15344.55
500.61	15480.30
500.79	15410.09
500.97	15552.86
501.14	15910.96
501.32	15672.23
501.49	15723.72
501.67	15817.34
501.84	16004.58
502.02	15831.38
502.20	15983.52
502.37	15962.45
502.55	16060.76
502.72	16222.25
502.90	15967.13
503.07	15864.15
503.25	16135.65
503.43	16126.29
503.60	16486.73
503.78	16287.79
503.95	16814.41
504.13	16688.02
504.30	16776.96
504.48	16421.20
504.65	16786.32
504.83	16849.52
505.01	16868.24
505.18	16985.27
505.36	16893.99
505.53	16769.94
505.71	16755.90
505.88	16968.88
506.06	16954.84
506.23	17046.12
506.41	17432.31
506.58	17294.22
506.76	17378.48
506.93	17247.41
507.11	17170.17
507.28	17312.94
507.46	17657.00
507.63	17905.10
507.81	17783.39
507.98	17537.63
508.16	17469.76
508.33	17778.71
508.50	18008.08
508.68	17909.78
508.85	17926.16
509.03	17972.97
509.20	17982.34
509.38	18359.16
509.55	18192.98
509.73	18527.68
509.90	18389.59
510.08	18391.93
510.25	18565.13
510.42	18478.53
510.60	18583.85
510.77	18649.39
510.95	18932.59
511.12	18654.07
511.30	18682.16
511.47	18583.85
511.64	18885.78
511.82	18995.79
511.99	18801.52
512.17	19066.00
512.34	19009.83
512.51	19019.19
512.69	19363.25
512.86	19393.68
513.04	19431.13
513.21	19424.11
513.38	19580.92
513.56	19271.97
513.73	19290.70
513.90	19496.66
514.08	19325.80
514.25	19814.98
514.43	19594.96
514.60	19988.18
514.77	19711.99
514.95	19770.51
515.12	19847.74
515.29	19932.00
515.47	19768.16
515.64	19955.41
515.81	19742.42
515.99	20166.06
516.16	19978.81
516.33	20531.18
516.51	20365.00
516.68	20247.97
516.85	20315.85
517.03	20252.66
517.20	20435.22
517.37	20500.75
517.54	20563.95
517.72	20554.58
517.89	20458.62
518.06	20360.32
518.24	20510.11
518.41	20568.63
518.58	20695.02
518.75	20659.91
518.93	20954.82
519.10	20940.77
519.27	20697.36
519.45	21092.91
519.62	20943.11
519.79	20755.87
519.96	21188.87
520.14	21057.80
520.31	20922.05
520.48	21390.16
520.65	21486.12
520.83	21174.83
521.00	21474.42
521.17	21380.79
521.34	21376.11
521.52	21584.42
521.69	21788.05
521.86	21839.54
522.03	21427.60
522.20	21645.27
522.38	21645.27
522.55	21741.24
522.72	21809.11
522.89	21738.90
523.07	22171.89
523.24	21935.50
523.41	21921.46
523.58	22113.38
523.75	22403.61
523.92	21965.93
524.10	21956.57
524.27	22120.40
524.44	22504.25
524.61	22869.37
524.78	22698.52
524.96	22618.94
525.13	22593.19
525.30	22195.30
525.47	22560.42
525.64	22522.98
525.81	22700.86
525.98	22630.64
526.16	22656.39
526.33	22771.07
526.50	22932.57
526.67	22838.95
526.84	22796.82
527.01	23124.49
527.18	23077.68
527.36	23101.09
527.53	23023.85
527.70	23276.63
527.87	23187.69
528.04	23257.90
528.21	22993.42
528.38	23089.38
528.55	23260.24
528.72	23449.83
528.89	23592.60
529.07	23428.76
529.24	23388.97
529.41	23597.28
529.58	23269.61
529.75	23447.49
529.92	23452.17
530.09	23248.54
530.26	23222.80
530.43	23630.05
530.60	23800.91
530.77	23730.69
530.94	23498.98
531.11	23459.19
531.28	23655.79
531.46	24095.82
531.63	23819.63
531.80	23903.89
531.97	24149.65
532.14	23821.97
532.31	24084.11
532.48	24456.26
532.65	23920.28
532.82	23964.75
532.99	23974.11
533.16	23854.74
533.33	24203.48
533.50	24470.30
533.67	24280.72
533.84	24304.12
534.01	24252.63
534.18	24215.18
534.35	24046.66
534.52	24299.44
534.69	24879.89
534.86	24975.86
535.03	24573.28
535.20	24379.02
535.37	25034.37
535.54	24517.11
535.71	24283.06
535.88	24610.73
536.05	24772.23
536.22	24741.80
536.38	24917.34
536.55	24690.31
536.72	25116.29
536.89	25025.01
537.06	24996.92
537.23	25017.99
537.40	25057.78
537.57	24924.36
537.74	24917.34
537.91	25102.25
538.08	25064.80
538.25	25340.98
538.42	25219.27
538.59	25378.43
538.75	25106.93
538.92	25074.16
539.09	25558.65
539.26	25483.75
539.43	25240.34
539.60	25607.80
539.77	25865.26
539.94	25387.79
540.11	25436.94
540.28	25397.15
540.44	25675.68
540.61	25549.29
540.78	25373.75
540.95	25378.43
541.12	25596.10
541.29	25649.93
541.46	25825.47
541.62	25642.91
541.79	25652.27
541.96	25486.09
542.13	25708.44
542.30	25795.04
542.47	25902.71
542.63	26237.41
542.80	26141.44
542.97	26082.93
543.14	25993.99
543.31	26270.17
543.48	26192.94
543.64	26192.94
543.81	26492.52
543.98	26799.13
544.15	26735.94
544.32	26773.39
544.48	27101.06
544.65	26302.94
544.82	26424.65
544.99	26281.88
545.16	26499.55
545.32	26565.08
545.49	26845.94
545.66	26859.99
545.83	26267.83
546.00	26780.41
546.16	26623.59
546.33	26534.65
546.50	26375.50
546.67	26576.78
546.83	26452.73
547.00	26766.37
547.17	26506.57
547.34	26969.99
547.50	26569.76
547.67	27285.97
547.84	26672.74
548.00	27075.32
548.17	27152.55
548.34	27211.07
548.51	27503.64
548.67	27452.14
548.84	27426.40
549.01	27601.94
549.18	27096.38
549.34	27487.25
549.51	27091.70
549.68	26969.99
549.84	27166.60
550.01	27126.81
550.18	27241.50
550.34	27229.79
550.51	27264.90
550.68	27475.55
550.84	27257.88
551.01	27459.16
551.18	27559.81
551.34	27625.34
551.51	27491.93
551.68	27379.59
551.84	27456.82
552.01	27676.83
552.18	27934.29
552.34	27564.49
552.51	27934.29
552.68	27522.36
552.84	27641.73
553.01	27555.13
553.18	27435.76
553.34	27660.45
553.51	28074.73
553.67	28184.73
553.84	27831.31
554.01	27864.08
554.17	27810.25
554.34	28205.80
554.51	28151.96
554.67	27798.54
554.84	27878.12
555.00	28149.62
555.17	27857.06
555.33	28044.30
555.50	27974.08
555.67	28397.72
555.83	28126.22
556.00	28144.94
556.16	28011.53
556.33	28538.15
556.50	28381.34
556.66	28369.63
556.83	28648.16
556.99	28339.21
557.16	28414.10
557.32	28486.66
557.49	28706.67
557.65	28465.60
557.82	27901.53
557.98	28364.95
558.15	28388.36
558.32	28386.02
558.48	28692.63
558.65	28531.13
558.81	28463.25
558.98	28320.48
559.14	28673.90
559.31	28409.42
559.47	28360.27
559.64	28694.97
559.80	28725.39
559.97	28177.71
560.13	28739.44
560.30	28706.67
560.46	28725.39
560.63	28982.85
560.79	28531.13
560.96	29027.32
561.12	28334.53
561.29	28645.82
561.45	28587.30
561.61	28706.67
561.78	28769.86
561.94	28662.20
562.11	28683.27
562.27	28917.32
562.44	28779.23
562.60	28746.46
562.77	28776.89
562.93	28570.92
563.10	29127.97
563.26	28936.04
563.42	29446.28
563.59	28865.83
563.75	29249.67
563.92	28982.85
564.08	29036.69
564.24	28922.00
564.41	28629.43
564.57	29163.08
564.74	29317.55
564.90	29015.62
565.07	29301.17
565.23	29191.16
565.39	29067.11
565.56	29603.10
565.72	29296.49
565.88	29336.27
566.05	29085.84
566.21	28900.94
566.38	28989.88
566.54	29383.09
566.70	29191.16
566.87	29558.63
567.03	29385.43
567.19	29991.62
567.36	29350.32
567.52	28844.76
567.68	29340.96
567.85	29228.61
568.01	28919.66
568.17	29420.53
568.34	28926.68
568.50	29266.06
568.66	29514.16
568.83	29191.16
568.99	29216.91
569.15	29287.12
569.32	29418.19
569.48	29039.03
569.64	29434.58
569.81	29202.86
569.97	29317.55
570.13	29373.72
570.30	29495.43
570.46	29584.37
570.62	29443.94
570.78	29172.44
570.95	29345.64
571.11	29097.54
571.27	29280.10
571.43	29244.99
571.60	29434.58
571.76	29214.57
571.92	29380.74
572.09	29415.85
572.25	29516.50
572.41	29401.81
572.57	29703.74
572.74	29963.54
572.90	29223.93
573.06	29240.31
573.22	29390.11
573.38	29542.24
573.55	29544.58
573.71	29738.85
573.87	29572.67
574.03	29457.98
574.20	29448.62
574.36	29490.75
574.52	29490.75
574.68	29722.46
574.84	29296.49
575.01	29427.56
575.17	29483.73
575.33	29371.38
575.49	29708.42
575.65	29783.32
575.82	30005.67
575.98	29516.50
576.14	29848.85
576.30	29511.81
576.46	29717.78
576.62	29411.17
576.79	29703.74
576.95	29528.20
577.11	29776.30
577.27	30206.95
577.43	29881.62
577.59	29656.93
577.75	29652.25
577.92	29483.73
578.08	29785.66
578.24	29937.79
578.40	29778.64
578.56	29956.52
578.72	29970.56
578.88	29790.34
579.04	29795.02
579.21	29813.74
579.37	29783.32
579.53	29788.00
579.69	29474.37
579.85	29839.49
580.01	29701.40
580.17	29823.11
580.33	29764.59
580.49	29937.79
580.65	29764.59
580.82	29647.57
580.98	29912.05
581.14	29469.69
581.30	29846.51
581.46	30092.27
581.62	29944.81
581.78	29638.20
581.94	29745.87
582.10	29249.67
582.26	29839.49
582.42	29769.27
582.58	29919.07
582.74	29883.96
582.90	29743.53
583.06	29905.02
583.22	29582.03
583.38	29689.70
583.54	29479.05
583.70	30043.12
583.86	29919.07
584.02	29525.86
584.18	30096.95
584.34	29802.04
584.50	29715.44
584.66	30057.16
584.82	29455.64
584.98	30085.25
585.14	29663.95
585.30	29635.86
585.46	30012.69
585.62	29841.83
585.78	29888.64
585.94	29530.54
586.10	29968.22
586.26	29729.48
586.42	30036.09
586.58	29947.15
586.74	29544.58
586.90	29708.42
587.06	29755.23
587.22	30127.38
587.38	29890.98
587.54	29851.19
587.70	30260.79
587.86	29806.72
588.02	29809.06
588.18	30363.77
588.34	29727.14
588.49	29773.95
588.65	29518.84
588.81	29797.36
588.97	29855.87
589.13	29621.82
589.29	30045.46
589.45	30141.42
589.61	30309.94
589.77	30230.36
589.93	30501.86
590.08	30686.76
590.24	30277.17
590.40	30199.93
590.56	30230.36
590.72	30054.82
590.88	29921.41
591.04	30101.63
591.20	30036.09
591.35	30218.66
591.51	30506.54
591.67	30464.41
591.83	30595.48
591.99	30398.88
