SpectraSuite Data File
++++++++++++++++++++++++++++++++++++
Date: Fri Oct 18 13:58:18 GMT-05:00 2013
User: bianchi
Dark Spectrum Present: No
Reference Spectrum Present: No
Number of Sampled Component Spectra: 1
Spectrometers: USB2+H05261
Integration Time (usec): 50000 (USB2+H05261)
Spectra Averaged: 1 (USB2+H05261)
Boxcar Smoothing: 0 (USB2+H05261)
Correct for Electrical Dark: No (USB2+H05261)
Strobe/Lamp Enabled: No (USB2+H05261)
Correct for Detector Non-linearity: No (USB2+H05261)
Correct for Stray Light: No (USB2+H05261)
Number of Pixels in Processed Spectrum: 2048
>>>>>Begin Processed Spectral Data<<<<<
365.73	0.00
365.92	0.00
366.12	0.00
366.32	0.00
366.52	0.00
366.72	0.00
366.91	0.00
367.11	0.00
367.31	0.00
367.51	0.00
367.70	0.00
367.90	0.00
368.10	0.00
368.30	0.00
368.49	0.00
368.69	0.00
368.89	0.00
369.09	0.00
369.28	0.00
369.48	0.00
369.68	0.00
369.87	0.00
370.07	0.00
370.27	0.00
370.47	0.00
370.66	81.92
370.86	39.79
371.06	56.17
371.25	142.77
371.45	46.81
371.65	117.03
371.84	117.03
372.04	145.11
372.24	222.35
372.44	147.45
372.63	210.65
372.83	208.31
373.03	217.67
373.22	189.58
373.42	191.92
373.62	241.08
373.81	215.33
374.01	236.39
374.21	229.37
374.40	231.71
374.60	236.39
374.79	266.82
374.99	238.73
375.19	215.33
375.38	196.60
375.58	205.97
375.78	276.18
375.97	313.63
376.17	297.25
376.37	266.82
376.56	245.76
376.76	276.18
376.95	297.25
377.15	330.02
377.35	241.08
377.54	205.97
377.74	294.91
377.93	278.52
378.13	297.25
378.33	332.36
378.52	299.59
378.72	285.55
378.91	292.57
379.11	243.42
379.31	320.65
379.50	227.03
379.70	320.65
379.89	369.80
380.09	308.95
380.28	287.89
380.48	285.55
380.68	266.82
380.87	430.66
381.07	339.38
381.26	346.40
381.46	322.99
381.65	341.72
381.85	351.08
382.04	374.49
382.24	318.31
382.43	255.12
382.63	287.89
382.83	376.83
383.02	287.89
383.22	374.49
383.41	341.72
383.61	334.70
383.80	320.65
384.00	322.99
384.19	386.19
384.39	358.10
384.58	266.82
384.78	351.08
384.97	360.44
385.17	374.49
385.36	486.83
385.56	449.38
385.75	367.46
385.95	339.38
386.14	428.32
386.34	416.62
386.53	283.20
386.72	376.83
386.92	337.04
387.11	318.31
387.31	318.31
387.50	470.45
387.70	388.53
387.89	465.77
388.09	484.49
388.28	402.57
388.48	430.66
388.67	430.66
388.86	458.74
389.06	433.00
389.25	423.64
389.45	435.34
389.64	421.30
389.84	507.90
390.03	449.38
390.22	528.96
390.42	407.25
390.61	461.09
390.81	449.38
391.00	486.83
391.19	437.68
391.39	552.37
391.58	540.66
391.78	554.71
391.97	519.60
392.16	538.32
392.36	589.82
392.55	645.99
392.75	547.69
392.94	545.34
393.13	648.33
393.33	592.16
393.52	608.54
393.71	533.64
393.91	578.11
394.10	550.03
394.29	617.90
394.49	547.69
394.68	496.19
394.88	533.64
395.07	645.99
395.26	620.24
395.46	533.64
395.65	585.13
395.84	580.45
396.04	634.29
396.23	533.64
396.42	631.94
396.62	653.01
396.81	678.76
397.00	709.18
397.19	571.09
397.39	660.03
397.58	648.33
397.77	606.20
397.97	648.33
398.16	709.18
398.35	671.73
398.55	641.31
398.74	755.99
398.93	671.73
399.12	723.23
399.32	695.14
399.51	641.31
399.70	730.25
399.90	809.83
400.09	774.72
400.28	688.12
400.47	767.70
400.67	816.85
400.86	875.36
401.05	725.57
401.24	837.91
401.44	758.33
401.63	805.14
401.82	798.12
402.01	770.04
402.21	755.99
402.40	763.01
402.59	884.72
402.78	835.57
402.97	702.16
403.17	819.19
403.36	802.80
403.55	877.70
403.74	971.32
403.93	833.23
404.13	788.76
404.32	922.17
404.51	938.55
404.70	959.62
404.89	940.90
405.09	987.71
405.28	968.98
405.47	957.28
405.66	915.15
405.85	1013.45
406.05	961.96
406.24	1011.11
406.43	978.34
406.62	1015.79
406.81	1034.52
407.00	1006.43
407.20	990.05
407.39	1011.11
407.58	1057.92
407.77	1081.33
407.96	1022.81
408.15	1078.99
408.34	1142.18
408.54	1107.07
408.73	1022.81
408.92	1013.45
409.11	1231.12
409.30	1153.88
409.49	1139.84
409.68	1153.88
409.87	1205.38
410.07	1158.57
410.26	1125.80
410.45	1057.92
410.64	1156.22
410.83	1203.04
411.02	1151.54
411.21	1235.80
411.40	1174.95
411.59	1252.19
411.78	1170.27
411.98	1233.46
412.17	1191.33
412.36	1289.64
412.55	1348.15
412.74	1284.95
412.93	1394.96
413.12	1193.67
413.31	1439.43
413.50	1416.02
413.69	1434.75
413.88	1376.24
414.07	1397.30
414.26	1413.68
414.45	1439.43
414.64	1547.09
414.83	1476.88
415.02	1465.18
415.22	1636.03
415.41	1486.24
415.60	1535.39
415.79	1544.75
415.98	1575.18
416.17	1694.55
416.36	1528.37
416.55	1554.12
416.74	1699.23
416.93	1593.90
417.12	1713.27
417.31	1699.23
417.50	1673.48
417.69	1813.92
417.88	1715.61
418.07	1675.82
418.26	1736.68
418.45	1708.59
418.64	1687.53
418.83	1806.89
419.02	1734.34
419.21	1902.86
419.39	1774.13
419.58	1827.96
419.77	1736.68
419.96	1867.75
420.15	1849.02
420.34	1895.83
420.53	1872.43
420.72	1907.54
420.91	1935.62
421.10	1956.69
421.29	1933.28
421.48	1968.39
421.67	1998.82
421.86	1914.56
422.05	1935.62
422.24	1919.24
422.43	1949.67
422.61	1991.80
422.80	1994.14
422.99	2057.33
423.18	2033.93
423.37	2071.37
423.56	2033.93
423.75	2115.84
423.94	1996.48
424.13	1996.48
424.32	1907.54
424.50	2050.31
424.69	2038.61
424.88	2029.24
425.07	1912.22
425.26	1977.75
425.45	2062.01
425.64	1949.67
425.83	2162.66
426.01	2024.56
426.20	2083.08
426.39	2148.61
426.58	2104.14
426.77	2059.67
426.96	2181.38
427.15	2062.01
427.33	2258.62
427.52	2087.76
427.71	2101.80
427.90	2115.84
428.09	2069.03
428.28	2106.48
428.46	2172.02
428.65	2279.68
428.84	2249.25
429.03	2277.34
429.22	2073.71
429.40	2230.53
429.59	2235.21
429.78	2312.45
429.97	2026.90
430.16	2101.80
430.34	2331.17
430.53	2394.37
430.72	2305.43
430.91	2303.09
431.10	2331.17
431.28	2448.20
431.47	2300.75
431.66	2380.32
431.85	2359.26
432.03	2469.27
432.22	2593.31
432.41	2619.06
432.60	2476.29
432.79	2443.52
432.97	2452.88
433.16	2443.52
433.35	2544.16
433.54	2422.45
433.72	2455.22
433.91	2387.35
434.10	2375.64
434.28	2520.76
434.47	2541.82
434.66	2614.38
434.85	2555.86
435.03	2619.06
435.22	2504.37
435.41	2616.72
435.59	2616.72
435.78	2569.91
435.97	2719.70
436.16	2689.28
436.34	2654.17
436.53	2649.49
436.72	2808.64
436.90	2623.74
437.09	2750.13
437.28	2633.10
437.46	2764.17
437.65	2766.51
437.84	2686.94
438.02	2808.64
438.21	2867.16
438.40	2829.71
438.58	2876.52
438.77	2991.20
438.96	2801.62
439.14	2920.99
439.33	2888.22
439.52	3082.49
439.70	2967.80
439.89	3082.49
440.08	2904.60
440.26	3052.06
440.45	3117.59
440.63	3115.25
440.82	3075.46
441.01	3096.53
441.19	3136.32
441.38	3178.45
441.57	3164.40
441.75	3166.74
441.94	3255.69
442.12	3293.13
442.31	3332.92
442.50	3293.13
442.68	3419.52
442.87	3349.31
443.05	3337.60
443.24	3339.94
443.43	3300.16
443.61	3410.16
443.80	3527.19
443.98	3363.35
444.17	3187.81
444.35	3330.58
444.54	3419.52
444.73	3328.24
444.91	3501.44
445.10	3368.03
445.28	3372.71
445.47	3449.95
445.65	3410.16
445.84	3379.73
446.02	3466.33
446.21	3543.57
446.39	3478.04
446.58	3426.54
446.77	3428.88
446.95	3400.80
447.14	3571.66
447.32	3431.23
447.51	3419.52
447.69	3396.12
447.88	3492.08
448.06	3562.30
448.25	3440.59
448.43	3588.04
448.62	3543.57
448.80	3482.72
448.99	3595.06
449.17	3686.34
449.36	3471.01
449.54	3684.00
449.73	3604.42
449.91	3761.24
450.10	3700.39
450.28	3784.65
450.46	3602.08
450.65	3627.83
450.83	3740.18
451.02	3676.98
451.20	3838.48
451.39	3761.24
451.57	3768.26
451.76	3735.50
451.94	3861.88
452.13	4004.66
452.31	3733.15
452.49	3700.39
452.68	3836.14
452.86	3784.65
453.05	3822.09
453.23	3889.97
453.42	3941.46
453.60	3810.39
453.78	3969.55
453.97	3857.20
454.15	3882.95
454.34	3726.13
454.52	3974.23
454.70	4077.21
454.89	3995.29
455.07	3927.42
455.26	3995.29
455.44	4187.22
455.62	3894.65
455.81	4067.85
455.99	4102.96
456.17	4112.32
456.36	4128.70
456.54	4095.94
456.73	4224.67
456.91	4276.16
457.09	4383.82
457.28	4468.08
457.46	4351.06
457.64	4243.39
457.83	4337.01
458.01	4241.05
458.19	4447.02
458.38	4203.60
458.56	4393.19
458.74	4259.78
458.93	4311.27
459.11	4442.34
459.29	4208.28
459.48	4409.57
459.66	4610.86
459.84	4545.32
460.03	4486.81
460.21	4432.97
460.39	4564.04
460.57	4538.30
460.76	4587.45
460.94	4599.15
461.12	4575.75
461.31	4526.60
461.49	4617.88
461.67	4599.15
461.85	4695.11
462.04	4566.39
462.22	4828.53
462.40	4807.46
462.59	4734.90
462.77	4688.09
462.95	4725.54
463.13	4826.18
463.32	4854.27
463.50	4718.52
463.68	4826.18
463.86	4760.65
464.05	4812.14
464.23	4777.03
464.41	4849.59
464.59	4842.57
464.78	4990.02
464.96	4882.36
465.14	4762.99
465.32	5013.43
465.50	5025.13
465.69	5057.90
465.87	4968.96
466.05	4870.65
466.23	4922.15
466.41	4994.70
466.60	5224.08
466.78	5139.82
466.96	5093.01
467.14	5050.88
467.32	5062.58
467.51	5102.37
467.69	4926.83
467.87	5118.75
468.05	5177.26
468.23	5123.43
468.41	5184.29
468.60	5233.44
468.78	5411.32
468.96	5060.24
469.14	5254.50
469.32	5359.83
469.50	5207.69
469.69	5184.29
469.87	5341.10
470.05	5430.04
470.23	5416.00
470.41	5273.23
470.59	5406.64
470.77	5284.93
470.95	5397.28
471.14	5523.66
471.32	5537.71
471.50	5544.73
471.68	5612.60
471.86	5687.50
472.04	5767.08
472.22	5675.80
472.40	5432.38
472.58	5738.99
472.77	5544.73
472.95	5741.33
473.13	5795.17
473.31	5837.30
473.49	5940.28
473.67	5827.93
473.85	5973.05
474.03	6169.65
474.21	5902.83
474.39	6040.92
474.57	6017.52
474.75	6174.33
474.93	6146.25
475.12	6061.99
475.30	6005.81
475.48	6127.52
475.66	6272.64
475.84	6221.14
476.02	6452.86
476.20	6307.74
476.38	6403.71
476.56	6527.75
476.74	6457.54
476.92	6389.66
477.10	6539.46
477.28	6637.76
477.46	6583.93
477.64	6558.18
477.82	6946.71
478.00	6991.18
478.18	6799.26
478.36	6895.22
478.54	7037.99
478.72	7068.42
478.90	7314.17
479.08	7297.79
479.26	7265.02
479.44	7346.94
479.62	7190.13
479.80	7281.41
479.98	7410.14
480.16	7620.78
480.34	7449.93
480.52	7595.04
480.70	7616.10
480.88	7620.78
481.06	7583.34
481.24	7761.22
481.41	7782.28
481.59	7880.58
481.77	7981.23
481.95	7962.50
482.13	8102.93
482.31	8030.38
482.49	8154.43
482.67	8276.13
482.85	8383.80
483.03	8500.83
483.21	8348.69
483.39	8542.96
483.57	8456.36
483.74	8493.80
483.92	8751.26
484.10	8557.00
484.28	8781.69
484.46	9114.05
484.64	9315.33
484.82	8924.46
485.00	9233.41
485.18	9242.78
485.35	9385.55
485.53	9336.40
485.71	9294.27
485.89	9547.05
486.07	9624.28
486.25	9748.33
486.43	9619.60
486.61	9591.52
486.78	9848.97
486.96	9832.59
487.14	10080.69
487.32	10066.64
487.50	9877.06
487.68	10141.54
487.85	10270.27
488.03	10466.88
488.21	10534.75
488.39	10574.54
488.57	10731.36
488.75	10448.15
488.92	10551.14
489.10	10815.62
489.28	10881.15
489.46	11002.86
489.64	10991.16
489.81	11246.27
489.99	11129.25
490.17	11370.32
490.35	11353.94
490.53	11569.27
490.70	11564.59
490.88	11372.66
491.06	11580.97
491.24	11515.44
491.41	11630.12
491.59	11932.05
491.77	11782.26
491.95	12168.45
492.13	12280.79
492.30	12180.15
492.48	12233.98
492.66	12198.87
492.84	12458.67
493.01	12381.43
493.19	12475.06
493.37	12657.62
493.54	12793.37
493.72	12891.67
493.90	12800.39
494.08	13078.91
494.25	13177.22
494.43	13205.30
494.61	13303.60
494.79	13472.12
494.96	13305.95
495.14	13397.23
495.32	13507.23
495.49	13708.52
495.67	13600.85
495.85	13659.37
496.02	13741.29
496.20	13640.64
496.38	13898.10
496.55	13989.38
496.73	14382.59
496.91	13989.38
497.09	14265.57
497.26	14291.31
497.44	14136.84
497.62	14178.97
497.79	14455.15
497.97	14270.25
498.14	14719.63
498.32	14637.71
498.50	14534.73
498.67	14883.47
498.85	14867.08
499.03	14932.62
499.20	14665.80
499.38	14850.70
499.56	15222.84
499.73	15021.56
499.91	15541.16
500.08	15374.98
500.26	15272.00
500.44	14956.02
500.61	15351.57
500.79	15433.49
500.97	15662.86
501.14	16133.31
501.32	15644.14
501.49	15403.07
501.67	15728.40
501.84	15697.97
502.02	15894.58
502.20	16123.95
502.37	16013.95
502.55	16077.14
502.72	15894.58
502.90	16315.87
503.07	16180.12
503.25	16123.95
503.43	16362.69
503.60	16393.11
503.78	16606.10
503.95	16606.10
504.13	16613.12
504.30	16397.79
504.48	16407.16
504.65	16526.52
504.83	16856.54
505.01	17144.42
505.18	17064.85
505.36	17280.18
505.53	16903.35
505.71	17020.38
505.88	17048.46
506.06	16781.64
506.23	17106.98
506.41	17277.83
506.58	17352.73
506.76	17261.45
506.93	17448.69
507.11	17413.59
507.28	17207.62
507.46	17507.21
507.63	17675.73
507.81	17830.20
507.98	17509.55
508.16	17694.45
508.33	17525.93
508.50	17338.69
508.68	17806.80
508.85	18174.26
509.03	17799.77
509.20	18148.51
509.38	18059.57
509.55	18279.58
509.73	18391.93
509.90	18218.73
510.08	18420.02
510.25	18176.60
510.42	18260.86
510.60	18583.85
510.77	18630.66
510.95	18815.57
511.12	18670.45
511.30	18434.06
511.47	18410.65
511.64	19023.87
511.82	19021.53
511.99	18810.89
512.17	18967.70
512.34	19229.84
512.51	19037.92
512.69	19136.22
512.86	19166.65
513.04	19124.52
513.21	19007.49
513.38	19688.59
513.56	19435.81
513.73	19225.16
513.90	19557.52
514.08	19632.41
514.25	19681.56
514.43	19367.93
514.60	19742.42
514.77	19672.20
514.95	20198.82
515.12	19594.96
515.29	19552.84
515.47	19742.42
515.64	20093.50
515.81	19513.05
515.99	19878.17
516.16	20278.40
516.33	20173.08
516.51	20276.06
516.68	19962.43
516.85	20053.71
517.03	20336.91
517.20	20425.86
517.37	20208.19
517.54	20603.74
517.72	20510.11
517.89	20458.62
518.06	20688.00
518.24	20381.38
518.41	20528.84
518.58	20620.12
518.75	20575.65
518.93	20702.04
519.10	20585.01
519.27	20915.03
519.45	20610.76
519.62	21043.76
519.79	20795.66
519.96	20828.43
520.14	21226.32
520.31	21029.71
520.48	21362.07
520.65	20947.79
520.83	21432.29
521.00	21242.70
521.17	21270.79
521.34	21378.45
521.52	21338.66
521.69	21177.17
521.86	21486.12
522.03	21619.53
522.20	21727.19
522.38	21612.51
522.55	21783.37
522.72	21958.91
522.89	22324.03
523.07	21741.24
523.24	22010.40
523.41	21827.84
523.58	21991.67
523.75	22373.18
523.92	21881.67
524.10	22190.62
524.27	22593.19
524.44	22101.68
524.61	22160.19
524.78	22188.28
524.96	22338.07
525.13	22286.58
525.30	22541.70
525.47	22604.89
525.64	22628.30
525.81	22515.95
525.98	22494.89
526.16	22801.50
526.33	22506.59
526.50	22691.49
526.67	22328.71
526.84	22995.76
527.01	22675.11
527.18	22724.26
527.36	22740.64
527.53	23037.89
527.70	23129.17
527.87	22871.72
528.04	22925.55
528.21	23278.97
528.38	23056.62
528.55	23330.46
528.72	23332.80
528.89	23077.68
529.07	23211.09
529.24	23215.77
529.41	23484.94
529.58	23037.89
529.75	23618.35
529.92	23080.02
530.09	23590.26
530.26	23695.58
530.43	23527.06
530.60	23498.98
530.77	23782.18
530.94	23522.38
531.11	23821.97
531.28	23419.40
531.46	23740.05
531.63	24086.45
531.80	23922.62
531.97	23817.29
532.14	24112.20
532.31	24222.20
532.48	23786.86
532.65	24025.60
532.82	23756.44
532.99	23924.96
533.16	24009.22
533.33	24264.33
533.50	24570.94
533.67	24339.23
533.84	24065.39
534.01	24280.72
534.18	24283.06
534.35	24409.45
534.52	24364.98
534.69	24662.22
534.86	24683.29
535.03	24601.37
535.20	24489.03
535.37	24765.21
535.54	24570.94
535.71	24343.91
535.88	24386.04
536.05	25001.60
536.22	24964.15
536.38	24713.72
536.55	24694.99
536.72	24861.17
536.89	24968.84
537.06	24875.21
537.23	24968.84
537.40	25294.17
537.57	24957.13
537.74	25252.04
537.91	25788.02
538.08	25331.62
538.25	24900.96
538.42	25104.59
538.59	25331.62
538.75	25074.16
538.92	25193.53
539.09	25085.86
539.26	25123.31
539.43	25025.01
539.60	25270.76
539.77	25298.85
539.94	25914.41
540.11	25539.93
540.28	25158.42
540.44	25476.73
540.61	25270.76
540.78	25441.62
540.95	25476.73
541.12	25736.53
541.29	25631.21
541.46	25633.55
541.62	25703.76
541.79	25479.07
541.96	25469.71
542.13	25537.59
542.30	25666.31
542.47	26031.44
542.63	25989.31
542.80	25474.39
542.97	25991.65
543.14	26396.56
543.31	26003.35
543.48	26221.02
543.64	26068.89
543.81	26735.94
543.98	26410.60
544.15	26712.53
544.32	26558.06
544.48	26663.38
544.65	26354.43
544.82	26352.09
544.99	26139.10
545.16	26471.46
545.32	26380.18
545.49	26890.41
545.66	26632.96
545.83	26623.59
546.00	26916.16
546.16	26424.65
546.33	26347.41
546.50	26443.37
546.67	26838.92
546.83	26239.75
547.00	26948.93
547.17	26572.10
547.34	26890.41
547.50	26759.34
547.67	26939.57
547.84	26773.39
548.00	27152.55
548.17	26766.37
548.34	27150.21
548.51	27180.64
548.67	27180.64
548.84	27213.41
549.01	26965.31
549.18	27255.54
549.34	27105.74
549.51	27140.85
549.68	27145.53
549.84	27309.37
550.01	26981.70
550.18	27103.40
550.34	27824.29
550.51	27573.85
550.68	27337.46
550.84	27218.09
551.01	27391.29
551.18	27253.20
551.34	26981.70
551.51	27166.60
551.68	27126.81
551.84	27742.37
552.01	27377.25
552.18	27843.01
552.34	27576.19
552.51	27655.77
552.68	27590.24
552.84	27482.57
553.01	27693.22
553.18	27534.06
553.34	27730.67
553.51	27630.02
553.67	28161.33
553.84	28252.61
554.01	27899.19
554.17	28051.32
554.34	27784.50
554.51	27880.46
554.67	27997.49
554.84	27948.34
555.00	28374.31
555.17	27999.83
555.33	27990.47
555.50	28257.29
555.67	27861.74
555.83	27910.89
556.00	28173.03
556.16	28332.18
556.33	28254.95
556.50	28264.31
556.66	28528.79
556.83	28018.55
556.99	28210.48
557.16	28386.02
557.32	28158.99
557.49	28634.11
557.65	28215.16
557.82	27948.34
557.98	27927.27
558.15	28477.30
558.32	28371.97
558.48	28205.80
558.65	28596.67
558.81	28713.69
558.98	28439.85
559.14	28163.67
559.31	28599.01
559.47	28765.18
559.64	28608.37
559.80	28453.89
559.97	28744.12
560.13	28533.47
560.30	28453.89
560.46	28765.18
560.63	28709.01
560.79	28723.05
560.96	28599.01
561.12	28524.11
561.29	28287.71
561.45	28844.76
561.61	28535.81
561.78	28690.29
561.94	28945.41
562.11	29118.60
562.27	28636.45
562.44	28481.98
562.60	28730.08
562.77	28748.80
562.93	28577.94
563.10	29085.84
563.26	28793.27
563.42	29123.29
563.59	28713.69
563.75	28943.06
563.92	29034.35
564.08	28758.16
564.24	29006.26
564.41	28952.43
564.57	28627.09
564.74	28776.89
564.90	29088.18
565.07	29020.30
565.23	29268.40
565.39	29039.03
565.56	28863.49
565.72	28858.81
565.88	28912.64
566.05	28734.76
566.21	28861.15
566.38	29104.56
566.54	28999.24
566.70	29097.54
566.87	29436.92
567.03	29221.59
567.19	29261.38
567.36	29200.52
567.52	29319.89
567.68	29214.57
567.85	28914.98
568.01	29062.43
568.17	29244.99
568.34	29158.39
568.50	29708.42
568.66	29413.51
568.83	29551.60
568.99	28893.91
569.15	29406.49
569.32	29301.17
569.48	29125.63
569.64	29244.99
569.81	29507.13
569.97	29364.36
570.13	29528.20
570.30	29329.25
570.46	29095.20
570.62	29486.07
570.78	29516.50
570.95	29081.16
571.11	29605.44
571.27	29186.48
571.43	29104.56
571.60	29223.93
571.76	29221.59
571.92	29465.00
572.09	29874.60
572.25	29738.85
572.41	29497.77
572.57	29582.03
572.74	29633.52
572.90	29441.60
573.06	29481.39
573.22	29378.40
573.38	29301.17
573.55	29453.30
573.71	29937.79
573.87	29612.46
574.03	29570.33
574.20	29539.90
574.36	29472.03
574.52	29748.21
574.68	29263.72
574.84	29642.88
575.01	29619.48
575.17	29546.92
575.33	28926.68
575.49	29298.83
575.65	29439.26
575.82	29647.57
575.98	29612.46
576.14	29734.17
576.30	29392.45
576.46	29551.60
576.62	29287.12
576.79	29551.60
576.95	29371.38
577.11	29523.52
577.27	29724.80
577.43	29516.50
577.59	29364.36
577.75	29553.94
577.92	29577.35
578.08	29411.17
578.24	29860.55
578.40	29631.18
578.56	29890.98
578.72	29404.15
578.88	29799.70
579.04	29811.40
579.21	29525.86
579.37	29890.98
579.53	30073.54
579.69	29340.96
579.85	29986.94
580.01	29436.92
580.17	29619.48
580.33	29476.71
580.49	29670.97
580.65	29680.33
580.82	30036.09
580.98	29853.53
581.14	29654.59
581.30	29982.26
581.46	29425.22
581.62	29795.02
581.78	29429.90
581.94	29642.88
582.10	29586.71
582.26	29591.39
582.42	29823.11
582.58	29720.12
582.74	29582.03
582.90	29696.72
583.06	29727.14
583.22	29364.36
583.38	29706.08
583.54	29993.97
583.70	29366.70
583.86	29708.42
584.02	29830.13
584.18	30160.14
584.34	29652.25
584.50	29930.77
584.66	29778.64
584.82	29366.70
584.98	29869.92
585.14	29385.43
585.30	29750.55
585.46	29589.05
585.62	29743.53
585.78	29654.59
585.94	29708.42
586.10	29989.28
586.26	29759.91
586.42	30005.67
586.58	29965.88
586.74	29663.95
586.90	29612.46
587.06	29525.86
587.22	29666.29
587.38	29869.92
587.54	29893.32
587.70	30267.81
587.86	30089.93
588.02	30082.91
588.18	30073.54
588.34	30148.44
588.49	30103.97
588.65	29996.31
588.81	30024.39
588.97	30096.95
589.13	29797.36
589.29	29809.06
589.45	29841.83
589.61	30073.54
589.77	30099.29
589.93	30354.41
590.08	30206.95
590.24	30089.93
590.40	30050.14
590.56	30340.36
590.72	30094.61
590.88	29961.20
591.04	29876.94
591.20	30424.62
591.35	30300.58
591.51	30284.19
591.67	30508.88
591.83	30426.96
591.99	30424.62
