SpectraSuite Data File
++++++++++++++++++++++++++++++++++++
Date: Fri Oct 18 13:58:35 GMT-05:00 2013
User: bianchi
Dark Spectrum Present: No
Reference Spectrum Present: No
Number of Sampled Component Spectra: 1
Spectrometers: USB2+H05261
Integration Time (usec): 50000 (USB2+H05261)
Spectra Averaged: 1 (USB2+H05261)
Boxcar Smoothing: 0 (USB2+H05261)
Correct for Electrical Dark: No (USB2+H05261)
Strobe/Lamp Enabled: No (USB2+H05261)
Correct for Detector Non-linearity: No (USB2+H05261)
Correct for Stray Light: No (USB2+H05261)
Number of Pixels in Processed Spectrum: 2048
>>>>>Begin Processed Spectral Data<<<<<
365.73	0.00
365.92	0.00
366.12	0.00
366.32	0.00
366.52	0.00
366.72	0.00
366.91	0.00
367.11	0.00
367.31	0.00
367.51	0.00
367.70	0.00
367.90	0.00
368.10	0.00
368.30	0.00
368.49	0.00
368.69	0.00
368.89	0.00
369.09	0.00
369.28	0.00
369.48	0.00
369.68	0.00
369.87	0.00
370.07	0.00
370.27	0.00
370.47	0.00
370.66	65.54
370.86	63.19
371.06	112.35
371.25	166.18
371.45	93.62
371.65	217.67
371.84	168.52
372.04	170.86
372.24	196.60
372.44	119.37
372.63	259.80
372.83	217.67
373.03	243.42
373.22	168.52
373.42	119.37
373.62	124.05
373.81	285.55
374.01	238.73
374.21	210.65
374.40	241.08
374.60	229.37
374.79	271.50
374.99	287.89
375.19	215.33
375.38	287.89
375.58	271.50
375.78	255.12
375.97	212.99
376.17	351.08
376.37	236.39
376.56	306.61
376.76	212.99
376.95	180.22
377.15	238.73
377.35	198.95
377.54	245.76
377.74	351.08
377.93	306.61
378.13	266.82
378.33	315.97
378.52	299.59
378.72	322.99
378.91	334.70
379.11	327.68
379.31	276.18
379.50	292.57
379.70	369.80
379.89	353.42
380.09	252.78
380.28	234.05
380.48	348.74
380.68	273.84
380.87	250.44
381.07	360.44
381.26	325.33
381.46	362.78
381.65	285.55
381.85	388.53
382.04	262.14
382.24	372.15
382.43	348.74
382.63	297.25
382.83	372.15
383.02	358.10
383.22	362.78
383.41	337.04
383.61	386.19
383.80	346.40
384.00	360.44
384.19	351.08
384.39	400.23
384.58	418.96
384.78	353.42
384.97	416.62
385.17	358.10
385.36	358.10
385.56	421.30
385.75	358.10
385.95	362.78
386.14	381.51
386.34	430.66
386.53	423.64
386.72	388.53
386.92	477.47
387.11	482.15
387.31	407.25
387.50	423.64
387.70	449.38
387.89	400.23
388.09	411.93
388.28	376.83
388.48	379.17
388.67	365.12
388.86	470.45
389.06	491.51
389.25	465.77
389.45	526.62
389.64	437.68
389.84	454.06
390.03	444.70
390.22	442.36
390.42	521.94
390.61	491.51
390.81	521.94
391.00	470.45
391.19	456.40
391.39	587.47
391.58	484.49
391.78	512.58
391.97	547.69
392.16	470.45
392.36	505.56
392.55	505.56
392.75	505.56
392.94	613.22
393.13	526.62
393.33	580.45
393.52	580.45
393.71	606.20
393.91	498.53
394.10	566.41
394.29	521.94
394.49	521.94
394.68	585.13
394.88	557.05
395.07	615.56
395.26	587.47
395.46	606.20
395.65	688.12
395.84	664.71
396.04	685.78
396.23	594.50
396.42	653.01
396.62	641.31
396.81	732.59
397.00	610.88
397.19	671.73
397.39	636.63
397.58	676.41
397.77	688.12
397.97	638.97
398.16	758.33
398.35	753.65
398.55	681.10
398.74	645.99
398.93	800.46
399.12	664.71
399.32	631.94
399.51	763.01
399.70	800.46
399.90	702.16
400.09	765.36
400.28	786.42
400.47	744.29
400.67	655.35
400.86	786.42
401.05	767.70
401.24	835.57
401.44	786.42
401.63	786.42
401.82	828.55
402.01	837.91
402.21	933.87
402.40	870.68
402.59	894.08
402.78	887.06
402.97	856.64
403.17	812.17
403.36	777.06
403.55	912.81
403.74	898.77
403.93	882.38
404.13	938.55
404.32	964.30
404.51	905.79
404.70	919.83
404.89	891.74
405.09	985.37
405.28	889.40
405.47	929.19
405.66	997.07
405.85	980.68
406.05	961.96
406.24	1020.47
406.43	983.02
406.62	1034.52
406.81	987.71
407.00	901.11
407.20	992.39
407.39	987.71
407.58	1053.24
407.77	1043.88
407.96	1069.62
408.15	1086.01
408.34	1151.54
408.54	1078.99
408.73	1130.48
408.92	1128.14
409.11	1191.33
409.30	1104.73
409.49	1144.52
409.68	1107.07
409.87	1170.27
410.07	1174.95
410.26	1217.08
410.45	1238.14
410.64	1240.48
410.83	1261.55
411.02	1240.48
411.21	1240.48
411.40	1151.54
411.59	1303.68
411.78	1306.02
411.98	1296.66
412.17	1275.59
412.36	1306.02
412.55	1350.49
412.74	1273.25
412.93	1336.45
413.12	1343.47
413.31	1387.94
413.50	1324.74
413.69	1390.28
413.88	1378.58
414.07	1441.77
414.26	1418.36
414.45	1380.92
414.64	1404.32
414.83	1409.00
415.02	1493.26
415.22	1511.99
415.41	1497.94
415.60	1577.52
415.79	1666.46
415.98	1654.76
416.17	1568.16
416.36	1664.12
416.55	1617.31
416.74	1753.06
416.93	1645.40
417.12	1715.61
417.31	1762.42
417.50	1858.39
417.69	1788.17
417.88	1762.42
418.07	1790.51
418.26	1781.15
418.45	1692.21
418.64	1900.52
418.83	1886.47
419.02	1853.70
419.21	1837.32
419.39	1804.55
419.58	1799.87
419.77	1820.94
419.96	1870.09
420.15	1916.90
420.34	1926.26
420.53	1881.79
420.72	1947.33
420.91	1858.39
421.10	1956.69
421.29	1877.11
421.48	1937.96
421.67	1952.01
421.86	1893.49
422.05	1998.82
422.24	2090.10
422.43	1989.46
422.61	1963.71
422.80	2036.27
422.99	2059.67
423.18	2073.71
423.37	1961.37
423.56	1975.41
423.75	2062.01
423.94	2050.31
424.13	1989.46
424.32	1905.20
424.50	2019.88
424.69	2129.89
424.88	2052.65
425.07	1996.48
425.26	2073.71
425.45	2019.88
425.64	2078.40
425.83	1989.46
426.01	2141.59
426.20	2022.22
426.39	2083.08
426.58	2122.87
426.77	2167.34
426.96	2087.76
427.15	2066.69
427.33	2069.03
427.52	2193.08
427.71	2195.42
427.90	2179.04
428.09	2120.53
428.28	2094.78
428.46	2162.66
428.65	2223.51
428.84	2221.17
429.03	2277.34
429.22	2267.98
429.40	2267.98
429.59	2298.41
429.78	2165.00
429.97	2148.61
430.16	2190.74
430.34	2324.15
430.53	2331.17
430.72	2431.82
430.91	2317.13
431.10	2291.38
431.28	2408.41
431.47	2396.71
431.66	2392.03
431.85	2415.43
432.03	2326.49
432.22	2590.97
432.41	2495.01
432.60	2478.63
432.79	2338.20
432.97	2436.50
433.16	2406.07
433.35	2448.20
433.54	2581.61
433.72	2562.89
433.91	2506.71
434.10	2478.63
434.28	2544.16
434.47	2609.70
434.66	2621.40
434.85	2731.41
435.03	2532.46
435.22	2546.50
435.41	2658.85
435.59	2602.68
435.78	2583.95
435.97	2602.68
436.16	2684.59
436.34	2651.83
436.53	2637.78
436.72	2892.90
436.90	2647.15
437.09	2719.70
437.28	2698.64
437.46	2766.51
437.65	2698.64
437.84	2766.51
438.02	2796.94
438.21	2841.41
438.40	2787.58
438.58	2883.54
438.77	2860.13
438.96	2836.73
439.14	2949.08
439.33	2986.52
439.52	3040.36
439.70	2874.18
439.89	3061.42
440.08	3066.10
440.26	3124.62
440.45	3096.53
440.63	3077.80
440.82	3248.66
441.01	3115.25
441.19	3236.96
441.38	3265.05
441.57	3199.51
441.75	3330.58
441.94	3372.71
442.12	3272.07
442.31	3344.63
442.50	3255.69
442.68	3344.63
442.87	3351.65
443.05	3213.56
443.24	3311.86
443.43	3178.45
443.61	3463.99
443.80	3361.01
443.98	3358.67
444.17	3396.12
444.35	3412.50
444.54	3569.32
444.73	3311.86
444.91	3449.95
445.10	3363.35
445.28	3410.16
445.47	3447.61
445.65	3496.76
445.84	3531.87
446.02	3438.25
446.21	3471.01
446.39	3463.99
446.58	3475.70
446.77	3503.78
446.95	3389.10
447.14	3499.10
447.32	3524.85
447.51	3541.23
447.69	3562.30
447.88	3618.47
448.06	3536.55
448.25	3653.58
448.43	3569.32
448.62	3674.64
448.80	3508.46
448.99	3730.81
449.17	3564.64
449.36	3545.91
449.54	3623.15
449.73	3761.24
449.91	3679.32
450.10	3833.80
450.28	3925.08
450.46	3791.67
450.65	3768.26
450.83	3782.31
451.02	3700.39
451.20	3801.03
451.39	3889.97
451.57	3873.59
451.76	3761.24
451.94	3929.76
452.13	3936.78
452.31	3812.73
452.49	3789.33
452.68	3906.35
452.86	3964.87
453.05	3962.53
453.23	3920.40
453.42	3875.93
453.60	3873.59
453.78	3941.46
453.97	3824.44
454.15	4018.70
454.34	3943.80
454.52	4056.15
454.70	3967.21
454.89	3995.29
455.07	4140.41
455.26	4280.84
455.44	4184.88
455.62	4117.00
455.81	4102.96
455.99	4154.45
456.17	4196.58
456.36	4187.22
456.54	4227.01
456.73	4351.06
456.91	4292.54
457.09	4355.74
457.28	4372.12
457.46	4362.76
457.64	4327.65
457.83	4489.15
458.01	4301.90
458.19	4428.29
458.38	4271.48
458.56	4484.47
458.74	4442.34
458.93	4318.29
459.11	4372.12
459.29	4486.81
459.48	4542.98
459.66	4514.89
459.84	4503.19
460.03	4655.33
460.21	4636.60
460.39	4500.85
460.57	4421.27
460.76	4535.96
460.94	4755.97
461.12	4695.11
461.31	4585.11
461.49	4636.60
461.67	4566.39
461.85	4837.89
462.04	4690.43
462.22	4821.50
462.40	4793.42
462.59	4755.97
462.77	4709.16
462.95	4863.63
463.13	4828.53
463.32	4854.27
463.50	4861.29
463.68	4823.84
463.86	4919.81
464.05	4798.10
464.23	4760.65
464.41	4975.98
464.59	4865.97
464.78	4901.08
464.96	4936.19
465.14	4908.10
465.32	4898.74
465.50	5149.18
465.69	5118.75
465.87	4971.30
466.05	5158.54
466.23	4950.23
466.41	5032.15
466.60	5245.14
466.78	5109.39
466.96	5022.79
467.14	5004.07
467.32	5242.80
467.51	5121.09
467.69	5142.16
467.87	4985.34
468.05	5195.99
468.23	5022.79
468.41	5219.39
468.60	5238.12
468.78	5104.71
468.96	5212.37
469.14	5242.80
469.32	5369.19
469.50	5219.39
469.69	5341.10
469.87	5327.06
470.05	5460.47
470.23	5481.53
470.41	5467.49
470.59	5659.42
470.77	5458.13
470.95	5575.16
471.14	5673.46
471.32	5462.81
471.50	5748.36
471.68	5769.42
471.86	5561.11
472.04	5584.52
472.22	5762.40
472.40	5724.95
472.58	5694.52
472.77	5858.36
472.95	5809.21
473.13	6001.13
473.31	5959.00
473.49	5727.29
473.67	5790.49
473.85	5849.00
474.03	6047.94
474.21	6141.57
474.39	6087.73
474.57	6111.14
474.75	6258.59
474.93	6179.01
475.12	6218.80
475.30	6218.80
475.48	6249.23
475.66	6349.87
475.84	6282.00
476.02	6438.81
476.20	6366.26
476.38	6483.28
476.56	6729.04
476.74	6523.07
476.92	6420.09
477.10	6539.46
477.28	6633.08
477.46	6726.70
477.64	6813.30
477.82	6857.77
478.00	6988.84
478.18	6913.94
478.36	7087.14
478.54	7068.42
478.72	7176.08
478.90	7155.02
479.08	7211.19
479.26	7140.97
479.44	7400.77
479.62	7325.88
479.80	7382.05
479.98	7501.42
480.16	7620.78
480.34	7555.25
480.52	7461.63
480.70	7482.69
480.88	7667.60
481.06	7503.76
481.24	7569.29
481.41	7602.06
481.59	7925.05
481.77	7936.76
481.95	8109.96
482.13	8121.66
482.31	8147.40
482.49	8287.84
482.67	8315.92
482.85	8409.54
483.03	8383.80
483.21	8601.47
483.39	8706.79
483.57	8657.64
483.74	8599.13
483.92	8601.47
484.10	8795.73
484.28	9013.40
484.46	9090.64
484.64	8943.19
484.82	9153.84
485.00	9083.62
485.18	9310.65
485.35	9404.27
485.53	9338.74
485.71	9430.02
485.89	9619.60
486.07	9516.62
486.25	9263.84
486.43	9488.53
486.61	9872.38
486.78	9980.04
486.96	9853.66
487.14	10106.43
487.32	10188.35
487.50	10167.29
487.68	10157.92
487.85	10441.13
488.03	10696.25
488.21	10494.96
488.39	10511.35
488.57	11028.60
488.75	10616.67
488.92	10836.68
489.10	10843.70
489.28	10949.03
489.46	11077.76
489.64	11101.16
489.81	11379.68
489.99	11243.93
490.17	11337.56
490.35	11456.92
490.53	11669.91
490.70	11644.17
490.88	11831.41
491.06	11630.12
491.24	11602.04
491.41	11899.28
491.59	11779.92
491.77	11817.36
491.95	12210.57
492.13	12332.28
492.30	12112.27
492.48	12374.41
492.66	12449.31
492.84	12507.82
493.01	12547.61
493.19	12926.78
493.37	12723.15
493.54	12849.54
493.72	12926.78
493.90	12784.01
494.08	13188.92
494.25	13144.45
494.43	13219.35
494.61	13369.14
494.79	13324.67
494.96	13422.97
495.14	13483.83
495.32	13848.95
495.49	13628.94
495.67	13647.66
495.85	13830.23
496.02	13820.86
496.20	13998.74
496.38	13865.33
496.55	13940.23
496.73	14129.81
496.91	13944.91
497.09	14242.16
497.26	14487.92
497.44	14431.74
497.62	14398.98
497.79	14773.46
497.97	14494.94
498.14	14534.73
498.32	14853.04
498.50	14843.68
498.67	15005.17
498.85	15171.35
499.03	15080.07
499.20	14974.75
499.38	15117.52
499.56	15349.23
499.73	15447.54
499.91	15257.95
500.08	15536.48
500.26	15204.12
500.44	15541.16
500.61	15400.72
500.79	15522.43
500.97	15796.28
501.14	15997.56
501.32	15822.02
501.49	15936.71
501.67	16020.97
501.84	16011.60
502.02	16137.99
502.20	16198.85
502.37	16496.10
502.55	16350.98
502.72	16140.33
502.90	16035.01
503.07	16222.25
503.25	16329.92
503.43	16451.63
503.60	16620.14
503.78	16599.08
503.95	16699.72
504.13	16723.13
504.30	16636.53
504.48	16652.91
504.65	16915.05
504.83	17034.42
505.01	17308.26
505.18	17235.70
505.36	17263.79
505.53	17029.74
505.71	16746.53
505.88	17345.71
506.06	16978.25
506.23	17331.67
506.41	17139.74
506.58	17518.91
506.76	17783.39
506.93	17724.88
507.11	17341.03
507.28	17624.23
507.46	17724.88
507.63	17689.77
507.81	17851.27
507.98	17586.79
508.16	18029.15
508.33	17841.90
508.50	17804.46
508.68	18164.90
508.85	18040.85
509.03	18043.19
509.20	18354.48
509.38	18597.90
509.55	18253.84
509.73	18487.89
509.90	18267.88
510.08	18267.88
510.25	18310.01
510.42	18656.41
510.60	18778.12
510.77	18892.80
510.95	18752.37
511.12	18656.41
511.30	18771.10
511.47	18684.50
511.64	19103.45
511.82	18984.09
511.99	19318.78
512.17	19051.96
512.34	18857.70
512.51	19206.44
512.69	19131.54
512.86	19250.91
513.04	19522.41
513.21	19555.18
513.38	19396.02
513.56	19679.22
513.73	19569.22
513.90	19714.33
514.08	19744.76
514.25	19939.02
514.43	19749.44
514.60	19969.45
514.77	19964.77
514.95	19681.56
515.12	20006.90
515.29	20037.33
515.47	20046.69
515.64	20067.75
515.81	20002.22
515.99	20482.03
516.16	20533.52
516.33	20315.85
516.51	20482.03
516.68	20357.98
516.85	20290.10
517.03	20638.84
517.20	20177.76
517.37	20463.30
517.54	20987.58
517.72	20823.75
517.89	20713.74
518.06	20383.73
518.24	20751.19
518.41	20573.31
518.58	20781.62
518.75	20924.39
518.93	20819.07
519.10	20767.57
519.27	21289.51
519.45	21301.22
519.62	21373.77
519.79	21275.47
519.96	21181.85
520.14	21195.89
520.31	21078.86
520.48	21312.92
520.65	21092.91
520.83	21427.60
521.00	21701.45
521.17	21558.67
521.34	21418.24
521.52	21640.59
521.69	21741.24
521.86	21865.28
522.03	21914.44
522.20	21944.86
522.38	21921.46
522.55	21762.30
522.72	21956.57
522.89	21867.63
523.07	22427.01
523.24	22225.73
523.41	22642.34
523.58	21905.07
523.75	22190.62
523.92	22181.26
524.10	21930.82
524.27	22607.23
524.44	22649.36
524.61	22508.93
524.78	22504.25
524.96	22497.23
525.13	22600.21
525.30	22333.39
525.47	22478.50
525.64	23147.90
525.81	22700.86
525.98	22979.38
526.16	22600.21
526.33	23016.83
526.50	23056.62
526.67	22588.51
526.84	22937.25
527.01	22883.42
527.18	23019.17
527.36	22948.95
527.53	22986.40
527.70	23660.48
527.87	23414.72
528.04	23445.15
528.21	23073.00
528.38	23262.58
528.55	23501.32
528.72	23810.27
528.89	23529.41
529.07	23374.93
529.24	23770.48
529.41	23503.66
529.58	23552.81
529.75	23370.25
529.92	23908.57
530.09	23618.35
530.26	23730.69
530.43	23688.56
530.60	24137.94
530.77	23456.85
530.94	24016.24
531.11	23569.19
531.28	23608.98
531.46	23889.85
531.63	23814.95
531.80	24121.56
531.97	23922.62
532.14	24224.54
532.31	24222.20
532.48	24226.89
532.65	24084.11
532.82	24049.00
532.99	24231.57
533.16	24709.04
533.33	24467.96
533.50	24638.82
533.67	24741.80
533.84	24568.60
534.01	24367.32
534.18	24271.36
534.35	24702.01
534.52	24306.46
534.69	24978.20
534.86	24954.79
535.03	24812.02
535.20	24797.98
535.37	24877.55
535.54	25071.82
535.71	24830.74
535.88	24671.59
536.05	24788.61
536.22	24957.13
536.38	24758.19
536.55	25207.57
536.72	25465.03
536.89	24924.36
537.06	25041.39
537.23	25219.27
537.40	25270.76
537.57	25083.52
537.74	25369.07
537.91	25301.19
538.08	25376.09
538.25	25226.29
538.42	25415.88
538.59	25312.89
538.75	25172.46
538.92	25247.36
539.09	25570.35
539.26	25666.31
539.43	25312.89
539.60	25614.82
539.77	25570.35
539.94	25488.43
540.11	25614.82
540.28	25638.23
540.44	25226.29
540.61	25390.13
540.78	25685.04
540.95	26129.74
541.12	25743.55
541.29	26073.57
541.46	25949.52
541.62	25717.81
541.79	25645.25
541.96	25610.14
542.13	25860.58
542.30	26045.48
542.47	26143.78
542.63	26171.87
542.80	26195.28
542.97	26403.58
543.14	26607.21
543.31	26745.30
543.48	26536.99
543.64	26375.50
543.81	26808.50
543.98	26548.70
544.15	26899.78
544.32	26878.71
544.48	26665.72
544.65	26593.17
544.82	26525.29
544.99	26391.88
545.16	26855.31
545.32	26536.99
545.49	27115.11
545.66	26632.96
545.83	27101.06
546.00	26993.40
546.16	26951.27
546.33	26852.97
546.50	26300.60
546.67	27072.98
546.83	26714.87
547.00	27410.01
547.17	27026.17
547.34	26951.27
547.50	27058.93
547.67	27604.28
547.84	27150.21
548.00	27571.51
548.17	27197.02
548.34	27288.31
548.51	27782.16
548.67	27515.34
548.84	27246.18
549.01	27466.19
549.18	27042.55
549.34	27138.51
549.51	27220.43
549.68	27442.78
549.84	27342.14
550.01	27131.49
550.18	27630.02
550.34	27566.83
550.51	27868.76
550.68	27819.61
550.84	27157.24
551.01	27704.92
551.18	27655.77
551.34	27686.20
551.51	27744.71
551.68	27304.69
551.84	28135.58
552.01	27854.72
552.18	28329.84
552.34	27758.75
552.51	27950.68
552.68	28163.67
552.84	27861.74
553.01	27948.34
553.18	27915.57
553.34	28056.00
553.51	28034.94
553.67	28137.92
553.84	28308.78
554.01	27978.76
554.17	28046.64
554.34	28107.49
554.51	28091.11
554.67	28369.63
554.84	28121.54
555.00	28467.94
555.17	27969.40
555.33	28341.55
555.50	28430.49
555.67	28107.49
555.83	28058.34
556.00	28254.95
556.16	28643.48
556.33	28493.68
556.50	28287.71
556.66	28811.99
556.83	28264.31
556.99	28601.35
557.16	28701.99
557.32	28280.69
557.49	28676.24
557.65	28409.42
557.82	28315.80
557.98	28489.00
558.15	28669.22
558.32	28725.39
558.48	28786.25
558.65	28844.76
558.81	28535.81
558.98	28706.67
559.14	28802.63
559.31	28704.33
559.47	28610.71
559.64	28615.39
559.80	28793.27
559.97	28966.47
560.13	28802.63
560.30	28872.85
560.46	28692.63
560.63	29013.28
560.79	28748.80
560.96	29207.55
561.12	28741.78
561.29	28577.94
561.45	28952.43
561.61	28858.81
561.78	29303.51
561.94	29179.46
562.11	29380.74
562.27	29366.70
562.44	29017.96
562.60	28833.06
562.77	28823.70
562.93	29062.43
563.10	29202.86
563.26	28959.45
563.42	29090.52
563.59	28945.41
563.75	29076.48
563.92	29034.35
564.08	29099.88
564.24	29214.57
564.41	28992.22
564.57	28978.17
564.74	29287.12
564.90	29254.36
565.07	29359.68
565.23	29680.33
565.39	29111.58
565.56	29146.69
565.72	29240.31
565.88	29495.43
566.05	29355.00
566.21	29223.93
566.38	28900.94
566.54	29567.99
566.70	29607.78
566.87	29591.39
567.03	29102.22
567.19	29511.81
567.36	29551.60
567.52	29254.36
567.68	29462.66
567.85	29397.13
568.01	29666.29
568.17	29720.12
568.34	29865.24
568.50	29385.43
568.66	29357.34
568.83	29596.07
568.99	29467.34
569.15	29549.26
569.32	29195.84
569.48	29371.38
569.64	29806.72
569.81	29654.59
569.97	29488.41
570.13	29408.83
570.30	29553.94
570.46	29635.86
570.62	29221.59
570.78	29315.21
570.95	29305.85
571.11	29551.60
571.27	28842.42
571.43	29301.17
571.60	29825.45
571.76	29467.34
571.92	30089.93
572.09	29663.95
572.25	29584.37
572.41	29855.87
572.57	29937.79
572.74	29759.91
572.90	29394.79
573.06	29706.08
573.22	29783.32
573.38	29961.20
573.55	29607.78
573.71	30122.69
573.87	29685.01
574.03	29979.92
574.20	29926.09
574.36	29500.11
574.52	29462.66
574.68	29675.65
574.84	29509.47
575.01	29296.49
575.17	29776.30
575.33	29846.51
575.49	29504.79
575.65	29654.59
575.82	29797.36
575.98	29834.81
576.14	29914.39
576.30	29729.48
576.46	29792.68
576.62	29663.95
576.79	29624.16
576.95	29687.36
577.11	29977.58
577.27	29855.87
577.43	29905.02
577.59	29635.86
577.75	29912.05
577.92	29731.83
578.08	29724.80
578.24	29759.91
578.40	30045.46
578.56	29750.55
578.72	30092.27
578.88	30188.23
579.04	29951.84
579.21	29933.11
579.37	30174.19
579.53	30277.17
579.69	29834.81
579.85	29888.64
580.01	29935.45
580.17	29837.15
580.33	29881.62
580.49	30300.58
580.65	30052.48
580.82	30338.02
580.98	29914.39
581.14	29809.06
581.30	30333.34
581.46	30438.67
581.62	29731.83
581.78	30008.01
581.94	29654.59
582.10	29827.79
582.26	29916.73
582.42	30089.93
582.58	30022.05
582.74	30244.40
582.90	30047.80
583.06	30073.54
583.22	30115.67
583.38	29986.94
583.54	29696.72
583.70	30106.31
583.86	29916.73
584.02	29769.27
584.18	30312.28
584.34	30213.98
584.50	30000.99
584.66	29846.51
584.82	29883.96
584.98	29926.09
585.14	30197.59
585.30	29795.02
585.46	30122.69
585.62	30295.89
585.78	30026.73
585.94	30082.91
586.10	30288.87
586.26	30221.00
586.42	30253.76
586.58	30258.45
586.74	30225.68
586.90	29755.23
587.06	29575.01
587.22	30026.73
587.38	29963.54
587.54	30462.07
587.70	30738.26
587.86	30052.48
588.02	29933.11
588.18	29851.19
588.34	30249.08
588.49	30242.06
588.65	29935.45
588.81	30169.51
588.97	29954.18
589.13	30349.73
589.29	30281.85
589.45	30157.80
589.61	30302.92
589.77	30616.55
589.93	29975.24
590.08	30665.70
590.24	30806.13
590.40	30260.79
590.56	30281.85
590.72	30373.13
590.88	30279.51
591.04	30099.29
591.20	30555.69
591.35	30497.18
591.51	30719.53
591.67	30646.97
591.83	30696.13
591.99	30778.04
