SpectraSuite Data File
++++++++++++++++++++++++++++++++++++
Date: Fri Oct 18 13:58:20 GMT-05:00 2013
User: bianchi
Dark Spectrum Present: No
Reference Spectrum Present: No
Number of Sampled Component Spectra: 1
Spectrometers: USB2+H05261
Integration Time (usec): 50000 (USB2+H05261)
Spectra Averaged: 1 (USB2+H05261)
Boxcar Smoothing: 0 (USB2+H05261)
Correct for Electrical Dark: No (USB2+H05261)
Strobe/Lamp Enabled: No (USB2+H05261)
Correct for Detector Non-linearity: No (USB2+H05261)
Correct for Stray Light: No (USB2+H05261)
Number of Pixels in Processed Spectrum: 2048
>>>>>Begin Processed Spectral Data<<<<<
365.73	0.00
365.92	0.00
366.12	0.00
366.32	0.00
366.52	0.00
366.72	0.00
366.91	0.00
367.11	0.00
367.31	0.00
367.51	0.00
367.70	0.00
367.90	0.00
368.10	0.00
368.30	0.00
368.49	0.00
368.69	0.00
368.89	0.00
369.09	0.00
369.28	0.00
369.48	0.00
369.68	0.00
369.87	0.00
370.07	0.00
370.27	0.00
370.47	0.00
370.66	37.45
370.86	107.66
371.06	184.90
371.25	110.01
371.45	88.94
371.65	138.09
371.84	189.58
372.04	170.86
372.24	177.88
372.44	147.45
372.63	180.22
372.83	184.90
373.03	241.08
373.22	266.82
373.42	224.69
373.62	203.63
373.81	327.68
374.01	142.77
374.21	337.04
374.40	147.45
374.60	201.29
374.79	259.80
374.99	271.50
375.19	231.71
375.38	241.08
375.58	238.73
375.78	301.93
375.97	210.65
376.17	217.67
376.37	266.82
376.56	248.10
376.76	222.35
376.95	236.39
377.15	273.84
377.35	271.50
377.54	308.95
377.74	215.33
377.93	238.73
378.13	177.88
378.33	306.61
378.52	283.20
378.72	264.48
378.91	315.97
379.11	264.48
379.31	259.80
379.50	297.25
379.70	243.42
379.89	315.97
380.09	362.78
380.28	266.82
380.48	414.27
380.68	337.04
380.87	271.50
381.07	315.97
381.26	294.91
381.46	325.33
381.65	238.73
381.85	278.52
382.04	269.16
382.24	287.89
382.43	292.57
382.63	367.46
382.83	344.06
383.02	395.55
383.22	381.51
383.41	346.40
383.61	390.87
383.80	297.25
384.00	334.70
384.19	414.27
384.39	404.91
384.58	330.02
384.78	425.98
384.97	365.12
385.17	362.78
385.36	388.53
385.56	374.49
385.75	393.21
385.95	381.51
386.14	395.55
386.34	365.12
386.53	454.06
386.72	454.06
386.92	407.25
387.11	451.72
387.31	383.85
387.50	362.78
387.70	367.46
387.89	390.87
388.09	421.30
388.28	468.11
388.48	376.83
388.67	566.41
388.86	442.36
389.06	470.45
389.25	493.85
389.45	433.00
389.64	468.11
389.84	507.90
390.03	533.64
390.22	507.90
390.42	538.32
390.61	456.40
390.81	414.27
391.00	552.37
391.19	500.87
391.39	505.56
391.58	545.34
391.78	571.09
391.97	554.71
392.16	547.69
392.36	564.07
392.55	538.32
392.75	519.60
392.94	552.37
393.13	526.62
393.33	580.45
393.52	585.13
393.71	545.34
393.91	566.41
394.10	540.66
394.29	613.22
394.49	526.62
394.68	526.62
394.88	554.71
395.07	550.03
395.26	606.20
395.46	695.14
395.65	582.79
395.84	608.54
396.04	638.97
396.23	615.56
396.42	603.86
396.62	582.79
396.81	699.82
397.00	599.18
397.19	702.16
397.39	589.82
397.58	606.20
397.77	718.54
397.97	660.03
398.16	706.84
398.35	709.18
398.55	683.44
398.74	702.16
398.93	798.12
399.12	713.86
399.32	706.84
399.51	669.39
399.70	786.42
399.90	753.65
400.09	765.36
400.28	763.01
400.47	777.06
400.67	798.12
400.86	800.46
401.05	819.19
401.24	725.57
401.44	784.08
401.63	840.25
401.82	800.46
402.01	767.70
402.21	805.14
402.40	851.96
402.59	880.04
402.78	840.25
402.97	875.36
403.17	882.38
403.36	905.79
403.55	805.14
403.74	877.70
403.93	931.53
404.13	952.60
404.32	947.92
404.51	987.71
404.70	936.21
404.89	922.17
405.09	1013.45
405.28	842.59
405.47	889.40
405.66	966.64
405.85	1027.50
406.05	980.68
406.24	1018.13
406.43	985.37
406.62	1043.88
406.81	1097.71
407.00	1020.47
407.20	978.34
407.39	980.68
407.58	1093.03
407.77	1088.35
407.96	1060.26
408.15	1027.50
408.34	1193.67
408.54	1135.16
408.73	1060.26
408.92	1153.88
409.11	1137.50
409.30	1102.39
409.49	1121.12
409.68	1083.67
409.87	1226.44
410.07	1196.01
410.26	1247.51
410.45	1306.02
410.64	1177.29
410.83	1280.27
411.02	1151.54
411.21	1263.89
411.40	1245.16
411.59	1301.34
411.78	1366.87
411.98	1203.04
412.17	1252.19
412.36	1320.06
412.55	1320.06
412.74	1327.08
412.93	1348.15
413.12	1362.19
413.31	1366.87
413.50	1357.51
413.69	1409.00
413.88	1516.67
414.07	1359.85
414.26	1437.09
414.45	1385.60
414.64	1406.66
414.83	1474.54
415.02	1582.20
415.22	1577.52
415.41	1703.91
415.60	1673.48
415.79	1607.95
415.98	1579.86
416.17	1488.58
416.36	1671.14
416.55	1542.41
416.74	1558.80
416.93	1598.59
417.12	1717.95
417.31	1638.38
417.50	1727.32
417.69	1741.36
417.88	1827.96
418.07	1678.16
418.26	1757.74
418.45	1668.80
418.64	1797.53
418.83	1785.83
419.02	1781.15
419.21	1834.98
419.39	1806.89
419.58	1811.57
419.77	1771.79
419.96	1795.19
420.15	1877.11
420.34	1884.13
420.53	1909.88
420.72	1930.94
420.91	1860.73
421.10	2019.88
421.29	2010.52
421.48	1933.28
421.67	1956.69
421.86	1982.43
422.05	1898.17
422.24	2019.88
422.43	2066.69
422.61	2010.52
422.80	2024.56
422.99	2040.95
423.18	1926.26
423.37	1977.75
423.56	1994.14
423.75	1961.37
423.94	2111.16
424.13	1942.64
424.32	1961.37
424.50	1984.77
424.69	2040.95
424.88	2069.03
425.07	2062.01
425.26	1963.71
425.45	1935.62
425.64	1975.41
425.83	2008.18
426.01	1989.46
426.20	2010.52
426.39	2033.93
426.58	2104.14
426.77	2115.84
426.96	2106.48
427.15	2057.33
427.33	2146.27
427.52	2045.63
427.71	2099.46
427.90	2078.40
428.09	2146.27
428.28	2190.74
428.46	2235.21
428.65	2202.44
428.84	2237.55
429.03	2289.04
429.22	2127.55
429.40	2239.89
429.59	2347.56
429.78	2207.13
429.97	2176.70
430.16	2307.77
430.34	2317.13
430.53	2480.97
430.72	2284.36
430.91	2321.81
431.10	2279.68
431.28	2331.17
431.47	2342.88
431.66	2492.67
431.85	2356.92
432.03	2487.99
432.22	2455.22
432.41	2352.24
432.60	2490.33
432.79	2455.22
432.97	2347.56
433.16	2480.97
433.35	2499.69
433.54	2534.80
433.72	2534.80
433.91	2541.82
434.10	2555.86
434.28	2469.27
434.47	2499.69
434.66	2553.52
434.85	2651.83
435.03	2595.65
435.22	2626.08
435.41	2597.99
435.59	2593.31
435.78	2630.76
435.97	2644.81
436.16	2665.87
436.34	2757.15
436.53	2682.25
436.72	2818.00
436.90	2612.04
437.09	2696.30
437.28	2623.74
437.46	2698.64
437.65	2768.85
437.84	2747.79
438.02	2874.18
438.21	2820.35
438.40	2719.70
438.58	2981.84
438.77	2902.26
438.96	2878.86
439.14	3019.29
439.33	2909.29
439.52	2956.10
439.70	2960.78
439.89	3042.70
440.08	3054.40
440.26	3094.19
440.45	3075.46
440.63	3141.00
440.82	3148.02
441.01	3197.17
441.19	3295.47
441.38	3229.94
441.57	3265.05
441.75	3185.47
441.94	3318.88
442.12	3283.77
442.31	3351.65
442.50	3356.33
442.68	3281.43
442.87	3316.54
443.05	3417.18
443.24	3419.52
443.43	3375.05
443.61	3410.16
443.80	3536.55
443.98	3438.25
444.17	3243.98
444.35	3431.23
444.54	3463.99
444.73	3555.27
444.91	3389.10
445.10	3370.37
445.28	3375.05
445.47	3314.20
445.65	3522.51
445.84	3463.99
446.02	3590.38
446.21	3527.19
446.39	3431.23
446.58	3485.06
446.77	3531.87
446.95	3468.67
447.14	3501.44
447.32	3618.47
447.51	3536.55
447.69	3520.17
447.88	3456.97
448.06	3595.06
448.25	3365.69
448.43	3550.59
448.62	3492.08
448.80	3531.87
448.99	3487.40
449.17	3522.51
449.36	3609.11
449.54	3770.60
449.73	3763.58
449.91	3815.07
450.10	3674.64
450.28	3810.39
450.46	3763.58
450.65	3751.88
450.83	3712.09
451.02	3772.94
451.20	3740.18
451.39	3796.35
451.57	3740.18
451.76	3714.43
451.94	3908.69
452.13	3866.56
452.31	3815.07
452.49	3934.44
452.68	3859.54
452.86	3833.80
453.05	3964.87
453.23	3906.35
453.42	3901.67
453.60	3925.08
453.78	3913.38
453.97	3936.78
454.15	4028.06
454.34	4028.06
454.52	4037.42
454.70	4095.94
454.89	4053.81
455.07	4030.40
455.26	4149.77
455.44	4105.30
455.62	4032.74
455.81	4049.13
455.99	4173.18
456.17	4243.39
456.36	4311.27
456.54	4236.37
456.73	4283.18
456.91	4416.59
457.09	4390.84
457.28	4456.38
457.46	4269.14
457.64	4440.00
457.83	4456.38
458.01	4257.43
458.19	4465.74
458.38	4461.06
458.56	4360.42
458.74	4458.72
458.93	4479.79
459.11	4425.95
459.29	4482.13
459.48	4594.47
459.66	4580.43
459.84	4671.71
460.03	4660.01
460.21	4503.19
460.39	4662.35
460.57	4400.21
460.76	4594.47
460.94	4573.41
461.12	4568.73
461.31	4585.11
461.49	4648.30
461.67	4643.62
461.85	4645.96
462.04	4823.84
462.22	5053.22
462.40	4800.44
462.59	4791.08
462.77	4751.29
462.95	4786.40
463.13	4830.87
463.32	4802.78
463.50	4903.42
463.68	4983.00
463.86	5004.07
464.05	4828.53
464.23	4784.06
464.41	4985.34
464.59	4964.28
464.78	4880.02
464.96	5121.09
465.14	5100.03
465.32	5027.47
465.50	5165.56
465.69	5125.77
465.87	5170.24
466.05	4954.91
466.23	4933.85
466.41	5043.85
466.60	5132.79
466.78	5100.03
466.96	4968.96
467.14	4875.34
467.32	5078.96
467.51	5303.65
467.69	4952.57
467.87	5207.69
468.05	5046.20
468.23	5121.09
468.41	5069.60
468.60	5198.33
468.78	5284.93
468.96	5128.11
469.14	5188.97
469.32	5373.87
469.50	5191.31
469.69	5523.66
469.87	5427.70
470.05	5418.34
470.23	5392.59
470.41	5345.78
470.59	5378.55
470.77	5460.47
470.95	5509.62
471.14	5577.50
471.32	5561.11
471.50	5701.54
471.68	5511.96
471.86	5722.61
472.04	5598.56
472.22	6047.94
472.40	5598.56
472.58	5846.66
472.77	5877.09
472.95	5865.38
473.13	5982.41
473.31	5856.02
473.49	5907.51
473.67	5891.13
473.85	5870.06
474.03	5930.92
474.21	5949.64
474.39	6057.31
474.57	6113.48
474.75	6230.51
474.93	6263.27
475.12	6108.80
475.30	6307.74
475.48	6113.48
475.66	6171.99
475.84	6286.68
476.02	6279.66
476.20	6413.07
476.38	6506.69
476.56	6626.06
476.74	6574.56
476.92	6590.95
477.10	6604.99
477.28	6860.11
477.46	6729.04
477.64	6904.58
477.82	6904.58
478.00	7030.97
478.18	6974.80
478.36	7197.15
478.54	6967.77
478.72	7143.32
478.90	7262.68
479.08	7194.81
479.26	7101.19
479.44	7227.57
479.62	7391.41
479.80	7290.77
479.98	7215.87
480.16	7707.38
480.34	7702.70
480.52	7499.08
480.70	7770.58
480.88	7779.94
481.06	7686.32
481.24	7562.27
481.41	7859.52
481.59	7934.42
481.77	8004.63
481.95	8114.64
482.13	8196.56
482.31	8084.21
482.49	8390.82
482.67	8187.19
482.85	8580.40
483.03	8524.23
483.21	8606.15
483.39	8648.28
483.57	8601.47
483.74	8917.44
483.92	8716.16
484.10	8879.99
484.28	9022.77
484.46	9172.56
484.64	9111.71
484.82	9107.02
485.00	9240.44
485.18	9432.36
485.35	9451.08
485.53	9341.08
485.71	9469.81
485.89	9699.18
486.07	9589.17
486.25	9722.59
486.43	9813.87
486.61	9748.33
486.78	9998.77
486.96	9935.57
487.14	10085.37
487.32	10040.90
487.50	10286.65
487.68	10204.74
487.85	10345.17
488.03	10644.76
488.21	10663.48
488.39	10904.56
488.57	10827.32
488.75	10913.92
488.92	11124.57
489.10	10930.30
489.28	10953.71
489.46	11115.20
489.64	11445.22
489.81	11255.64
489.99	11360.96
490.17	11461.60
490.35	11667.57
490.53	11557.57
490.70	11623.10
490.88	11829.07
491.06	11669.91
491.24	11702.68
491.41	12049.08
491.59	12100.57
491.77	12049.08
491.95	11990.56
492.13	12332.28
492.30	12156.74
492.48	12374.41
492.66	12636.55
492.84	12355.69
493.01	12479.74
493.19	12582.72
493.37	12945.50
493.54	12807.41
493.72	12961.89
493.90	12709.11
494.08	13125.72
494.25	13149.13
494.43	13235.73
494.61	13291.90
494.79	13193.60
494.96	13490.85
495.14	13268.50
495.32	13635.96
495.49	13795.12
495.67	13769.37
495.85	13965.98
496.02	13888.74
496.20	14286.63
496.38	13996.40
496.55	13980.02
496.73	14352.16
496.91	14345.14
497.09	14525.36
497.26	14553.45
497.44	14232.80
497.62	14410.68
497.79	14675.16
497.97	14497.28
498.14	15033.26
498.32	15037.94
498.50	14881.13
498.67	14993.47
498.85	15096.46
499.03	14977.09
499.20	15157.31
499.38	15243.91
499.56	15564.56
499.73	15433.49
499.91	15382.00
500.08	15599.67
500.26	15372.64
500.44	15700.31
500.61	15470.94
500.79	15531.80
500.97	15503.71
501.14	16142.67
501.32	16152.04
501.49	15875.85
501.67	15681.59
501.84	16184.80
502.02	16023.31
502.20	16084.16
502.37	16381.41
502.55	16011.60
502.72	16365.03
502.90	16156.72
503.07	16269.06
503.25	16465.67
503.43	16320.56
503.60	16470.35
503.78	16659.93
503.95	16493.76
504.13	16821.43
504.30	16791.00
504.48	16870.58
504.65	16734.83
504.83	17277.83
505.01	17172.51
505.18	17043.78
505.36	17308.26
505.53	17151.45
505.71	17022.72
505.88	17202.94
506.06	17282.52
506.23	17326.99
506.41	17467.42
506.58	17425.29
506.76	17596.15
506.93	17427.63
507.11	17474.44
507.28	17493.16
507.46	17832.54
507.63	17975.31
507.81	18162.56
507.98	17827.86
508.16	18345.12
508.33	17935.53
508.50	18005.74
508.68	18047.87
508.85	18370.86
509.03	18298.31
509.20	18059.57
509.38	18448.10
509.55	18731.31
509.73	18651.73
509.90	18679.82
510.08	18508.96
510.25	18628.32
510.42	18450.44
510.60	18831.95
510.77	18698.54
510.95	19009.83
511.12	18644.71
511.30	19063.66
511.47	19040.26
511.64	19091.75
511.82	19232.18
511.99	18764.07
512.17	19145.58
512.34	19201.76
512.51	19260.27
512.69	19246.23
512.86	19339.85
513.04	19463.90
513.21	19531.77
513.38	19374.95
513.56	19707.31
513.73	19564.54
513.90	19833.70
514.08	19557.52
514.25	19686.25
514.43	19866.47
514.60	19889.87
514.77	20159.03
514.95	19922.64
515.12	20152.01
515.29	20058.39
515.47	20154.35
515.64	20016.26
515.81	20116.90
515.99	20423.51
516.16	20498.41
516.33	20154.35
516.51	20369.68
516.68	20320.53
516.85	20542.88
517.03	20648.21
517.20	20458.62
517.37	20524.16
517.54	21088.23
517.72	20844.81
517.89	20723.10
518.06	20833.11
518.24	20723.10
518.41	21003.97
518.58	20900.98
518.75	21034.39
518.93	21186.53
519.10	21113.97
519.27	21434.63
519.45	21216.96
519.62	21006.31
519.79	21092.91
519.96	21296.53
520.14	21383.13
520.31	21413.56
520.48	21453.35
520.65	21579.74
520.83	21626.55
521.00	21654.64
521.17	21532.93
521.34	21853.58
521.52	21879.33
521.69	21710.81
521.86	21825.50
522.03	21898.05
522.20	21921.46
522.38	22005.72
522.55	21914.44
522.72	21766.98
522.89	22174.24
523.07	22164.87
523.24	22558.08
523.41	22265.52
523.58	22181.26
523.75	22647.02
523.92	22012.74
524.10	22298.28
524.27	22132.11
524.44	22490.21
524.61	23105.77
524.78	22836.61
524.96	22331.05
525.13	22640.00
525.30	22663.41
525.47	22735.96
525.64	22705.54
525.81	22630.64
525.98	22955.97
526.16	23264.92
526.33	22946.61
526.50	23232.16
526.67	22974.70
526.84	23152.58
527.01	22761.71
527.18	23194.71
527.36	23129.17
527.53	23515.36
527.70	23573.88
527.87	23260.24
528.04	23192.37
528.21	23634.73
528.38	23358.55
528.55	23206.41
528.72	23288.33
528.89	23536.43
529.07	23782.18
529.24	23269.61
529.41	23644.09
529.58	23836.02
529.75	23480.25
529.92	23817.29
530.09	23557.49
530.26	23660.48
530.43	23817.29
530.60	23861.76
530.77	23772.82
530.94	24095.82
531.11	23637.07
531.28	23976.45
531.46	24219.86
531.63	24201.14
531.80	24456.26
531.97	24243.27
532.14	24191.78
532.31	24224.54
532.48	24250.29
532.65	24018.58
532.82	24367.32
532.99	24137.94
533.16	24627.12
533.33	24575.62
533.50	24568.60
533.67	24542.86
533.84	24364.98
534.01	24577.97
534.18	24486.68
534.35	24765.21
534.52	24491.37
534.69	24898.62
534.86	24711.38
535.03	24624.78
535.20	25015.65
535.37	25142.03
535.54	25149.06
535.71	24828.40
535.88	25081.18
536.05	24762.87
536.22	25216.93
536.38	25287.15
536.55	25432.26
536.72	25179.48
536.89	25106.93
537.06	25118.63
537.23	25184.16
537.40	25125.65
537.57	24905.64
537.74	25343.32
537.91	25678.02
538.08	25392.47
538.25	25575.03
538.42	25184.16
538.59	25575.03
538.75	25151.40
538.92	25577.37
539.09	25523.54
539.26	25689.72
539.43	25851.22
539.60	25514.18
539.77	25603.12
539.94	25582.06
540.11	25654.61
540.28	25624.18
540.44	25467.37
540.61	25858.24
540.78	25596.10
540.95	26010.37
541.12	25699.08
541.29	25701.42
541.46	25755.26
541.62	25998.67
541.79	26089.95
541.96	25699.08
542.13	25937.82
542.30	26068.89
542.47	26188.25
542.63	26532.31
542.80	26391.88
542.97	26544.02
543.14	26647.00
543.31	26536.99
543.48	26522.95
543.64	26546.36
543.81	26609.55
543.98	26717.22
544.15	27002.76
544.32	26396.56
544.48	27026.17
544.65	26714.87
544.82	26544.02
544.99	26625.93
545.16	26759.34
545.32	26838.92
545.49	27026.17
545.66	26845.94
545.83	27552.79
546.00	27187.66
546.16	27002.76
546.33	26951.27
546.50	26321.66
546.67	26955.95
546.83	26831.90
547.00	27168.94
547.17	27145.53
547.34	26953.61
547.50	27089.36
547.67	27412.35
547.84	27480.23
548.00	27065.96
548.17	27477.89
548.34	27182.98
548.51	27608.96
548.67	27454.48
548.84	27405.33
549.01	27297.67
549.18	27527.04
549.34	27466.19
549.51	27484.91
549.68	27414.69
549.84	27316.39
550.01	27728.33
550.18	27328.10
550.34	27683.86
550.51	27777.48
550.68	27768.12
550.84	27751.73
551.01	28051.32
551.18	27541.08
551.34	27370.22
551.51	27576.19
551.68	27995.15
551.84	27831.31
552.01	27552.79
552.18	27882.80
552.34	27721.30
552.51	27946.00
552.68	27852.38
552.84	28261.97
553.01	27992.81
553.18	28093.45
553.34	28294.74
553.51	28130.90
553.67	28203.46
553.84	28088.77
554.01	28151.96
554.17	28524.11
554.34	28238.56
554.51	28067.70
554.67	28374.31
554.84	28313.46
555.00	28311.12
555.17	28334.53
555.33	28252.61
555.50	28631.77
555.67	27983.44
555.83	28102.81
556.00	28517.09
556.16	28568.58
556.33	28397.72
556.50	28734.76
556.66	28332.18
556.83	28760.50
556.99	29064.77
557.16	29244.99
557.32	28652.84
557.49	28830.72
557.65	28531.13
557.82	28613.05
557.98	28856.46
558.15	28685.61
558.32	28835.40
558.48	28554.54
558.65	28858.81
558.81	28666.88
558.98	28954.77
559.14	28917.32
559.31	29109.24
559.47	28774.55
559.64	29123.29
559.80	28926.68
559.97	29355.00
560.13	28627.09
560.30	28844.76
560.46	29050.73
560.63	29202.86
560.79	29104.56
560.96	29184.14
561.12	29095.20
561.29	29249.67
561.45	28828.38
561.61	28926.68
561.78	29244.99
561.94	29582.03
562.11	29230.95
562.27	29212.23
562.44	29046.05
562.60	29085.84
562.77	29120.95
562.93	28830.72
563.10	29357.34
563.26	29069.45
563.42	29296.49
563.59	29177.12
563.75	29387.77
563.92	29174.78
564.08	29163.08
564.24	28816.68
564.41	29408.83
564.57	29357.34
564.74	29008.60
564.90	29525.86
565.07	29352.66
565.23	29462.66
565.39	29537.56
565.56	29549.26
565.72	29366.70
565.88	29556.28
566.05	29205.20
566.21	29188.82
566.38	29483.73
566.54	29626.50
566.70	29640.54
566.87	29631.18
567.03	29605.44
567.19	29809.06
567.36	29624.16
567.52	29603.10
567.68	29675.65
567.85	29352.66
568.01	29970.56
568.17	29656.93
568.34	29677.99
568.50	30136.74
568.66	29523.52
568.83	29708.42
568.99	29465.00
569.15	29773.95
569.32	29596.07
569.48	29582.03
569.64	29333.93
569.81	29715.44
569.97	29743.53
570.13	29937.79
570.30	29359.68
570.46	29837.15
570.62	29940.13
570.78	29579.69
570.95	29420.53
571.11	29755.23
571.27	29479.05
571.43	29429.90
571.60	29846.51
571.76	29593.73
571.92	30003.33
572.09	29727.14
572.25	30015.03
572.41	29656.93
572.57	29785.66
572.74	30125.04
572.90	29631.18
573.06	29813.74
573.22	29834.81
573.38	30218.66
573.55	29921.41
573.71	30331.00
573.87	30071.20
574.03	29933.11
574.20	29839.49
574.36	29773.95
574.52	29898.00
574.68	29670.97
574.84	29207.55
575.01	29755.23
575.17	30017.37
575.33	29930.77
575.49	29565.65
575.65	29972.90
575.82	29912.05
575.98	29888.64
576.14	30024.39
576.30	30110.99
576.46	29860.55
576.62	29972.90
576.79	29832.47
576.95	30085.25
577.11	29965.88
577.27	29968.22
577.43	30249.08
577.59	29680.33
577.75	29666.29
577.92	29659.27
578.08	29933.11
578.24	29949.50
578.40	30209.29
578.56	30052.48
578.72	29675.65
578.88	30146.10
579.04	30494.84
579.21	30115.67
579.37	30218.66
579.53	30038.44
579.69	30059.50
579.85	29635.86
580.01	30026.73
580.17	30199.93
580.33	29928.43
580.49	30061.84
580.65	30281.85
580.82	30127.38
580.98	30073.54
581.14	30155.46
581.30	30150.78
581.46	30125.04
581.62	30066.52
581.78	30143.76
581.94	30047.80
582.10	30160.14
582.26	30026.73
582.42	30246.74
582.58	29951.84
582.74	29930.77
582.90	30387.18
583.06	30169.51
583.22	30181.21
583.38	30391.86
583.54	30024.39
583.70	29895.66
583.86	30352.07
584.02	30244.40
584.18	30260.79
584.34	30373.13
584.50	30384.83
584.66	30478.46
584.82	29909.71
584.98	30473.78
585.14	29839.49
585.30	29998.65
585.46	29752.89
585.62	29848.85
585.78	29958.86
585.94	30026.73
586.10	30431.65
586.26	30274.83
586.42	30431.65
586.58	30417.60
586.74	29886.30
586.90	30033.75
587.06	30345.05
587.22	30010.35
587.38	30363.77
587.54	30270.15
587.70	30621.23
587.86	30230.36
588.02	30546.33
588.18	30396.54
588.34	30118.01
588.49	30305.26
588.65	29804.38
588.81	30455.05
588.97	30209.29
589.13	30426.96
589.29	30033.75
589.45	30483.14
589.61	30478.46
589.77	30476.12
589.93	30368.45
590.08	30590.80
590.24	30576.76
590.40	30682.08
590.56	30565.06
590.72	30370.79
590.88	30466.75
591.04	30742.94
591.20	30705.49
591.35	30850.60
591.51	30609.53
591.67	30672.72
591.83	30721.87
591.99	30560.37
