SpectraSuite Data File
++++++++++++++++++++++++++++++++++++
Date: Fri Oct 18 13:58:20 GMT-05:00 2013
User: bianchi
Dark Spectrum Present: No
Reference Spectrum Present: No
Number of Sampled Component Spectra: 1
Spectrometers: USB2+H05261
Integration Time (usec): 50000 (USB2+H05261)
Spectra Averaged: 1 (USB2+H05261)
Boxcar Smoothing: 0 (USB2+H05261)
Correct for Electrical Dark: No (USB2+H05261)
Strobe/Lamp Enabled: No (USB2+H05261)
Correct for Detector Non-linearity: No (USB2+H05261)
Correct for Stray Light: No (USB2+H05261)
Number of Pixels in Processed Spectrum: 2048
>>>>>Begin Processed Spectral Data<<<<<
365.73	21.06
365.92	21.06
366.12	21.06
366.32	0.00
366.52	0.00
366.72	0.00
366.91	0.00
367.11	0.00
367.31	0.00
367.51	0.00
367.70	0.00
367.90	0.00
368.10	0.00
368.30	0.00
368.49	0.00
368.69	0.00
368.89	0.00
369.09	0.00
369.28	0.00
369.48	0.00
369.68	0.00
369.87	0.00
370.07	0.00
370.27	0.00
370.47	0.00
370.66	119.37
370.86	124.05
371.06	98.30
371.25	210.65
371.45	173.20
371.65	114.69
371.84	198.95
372.04	168.52
372.24	210.65
372.44	203.63
372.63	145.11
372.83	205.97
373.03	196.60
373.22	241.08
373.42	156.82
373.62	248.10
373.81	215.33
374.01	248.10
374.21	238.73
374.40	220.01
374.60	294.91
374.79	273.84
374.99	196.60
375.19	245.76
375.38	250.44
375.58	255.12
375.78	259.80
375.97	264.48
376.17	227.03
376.37	283.20
376.56	208.31
376.76	306.61
376.95	283.20
377.15	264.48
377.35	243.42
377.54	173.20
377.74	276.18
377.93	234.05
378.13	262.14
378.33	313.63
378.52	304.27
378.72	259.80
378.91	294.91
379.11	264.48
379.31	273.84
379.50	297.25
379.70	301.93
379.89	285.55
380.09	304.27
380.28	266.82
380.48	351.08
380.68	330.02
380.87	266.82
381.07	339.38
381.26	332.36
381.46	311.29
381.65	257.46
381.85	283.20
382.04	276.18
382.24	379.17
382.43	362.78
382.63	325.33
382.83	367.46
383.02	322.99
383.22	409.59
383.41	330.02
383.61	330.02
383.80	339.38
384.00	400.23
384.19	283.20
384.39	407.25
384.58	451.72
384.78	369.80
384.97	409.59
385.17	402.57
385.36	433.00
385.56	360.44
385.75	383.85
385.95	386.19
386.14	344.06
386.34	472.79
386.53	414.27
386.72	440.02
386.92	414.27
387.11	355.76
387.31	358.10
387.50	430.66
387.70	421.30
387.89	444.70
388.09	388.53
388.28	430.66
388.48	416.62
388.67	458.74
388.86	447.04
389.06	454.06
389.25	491.51
389.45	454.06
389.64	470.45
389.84	557.05
390.03	543.00
390.22	442.36
390.42	521.94
390.61	461.09
390.81	507.90
391.00	491.51
391.19	482.15
391.39	550.03
391.58	545.34
391.78	521.94
391.97	519.60
392.16	470.45
392.36	545.34
392.55	596.84
392.75	491.51
392.94	613.22
393.13	568.75
393.33	533.64
393.52	592.16
393.71	538.32
393.91	498.53
394.10	521.94
394.29	589.82
394.49	648.33
394.68	552.37
394.88	608.54
395.07	667.05
395.26	631.94
395.46	711.52
395.65	697.48
395.84	580.45
396.04	723.23
396.23	657.69
396.42	662.37
396.62	627.26
396.81	690.46
397.00	723.23
397.19	695.14
397.39	758.33
397.58	603.86
397.77	683.44
397.97	676.41
398.16	643.65
398.35	774.72
398.55	655.35
398.74	692.80
398.93	716.20
399.12	784.08
399.32	664.71
399.51	786.42
399.70	837.91
399.90	763.01
400.09	863.66
400.28	699.82
400.47	695.14
400.67	777.06
400.86	812.17
401.05	760.67
401.24	819.19
401.44	772.38
401.63	805.14
401.82	791.10
402.01	812.17
402.21	828.55
402.40	816.85
402.59	821.53
402.78	819.19
402.97	837.91
403.17	882.38
403.36	812.17
403.55	856.64
403.74	816.85
403.93	896.43
404.13	910.47
404.32	929.19
404.51	947.92
404.70	903.45
404.89	807.48
405.09	983.02
405.28	985.37
405.47	1004.09
405.66	971.32
405.85	1001.75
406.05	938.55
406.24	905.79
406.43	985.37
406.62	983.02
406.81	1071.97
407.00	1020.47
407.20	1027.50
407.39	1034.52
407.58	1034.52
407.77	964.30
407.96	1076.65
408.15	1114.10
408.34	1011.11
408.54	1057.92
408.73	1086.01
408.92	1130.48
409.11	1088.35
409.30	1067.28
409.49	1055.58
409.68	1200.69
409.87	1116.44
410.07	1259.21
410.26	1224.10
410.45	1151.54
410.64	1193.67
410.83	1217.08
411.02	1212.40
411.21	1200.69
411.40	1275.59
411.59	1210.06
411.78	1277.93
411.98	1287.29
412.17	1299.00
412.36	1301.34
412.55	1263.89
412.74	1291.98
412.93	1427.73
413.12	1291.98
413.31	1324.74
413.50	1373.89
413.69	1397.30
413.88	1444.11
414.07	1392.62
414.26	1465.18
414.45	1413.68
414.64	1521.35
414.83	1481.56
415.02	1486.24
415.22	1565.82
415.41	1561.14
415.60	1533.05
415.79	1640.72
415.98	1537.73
416.17	1472.20
416.36	1476.88
416.55	1624.33
416.74	1760.08
416.93	1626.67
417.12	1802.21
417.31	1710.93
417.50	1727.32
417.69	1734.34
417.88	1778.81
418.07	1713.27
418.26	1713.27
418.45	1771.79
418.64	1764.76
418.83	1860.73
419.02	1802.21
419.21	1736.68
419.39	1790.51
419.58	1844.34
419.77	1778.81
419.96	1844.34
420.15	1764.76
420.34	1874.77
420.53	1881.79
420.72	1919.24
420.91	1891.15
421.10	1982.43
421.29	1994.14
421.48	1949.67
421.67	1970.73
421.86	1935.62
422.05	1790.51
422.24	1891.15
422.43	1963.71
422.61	2038.61
422.80	2050.31
422.99	1998.82
423.18	2069.03
423.37	1907.54
423.56	2019.88
423.75	1935.62
423.94	1849.02
424.13	1933.28
424.32	1991.80
424.50	2017.54
424.69	2087.76
424.88	2008.18
425.07	2040.95
425.26	1935.62
425.45	1996.48
425.64	2113.50
425.83	1944.99
426.01	2080.74
426.20	1996.48
426.39	2050.31
426.58	2190.74
426.77	1968.39
426.96	2090.10
427.15	2120.53
427.33	2122.87
427.52	2097.12
427.71	2143.93
427.90	2122.87
428.09	2108.82
428.28	2134.57
428.46	2307.77
428.65	2242.23
428.84	2272.66
429.03	2270.32
429.22	2176.70
429.40	2328.83
429.59	2193.08
429.78	2122.87
429.97	2150.95
430.16	2265.64
430.34	2202.44
430.53	2303.09
430.72	2317.13
430.91	2237.55
431.10	2232.87
431.28	2204.78
431.47	2373.30
431.66	2462.24
431.85	2267.98
432.03	2427.14
432.22	2380.32
432.41	2396.71
432.60	2530.12
432.79	2331.17
432.97	2469.27
433.16	2530.12
433.35	2509.05
433.54	2525.44
433.72	2455.22
433.91	2553.52
434.10	2541.82
434.28	2560.55
434.47	2572.25
434.66	2588.63
434.85	2597.99
435.03	2670.55
435.22	2623.74
435.41	2644.81
435.59	2569.91
435.78	2612.04
435.97	2715.02
436.16	2637.78
436.34	2600.34
436.53	2602.68
436.72	2796.94
436.90	2712.68
437.09	2712.68
437.28	2757.15
437.46	2717.36
437.65	2761.83
437.84	2738.43
438.02	2733.75
438.21	2883.54
438.40	2663.53
438.58	2871.84
438.77	2834.39
438.96	2970.14
439.14	2911.63
439.33	2920.99
439.52	2902.26
439.70	2946.73
439.89	3059.08
440.08	3045.04
440.26	2970.14
440.45	3016.95
440.63	3012.27
440.82	3016.95
441.01	3094.19
441.19	3241.64
441.38	3101.21
441.57	3218.24
441.75	3218.24
441.94	3213.56
442.12	3293.13
442.31	3307.18
442.50	3342.28
442.68	3370.37
442.87	3400.80
443.05	3351.65
443.24	3279.09
443.43	3253.34
443.61	3447.61
443.80	3485.06
443.98	3297.81
444.17	3246.32
444.35	3449.95
444.54	3433.57
444.73	3578.68
444.91	3442.93
445.10	3445.27
445.28	3480.38
445.47	3557.61
445.65	3447.61
445.84	3475.70
446.02	3501.44
446.21	3482.72
446.39	3454.63
446.58	3534.21
446.77	3520.17
446.95	3461.65
447.14	3410.16
447.32	3393.78
447.51	3529.53
447.69	3428.88
447.88	3559.95
448.06	3592.72
448.25	3438.25
448.43	3552.93
448.62	3590.38
448.80	3531.87
448.99	3646.55
449.17	3712.09
449.36	3669.96
449.54	3620.81
449.73	3658.26
449.91	3700.39
450.10	3756.56
450.28	3733.15
450.46	3754.22
450.65	3707.41
450.83	3730.81
451.02	3786.99
451.20	3957.85
451.39	3775.28
451.57	3702.73
451.76	3604.42
451.94	3810.39
452.13	3892.31
452.31	3983.59
452.49	3707.41
452.68	3875.93
452.86	3798.69
453.05	4025.72
453.23	3997.64
453.42	3772.94
453.60	3838.48
453.78	3733.15
453.97	3885.29
454.15	3901.67
454.34	4032.74
454.52	3896.99
454.70	3943.80
454.89	4147.43
455.07	4049.13
455.26	3948.48
455.44	4142.75
455.62	4138.07
455.81	4030.40
455.99	4100.62
456.17	4161.47
456.36	4145.09
456.54	4166.15
456.73	4191.90
456.91	4341.69
457.09	4332.33
457.28	4507.87
457.46	4311.27
457.64	4388.50
457.83	4376.80
458.01	4327.65
458.19	4287.86
458.38	4308.93
458.56	4430.63
458.74	4416.59
458.93	4372.12
459.11	4620.22
459.29	4482.13
459.48	4496.17
459.66	4449.36
459.84	4533.62
460.03	4674.05
460.21	4381.48
460.39	4531.28
460.57	4465.74
460.76	4596.81
460.94	4601.49
461.12	4559.36
461.31	4578.09
461.49	4470.42
461.67	4622.56
461.85	4791.08
462.04	4709.16
462.22	5083.64
462.40	4861.29
462.59	4744.27
462.77	4725.54
462.95	4805.12
463.13	4868.31
463.32	4903.42
463.50	4894.06
463.68	4891.72
463.86	4896.40
464.05	4767.67
464.23	4880.02
464.41	4765.33
464.59	4741.93
464.78	4994.70
464.96	4844.91
465.14	4847.25
465.32	5123.43
465.50	5062.58
465.69	5032.15
465.87	4980.66
466.05	4940.87
466.23	4994.70
466.41	5130.45
466.60	5153.86
466.78	5041.51
466.96	5046.20
467.14	5069.60
467.32	5158.54
467.51	5261.52
467.69	4990.02
467.87	5179.61
468.05	5228.76
468.23	5118.75
468.41	5074.28
468.60	5256.84
468.78	5362.17
468.96	5083.64
469.14	5177.26
469.32	5434.72
469.50	5177.26
469.69	5296.63
469.87	5465.15
470.05	5479.19
470.23	5533.03
470.41	5401.96
470.59	5444.09
470.77	5404.30
470.95	5507.28
471.14	5736.65
471.32	5416.00
471.50	5584.52
471.68	5579.84
471.86	5645.37
472.04	5572.82
472.22	5783.46
472.40	5638.35
472.58	5657.07
472.77	5825.59
472.95	5877.09
473.13	6012.84
473.31	5652.39
473.49	5795.17
473.67	5799.85
473.85	5907.51
474.03	6026.88
474.21	6150.93
474.39	5865.38
474.57	6057.31
474.75	6223.48
474.93	6115.82
475.12	6057.31
475.30	5994.11
475.48	6073.69
475.66	6223.48
475.84	6181.35
476.02	6462.22
476.20	6338.17
476.38	6602.65
476.56	6572.22
476.74	6630.74
476.92	6572.22
477.10	6600.31
477.28	6810.96
477.46	6572.22
477.64	6541.80
477.82	6949.05
478.00	6710.32
478.18	7000.54
478.36	6857.77
478.54	6986.50
478.72	7211.19
478.90	7159.70
479.08	7115.23
479.26	7365.67
479.44	7396.09
479.62	7295.45
479.80	7487.37
479.98	7452.27
480.16	7616.10
480.34	7543.55
480.52	7559.93
480.70	7721.43
480.88	7536.52
481.06	7705.04
481.24	7681.64
481.41	7927.39
481.59	8002.29
481.77	8231.66
481.95	8116.98
482.13	7939.10
482.31	8088.89
482.49	8126.34
482.67	8388.48
482.85	8432.95
483.03	8519.55
483.21	8521.89
483.39	8641.26
483.57	8678.71
483.74	8702.11
483.92	8652.96
484.10	8875.31
484.28	8865.95
484.46	9085.96
484.64	9132.77
484.82	9181.92
485.00	9116.39
485.18	9408.95
485.35	9308.31
485.53	9284.91
485.71	9476.83
485.89	9715.56
486.07	9624.28
486.25	9474.49
486.43	9757.69
486.61	9619.60
486.78	9998.77
486.96	10047.92
487.14	10284.31
487.32	10317.08
487.50	10471.56
487.68	10230.48
487.85	10457.51
488.03	10499.64
488.21	10714.97
488.39	10621.35
488.57	10525.39
488.75	10925.62
488.92	10878.81
489.10	10991.16
489.28	11089.46
489.46	11119.89
489.64	11286.06
489.81	11297.77
489.99	11185.42
490.17	11314.15
490.35	11452.24
490.53	11576.29
490.70	11669.91
490.88	11829.07
491.06	11709.70
491.24	11690.98
491.41	11967.16
491.59	11866.52
491.77	12079.50
491.95	12313.56
492.13	12301.86
492.30	12229.30
492.48	12236.32
492.66	12418.88
492.84	12439.95
493.01	12720.81
493.19	12681.02
493.37	12905.71
493.54	12985.29
493.72	12851.88
493.90	12809.75
494.08	12975.93
494.25	13102.32
494.43	13224.03
494.61	13263.82
494.79	13420.63
494.96	13493.19
495.14	13523.62
495.32	13444.04
495.49	13776.39
495.67	13577.45
495.85	13867.67
496.02	13853.63
496.20	13954.27
496.38	13778.73
496.55	13898.10
496.73	14464.51
496.91	14258.54
497.09	14253.86
497.26	14471.53
497.44	14235.14
497.62	14396.64
497.79	14581.54
497.97	14696.22
498.14	14883.47
498.32	14918.57
498.50	14799.21
498.67	15101.14
498.85	15105.82
499.03	14953.68
499.20	14930.28
499.38	15129.22
499.56	15379.66
499.73	15442.85
499.91	15424.13
500.08	15644.14
500.26	15627.76
500.44	15529.45
500.61	15351.57
500.79	15604.35
500.97	16112.25
501.14	15754.15
501.32	16060.76
501.49	15964.79
501.67	16027.99
501.84	16020.97
502.02	16009.26
502.20	16175.44
502.37	16276.09
502.55	16098.20
502.72	16240.98
502.90	16205.87
503.07	16411.84
503.25	16240.98
503.43	16355.66
503.60	16627.17
503.78	16678.66
503.95	16723.13
504.13	16704.40
504.30	16886.97
504.48	16697.38
504.65	16751.21
504.83	16889.31
505.01	16980.59
505.18	17074.21
505.36	17270.81
505.53	17125.70
505.71	16987.61
505.88	17474.44
506.06	16994.63
506.23	17516.57
506.41	17575.08
506.58	17516.57
506.76	17511.89
506.93	17668.70
507.11	17289.54
507.28	17408.90
507.46	17862.97
507.63	17741.26
507.81	17671.04
507.98	17586.79
508.16	17968.29
508.33	17926.16
508.50	18176.60
508.68	17975.31
508.85	18197.67
509.03	18052.55
509.20	18232.77
509.38	18106.38
509.55	18403.63
509.73	18436.40
509.90	18602.58
510.08	18485.55
510.25	18345.12
510.42	18604.92
510.60	18602.58
510.77	18750.03
510.95	18925.57
511.12	18726.63
511.30	18602.58
511.47	18941.96
511.64	19103.45
511.82	19131.54
511.99	18843.65
512.17	19117.50
512.34	19058.98
512.51	19192.39
512.69	19264.95
512.86	19396.02
513.04	19531.77
513.21	19637.09
513.38	19513.05
513.56	19644.12
513.73	19339.85
513.90	19520.07
514.08	19833.70
514.25	20009.24
514.43	19566.88
514.60	19719.01
514.77	19702.63
514.95	19964.77
515.12	19793.91
515.29	19754.12
515.47	20308.83
515.64	19915.62
515.81	19974.13
515.99	20460.96
516.16	20166.06
516.33	20453.94
516.51	20587.35
516.68	20292.44
516.85	20439.90
517.03	20765.23
517.20	20517.14
517.37	20456.28
517.54	20755.87
517.72	20634.16
517.89	20437.56
518.06	20870.56
518.24	20835.45
518.41	20662.25
518.58	20634.16
518.75	20655.23
518.93	21025.03
519.10	21027.37
519.27	21165.46
519.45	21223.98
519.62	20849.49
519.79	21113.97
519.96	21081.21
520.14	21350.37
520.31	21116.31
520.48	21626.55
520.65	21443.99
520.83	21516.54
521.00	21575.06
521.17	21497.82
521.34	21113.97
521.52	21654.64
521.69	21376.11
521.86	21727.19
522.03	21743.58
522.20	22270.20
522.38	21926.14
522.55	22080.61
522.72	21869.97
522.89	21951.88
523.07	22157.85
523.24	22338.07
523.41	22508.93
523.58	21942.52
523.75	22136.79
523.92	22377.86
524.10	22422.33
524.27	22197.64
524.44	22546.38
524.61	22684.47
524.78	22939.59
524.96	22525.32
525.13	22878.74
525.30	22623.62
525.47	22817.88
525.64	22368.50
525.81	22698.52
525.98	22546.38
526.16	23143.22
526.33	22691.49
526.50	22925.55
526.67	23033.21
526.84	22623.62
527.01	22937.25
527.18	22913.84
527.36	23222.80
527.53	23105.77
527.70	23445.15
527.87	23559.83
528.04	23129.17
528.21	23466.21
528.38	23370.25
528.55	23290.67
528.72	23236.84
528.89	23555.15
529.07	23360.89
529.24	23522.38
529.41	23704.95
529.58	23679.20
529.75	23730.69
529.92	23658.14
530.09	23400.68
530.26	23634.73
530.43	23840.70
530.60	23793.89
530.77	24060.71
530.94	24077.09
531.11	23946.02
531.28	24311.14
531.46	24161.35
531.63	23800.91
531.80	24292.42
531.97	24299.44
532.14	24517.11
532.31	24091.13
532.48	24039.64
532.65	24023.26
532.82	24329.87
532.99	23915.59
533.16	24219.86
533.33	24575.62
533.50	24648.18
533.67	24423.49
533.84	24542.86
534.01	24311.14
534.18	24168.37
534.35	24966.49
534.52	24662.22
534.69	24442.21
534.86	25006.28
535.03	24858.83
535.20	25041.39
535.37	25111.61
535.54	25200.55
535.71	24608.39
535.88	24938.41
536.05	24584.99
536.22	25102.25
536.38	25348.00
536.55	25067.14
536.72	25256.72
536.89	25015.65
537.06	24856.49
537.23	25172.46
537.40	24936.07
537.57	25109.27
537.74	25336.30
537.91	25832.49
538.08	25230.98
538.25	25305.87
538.42	25560.99
538.59	25462.69
538.75	25392.47
538.92	25254.38
539.09	25348.00
539.26	25678.02
539.43	25820.79
539.60	25795.04
539.77	25607.80
539.94	25560.99
540.11	25411.20
540.28	25949.52
540.44	25729.51
540.61	25792.70
540.78	25666.31
540.95	25813.77
541.12	25724.83
541.29	25813.77
541.46	25979.95
541.62	25766.96
541.79	26438.69
541.96	25795.04
542.13	26029.10
542.30	26441.03
542.47	26312.30
542.63	26274.85
542.80	26312.30
542.97	26211.66
543.14	26258.47
543.31	26326.35
543.48	26284.22
543.64	26536.99
543.81	26773.39
543.98	26742.96
544.15	26569.76
544.32	26698.49
544.48	26630.62
544.65	26553.38
544.82	26588.49
544.99	26160.17
545.16	26916.16
545.32	26628.27
545.49	26951.27
545.66	27129.15
545.83	27199.37
546.00	27391.29
546.16	26670.40
546.33	27063.61
546.50	26717.22
546.67	26831.90
546.83	26551.04
547.00	26611.89
547.17	27175.96
547.34	27042.55
547.50	27379.59
547.67	27192.34
547.84	27358.52
548.00	27625.34
548.17	27578.53
548.34	26986.38
548.51	27447.46
548.67	27545.76
548.84	27402.99
549.01	27557.47
549.18	27484.91
549.34	27257.88
549.51	27124.47
549.68	27658.11
549.84	27454.48
550.01	27475.55
550.18	27330.44
550.34	27814.93
550.51	27901.53
550.68	27728.33
550.84	27101.06
551.01	27527.04
551.18	27917.91
551.34	27349.16
551.51	27796.20
551.68	27789.18
551.84	27733.01
552.01	27697.90
552.18	28011.53
552.34	27744.71
552.51	27740.03
552.68	27711.94
552.84	27983.44
553.01	28191.75
553.18	27969.40
553.34	28219.84
553.51	27917.91
553.67	28329.84
553.84	28671.56
554.01	28397.72
554.17	28077.07
554.34	28177.71
554.51	28032.60
554.67	28395.38
554.84	28175.37
555.00	28114.52
555.17	28566.24
555.33	28704.33
555.50	28294.74
555.67	28032.60
555.83	28006.85
556.00	28407.08
556.16	28222.18
556.33	28648.16
556.50	28369.63
556.66	28718.37
556.83	28641.14
556.99	28690.29
557.16	28896.25
557.32	28720.71
557.49	28854.12
557.65	28620.07
557.82	28545.17
557.98	28481.98
558.15	28402.40
558.32	28870.51
558.48	28914.98
558.65	28826.04
558.81	28741.78
558.98	28779.23
559.14	28861.15
559.31	28582.62
559.47	28659.86
559.64	28535.81
559.80	29050.73
559.97	29015.62
560.13	28978.17
560.30	28556.88
560.46	28947.75
560.63	29001.58
560.79	28943.06
560.96	29085.84
561.12	28940.72
561.29	29226.27
561.45	29254.36
561.61	29277.76
561.78	29029.66
561.94	29111.58
562.11	29266.06
562.27	28950.09
562.44	28657.52
562.60	28996.90
562.77	29032.00
562.93	28889.23
563.10	29427.56
563.26	28959.45
563.42	29876.94
563.59	29247.33
563.75	28840.08
563.92	28968.81
564.08	29172.44
564.24	29207.55
564.41	29064.77
564.57	29146.69
564.74	29785.66
564.90	29338.62
565.07	29479.05
565.23	29057.75
565.39	29001.58
565.56	29237.97
565.72	29415.85
565.88	29151.37
566.05	29289.46
566.21	29216.91
566.38	29270.74
566.54	29259.04
566.70	29481.39
566.87	29696.72
567.03	29591.39
567.19	29764.59
567.36	29315.21
567.52	29385.43
567.68	29481.39
567.85	29378.40
568.01	29619.48
568.17	29383.09
568.34	29916.73
568.50	29701.40
568.66	29443.94
568.83	29579.69
568.99	29818.42
569.15	29345.64
569.32	29598.41
569.48	29095.20
569.64	29656.93
569.81	29495.43
569.97	29582.03
570.13	29617.14
570.30	29404.15
570.46	29731.83
570.62	30295.89
570.78	29638.20
570.95	29762.25
571.11	29488.41
571.27	29202.86
571.43	29605.44
571.60	29626.50
571.76	29645.23
571.92	29811.40
572.09	30082.91
572.25	29905.02
572.41	29916.73
572.57	29750.55
572.74	29556.28
572.90	29476.71
573.06	29399.47
573.22	29598.41
573.38	29869.92
573.55	29991.62
573.71	30118.01
573.87	29521.18
574.03	29734.17
574.20	29893.32
574.36	29799.70
574.52	29914.39
574.68	29586.71
574.84	29869.92
575.01	29710.76
575.17	29806.72
575.33	29724.80
575.49	29848.85
575.65	29848.85
575.82	29834.81
575.98	30127.38
576.14	29874.60
576.30	29905.02
576.46	30178.87
576.62	29724.80
576.79	30017.37
576.95	29883.96
577.11	29809.06
577.27	29993.97
577.43	29916.73
577.59	29968.22
577.75	30251.42
577.92	29731.83
578.08	29518.84
578.24	29862.90
578.40	29663.95
578.56	30045.46
578.72	29638.20
578.88	30239.72
579.04	30202.27
579.21	30050.14
579.37	29867.58
579.53	29668.63
579.69	29736.51
579.85	29617.14
580.01	30094.61
580.17	29860.55
580.33	29989.28
580.49	30115.67
580.65	29979.92
580.82	30160.14
580.98	29865.24
581.14	30321.64
581.30	30031.41
581.46	29677.99
581.62	29736.51
581.78	30031.41
581.94	29802.04
582.10	29649.91
582.26	29935.45
582.42	30012.69
582.58	30396.54
582.74	30176.53
582.90	29935.45
583.06	30174.19
583.22	30115.67
583.38	29848.85
583.54	29766.93
583.70	29853.53
583.86	29937.79
584.02	29905.02
584.18	30464.41
584.34	30132.06
584.50	30419.94
584.66	30150.78
584.82	29715.44
584.98	29996.31
585.14	30047.80
585.30	30029.07
585.46	30153.12
585.62	29818.42
585.78	29979.92
585.94	29792.68
586.10	29900.34
586.26	30157.80
586.42	30293.55
586.58	30143.76
586.74	30260.79
586.90	30253.76
587.06	30136.74
587.22	30501.86
587.38	30155.46
587.54	30569.74
587.70	30345.05
587.86	30347.39
588.02	30501.86
588.18	30639.95
588.34	30218.66
588.49	29869.92
588.65	30096.95
588.81	29961.20
588.97	30471.43
589.13	29724.80
589.29	30192.91
589.45	30361.43
589.61	30267.81
589.77	30543.99
589.93	30377.81
590.08	30712.51
590.24	30717.19
590.40	29972.90
590.56	30738.26
590.72	30452.71
590.88	30272.49
591.04	30085.25
591.20	30639.95
591.35	30506.54
591.51	30719.53
591.67	30529.95
591.83	30668.04
