SpectraSuite Data File
++++++++++++++++++++++++++++++++++++
Date: Fri Oct 18 13:58:00 GMT-05:00 2013
User: bianchi
Dark Spectrum Present: No
Reference Spectrum Present: No
Number of Sampled Component Spectra: 1
Spectrometers: USB2+H05261
Integration Time (usec): 50000 (USB2+H05261)
Spectra Averaged: 1 (USB2+H05261)
Boxcar Smoothing: 0 (USB2+H05261)
Correct for Electrical Dark: No (USB2+H05261)
Strobe/Lamp Enabled: No (USB2+H05261)
Correct for Detector Non-linearity: No (USB2+H05261)
Correct for Stray Light: No (USB2+H05261)
Number of Pixels in Processed Spectrum: 2048
>>>>>Begin Processed Spectral Data<<<<<
365.73	0.00
365.92	0.00
366.12	0.00
366.32	0.00
366.52	0.00
366.72	0.00
366.91	0.00
367.11	0.00
367.31	0.00
367.51	0.00
367.70	0.00
367.90	0.00
368.10	0.00
368.30	0.00
368.49	0.00
368.69	0.00
368.89	0.00
369.09	0.00
369.28	0.00
369.48	0.00
369.68	0.00
369.87	0.00
370.07	0.00
370.27	0.00
370.47	0.00
370.66	105.32
370.86	102.98
371.06	88.94
371.25	149.79
371.45	126.39
371.65	142.77
371.84	145.11
372.04	135.75
372.24	161.50
372.44	184.90
372.63	147.45
372.83	173.20
373.03	175.54
373.22	243.42
373.42	212.99
373.62	173.20
373.81	222.35
374.01	280.86
374.21	262.14
374.40	238.73
374.60	280.86
374.79	220.01
374.99	198.95
375.19	220.01
375.38	224.69
375.58	227.03
375.78	252.78
375.97	222.35
376.17	294.91
376.37	353.42
376.56	285.55
376.76	264.48
376.95	238.73
377.15	339.38
377.35	229.37
377.54	266.82
377.74	224.69
377.93	205.97
378.13	215.33
378.33	304.27
378.52	308.95
378.72	252.78
378.91	315.97
379.11	224.69
379.31	250.44
379.50	318.31
379.70	257.46
379.89	255.12
380.09	292.57
380.28	369.80
380.48	255.12
380.68	287.89
380.87	278.52
381.07	297.25
381.26	320.65
381.46	353.42
381.65	304.27
381.85	339.38
382.04	353.42
382.24	220.01
382.43	358.10
382.63	297.25
382.83	344.06
383.02	322.99
383.22	311.29
383.41	337.04
383.61	339.38
383.80	447.04
384.00	390.87
384.19	372.15
384.39	365.12
384.58	367.46
384.78	355.76
384.97	362.78
385.17	346.40
385.36	390.87
385.56	369.80
385.75	337.04
385.95	423.64
386.14	369.80
386.34	381.51
386.53	351.08
386.72	477.47
386.92	470.45
387.11	367.46
387.31	428.32
387.50	463.43
387.70	346.40
387.89	442.36
388.09	362.78
388.28	433.00
388.48	365.12
388.67	465.77
388.86	468.11
389.06	531.30
389.25	421.30
389.45	528.96
389.64	437.68
389.84	463.43
390.03	470.45
390.22	528.96
390.42	421.30
390.61	491.51
390.81	470.45
391.00	489.17
391.19	559.39
391.39	423.64
391.58	479.81
391.78	512.58
391.97	463.43
392.16	524.28
392.36	573.43
392.55	528.96
392.75	517.26
392.94	596.84
393.13	550.03
393.33	510.24
393.52	531.30
393.71	486.83
393.91	491.51
394.10	585.13
394.29	599.18
394.49	564.07
394.68	575.77
394.88	547.69
395.07	608.54
395.26	587.47
395.46	587.47
395.65	709.18
395.84	631.94
396.04	744.29
396.23	641.31
396.42	587.47
396.62	650.67
396.81	683.44
397.00	631.94
397.19	674.07
397.39	636.63
397.58	739.61
397.77	662.37
397.97	706.84
398.16	681.10
398.35	746.63
398.55	788.76
398.74	753.65
398.93	718.54
399.12	671.73
399.32	669.39
399.51	627.26
399.70	709.18
399.90	786.42
400.09	739.61
400.28	751.31
400.47	748.97
400.67	809.83
400.86	826.21
401.05	699.82
401.24	739.61
401.44	732.59
401.63	734.93
401.82	816.85
402.01	765.36
402.21	816.85
402.40	851.96
402.59	741.95
402.78	830.89
402.97	884.72
403.17	936.21
403.36	873.02
403.55	863.66
403.74	898.77
403.93	875.36
404.13	915.15
404.32	896.43
404.51	976.00
404.70	912.81
404.89	926.85
405.09	994.73
405.28	903.45
405.47	938.55
405.66	898.77
405.85	929.19
406.05	987.71
406.24	882.38
406.43	924.51
406.62	1055.58
406.81	1034.52
407.00	1067.28
407.20	1008.77
407.39	1015.79
407.58	1048.56
407.77	1053.24
407.96	1086.01
408.15	1130.48
408.34	1015.79
408.54	1064.94
408.73	1104.73
408.92	1088.35
409.11	1043.88
409.30	1109.41
409.49	1146.86
409.68	1114.10
409.87	1268.57
410.07	1114.10
410.26	1130.48
410.45	1149.20
410.64	1151.54
410.83	1177.29
411.02	1205.38
411.21	1196.01
411.40	1198.35
411.59	1219.42
411.78	1317.72
411.98	1299.00
412.17	1261.55
412.36	1301.34
412.55	1345.81
412.74	1327.08
412.93	1350.49
413.12	1352.83
413.31	1446.45
413.50	1411.34
413.69	1397.30
413.88	1504.96
414.07	1453.47
414.26	1411.34
414.45	1495.60
414.64	1411.34
414.83	1476.88
415.02	1542.41
415.22	1465.18
415.41	1479.22
415.60	1577.52
415.79	1647.74
415.98	1514.33
416.17	1582.20
416.36	1453.47
416.55	1572.84
416.74	1696.89
416.93	1654.76
417.12	1806.89
417.31	1654.76
417.50	1551.78
417.69	1724.97
417.88	1724.97
418.07	1643.06
418.26	1706.25
418.45	1783.49
418.64	1888.81
418.83	1696.89
419.02	1856.04
419.21	1717.95
419.39	1795.19
419.58	1762.42
419.77	1767.10
419.96	1804.55
420.15	1902.86
420.34	1881.79
420.53	1963.71
420.72	1923.92
420.91	1902.86
421.10	1914.56
421.29	1998.82
421.48	1898.17
421.67	1952.01
421.86	1914.56
422.05	1900.52
422.24	1947.33
422.43	1933.28
422.61	1987.11
422.80	1849.02
422.99	1968.39
423.18	2003.50
423.37	2099.46
423.56	1982.43
423.75	2059.67
423.94	1914.56
424.13	1914.56
424.32	1834.98
424.50	2090.10
424.69	2057.33
424.88	2043.29
425.07	1987.11
425.26	1858.39
425.45	2054.99
425.64	2092.44
425.83	2005.84
426.01	2012.86
426.20	1935.62
426.39	1968.39
426.58	2078.40
426.77	2080.74
426.96	2115.84
427.15	2157.97
427.33	2256.28
427.52	2050.31
427.71	2083.08
427.90	2101.80
428.09	2277.34
428.28	2043.29
428.46	2104.14
428.65	2129.89
428.84	2260.96
429.03	2265.64
429.22	2179.04
429.40	2167.34
429.59	2244.57
429.78	2160.31
429.97	2197.76
430.16	2169.68
430.34	2289.04
430.53	2356.92
430.72	2284.36
430.91	2459.90
431.10	2305.43
431.28	2389.69
431.47	2392.03
431.66	2396.71
431.85	2289.04
432.03	2394.37
432.22	2506.71
432.41	2471.61
432.60	2452.88
432.79	2499.69
432.97	2394.37
433.16	2445.86
433.35	2317.13
433.54	2459.90
433.72	2387.35
433.91	2370.96
434.10	2377.98
434.28	2413.09
434.47	2495.01
434.66	2443.52
434.85	2642.46
435.03	2588.63
435.22	2581.61
435.41	2672.89
435.59	2621.40
435.78	2635.44
435.97	2590.97
436.16	2679.91
436.34	2630.76
436.53	2736.09
436.72	2698.64
436.90	2614.38
437.09	2614.38
437.28	2661.19
437.46	2644.81
437.65	2738.43
437.84	2801.62
438.02	2848.43
438.21	2803.96
438.40	2808.64
438.58	2937.37
438.77	2862.48
438.96	2895.24
439.14	3021.63
439.33	3002.91
439.52	2998.23
439.70	3009.93
439.89	2953.76
440.08	2984.18
440.26	2979.50
440.45	3101.21
440.63	3122.27
440.82	3077.80
441.01	3084.83
441.19	2995.89
441.38	3274.41
441.57	3236.96
441.75	3171.43
441.94	3199.51
442.12	3368.03
442.31	3276.75
442.50	3358.67
442.68	3248.66
442.87	3311.86
443.05	3297.81
443.24	3527.19
443.43	3258.03
443.61	3403.14
443.80	3494.42
443.98	3281.43
444.17	3218.24
444.35	3356.33
444.54	3445.27
444.73	3379.73
444.91	3508.46
445.10	3485.06
445.28	3361.01
445.47	3377.39
445.65	3403.14
445.84	3398.46
446.02	3492.08
446.21	3403.14
446.39	3449.95
446.58	3475.70
446.77	3541.23
446.95	3356.33
447.14	3459.31
447.32	3412.50
447.51	3492.08
447.69	3496.76
447.88	3501.44
448.06	3648.90
448.25	3468.67
448.43	3588.04
448.62	3492.08
448.80	3510.80
448.99	3667.62
449.17	3529.53
449.36	3503.78
449.54	3698.05
449.73	3681.66
449.91	3705.07
450.10	3714.43
450.28	3637.19
450.46	3667.62
450.65	3719.11
450.83	3627.83
451.02	3824.44
451.20	3667.62
451.39	3756.56
451.57	3803.37
451.76	3698.05
451.94	3728.47
452.13	3838.48
452.31	3779.97
452.49	3859.54
452.68	3822.09
452.86	3749.54
453.05	4009.34
453.23	4002.32
453.42	3758.90
453.60	3854.86
453.78	3913.38
453.97	3873.59
454.15	3861.88
454.34	3831.46
454.52	3934.44
454.70	3946.14
454.89	4079.55
455.07	3845.50
455.26	4128.70
455.44	4102.96
455.62	3885.29
455.81	4044.45
455.99	4070.19
456.17	4147.43
456.36	4053.81
456.54	4187.22
456.73	4093.60
456.91	4222.33
457.09	4266.80
457.28	4292.54
457.46	4283.18
457.64	4346.37
457.83	4451.70
458.01	4227.01
458.19	4435.32
458.38	4379.14
458.56	4411.91
458.74	4428.29
458.93	4325.31
459.11	4620.22
459.29	4486.81
459.48	4477.44
459.66	4505.53
459.84	4559.36
460.03	4669.37
460.21	4397.87
460.39	4510.21
460.57	4521.92
460.76	4585.11
460.94	4559.36
461.12	4695.11
461.31	4538.30
461.49	4526.60
461.67	4685.75
461.85	4720.86
462.04	4760.65
462.22	4915.12
462.40	4887.04
462.59	4697.46
462.77	4664.69
462.95	4557.02
463.13	4755.97
463.32	4844.91
463.50	4823.84
463.68	5008.75
463.86	4805.12
464.05	4833.21
464.23	4901.08
464.41	4788.74
464.59	4788.74
464.78	4887.04
464.96	4912.78
465.14	4840.23
465.32	4926.83
465.50	5078.96
465.69	5172.58
465.87	4943.21
466.05	5027.47
466.23	5001.72
466.41	4912.78
466.60	5060.24
466.78	4870.65
466.96	4999.38
467.14	4964.28
467.32	5064.92
467.51	5097.69
467.69	5032.15
467.87	4957.25
468.05	5153.86
468.23	5055.56
468.41	5296.63
468.60	5203.01
468.78	5214.71
468.96	5149.18
469.14	5203.01
469.32	5146.84
469.50	5160.88
469.69	5322.38
469.87	5334.08
470.05	5394.93
470.23	5432.38
470.41	5338.76
470.59	5537.71
470.77	5371.53
470.95	5530.69
471.14	5341.10
471.32	5603.24
471.50	5572.82
471.68	5383.23
471.86	5537.71
472.04	5605.58
472.22	5762.40
472.40	5563.45
472.58	5631.33
472.77	5589.20
472.95	5912.19
473.13	6005.81
473.31	5827.93
473.49	5856.02
473.67	5984.75
473.85	5951.98
474.03	5872.40
474.21	5877.09
474.39	6066.67
474.57	6005.81
474.75	6167.31
474.93	6019.86
475.12	6162.63
475.30	6209.44
475.48	6190.72
475.66	6211.78
475.84	6277.32
476.02	6314.77
476.20	6249.23
476.38	6490.31
476.56	6473.92
476.74	6539.46
476.92	6644.78
477.10	6511.37
477.28	6604.99
477.46	6544.14
477.64	6558.18
477.82	6780.53
478.00	6916.28
478.18	6691.59
478.36	6829.68
478.54	7040.33
478.72	7056.72
478.90	7222.89
479.08	7122.25
479.26	7148.00
479.44	7389.07
479.62	7143.32
479.80	7344.60
479.98	7424.18
480.16	7620.78
480.34	7290.77
480.52	7543.55
480.70	7555.25
480.88	7503.76
481.06	7707.38
481.24	7527.16
481.41	7658.23
481.59	7922.71
481.77	7871.22
481.95	8088.89
482.13	8222.30
482.31	7936.76
482.49	8119.32
482.67	8341.67
482.85	8446.99
483.03	8641.26
483.21	8606.15
483.39	8713.81
483.57	8486.78
483.74	8559.34
483.92	8711.47
484.10	8674.03
484.28	8994.68
484.46	8945.53
484.64	9036.81
484.82	8968.93
485.00	9013.40
485.18	9336.40
485.35	9334.06
485.53	9277.88
485.71	9493.21
485.89	9563.43
486.07	9577.47
486.25	9619.60
486.43	9699.18
486.61	9764.72
486.78	9837.27
486.96	9956.64
487.14	10043.24
487.32	10291.34
487.50	10139.20
487.68	10178.99
487.85	10218.78
488.03	10277.29
488.21	10438.79
488.39	10597.95
488.57	10581.56
488.75	10616.67
488.92	10810.93
489.10	10768.80
489.28	10829.66
489.46	10991.16
489.64	11035.63
489.81	11480.33
489.99	11281.38
490.17	11269.68
490.35	11564.59
490.53	11335.21
490.70	11517.78
490.88	11824.39
491.06	11761.19
491.24	11789.28
491.41	11932.05
491.59	11800.98
491.77	11976.52
491.95	12016.31
492.13	12229.30
492.30	12334.62
492.48	12229.30
492.66	12561.66
492.84	12521.87
493.01	12381.43
493.19	12760.60
493.37	12861.24
493.54	12924.44
493.72	12659.96
493.90	12908.05
494.08	12762.94
494.25	13050.83
494.43	13006.36
494.61	13408.93
494.79	13179.56
494.96	13282.54
495.14	13390.20
495.32	13678.09
495.49	13659.37
495.67	13699.16
495.85	13748.31
496.02	13621.92
496.20	13937.89
496.38	13816.18
496.55	13722.56
496.73	14146.20
496.91	14097.05
497.09	14249.18
497.26	14441.11
497.44	14324.08
497.62	14389.61
497.79	14618.99
497.97	14445.79
498.14	14541.75
498.32	14773.46
498.50	14963.04
498.67	15103.48
498.85	14956.02
499.03	14853.04
499.20	14906.87
499.38	15066.03
499.56	15316.47
499.73	15117.52
499.91	15337.53
500.08	15541.16
500.26	15353.91
500.44	15477.96
500.61	15749.46
500.79	15611.37
500.97	15515.41
501.14	15754.15
501.32	15861.81
501.49	16112.25
501.67	15871.17
501.84	15899.26
502.02	15733.08
502.20	16315.87
502.37	15978.84
502.55	16196.51
502.72	15962.45
502.90	16114.59
503.07	16105.23
503.25	16383.75
503.43	16266.72
503.60	16645.89
503.78	16477.37
503.95	16313.53
504.13	16439.92
504.30	16449.28
504.48	16620.14
504.65	16561.63
504.83	16919.73
505.01	17039.10
505.18	16772.28
505.36	17036.76
505.53	16659.93
505.71	17156.13
505.88	16903.35
506.06	16915.05
506.23	17102.29
506.41	16835.47
506.58	17343.37
506.76	17603.17
506.93	17539.97
507.11	17282.52
507.28	17483.80
507.46	17568.06
507.63	17895.74
507.81	17699.13
507.98	17472.10
508.16	17561.04
508.33	17685.09
508.50	17804.46
508.68	17692.11
508.85	18073.62
509.03	17994.04
509.20	18216.39
509.38	18487.89
509.55	18394.27
509.73	18232.77
509.90	18134.47
510.08	18265.54
510.25	18581.51
510.42	18719.60
510.60	18574.49
510.77	18644.71
510.95	18703.22
511.12	18717.26
511.30	18815.57
511.47	18923.23
511.64	18780.46
511.82	18991.11
511.99	18787.48
512.17	18953.66
512.34	18822.59
512.51	18860.04
512.69	19176.01
512.86	19330.48
513.04	19510.71
513.21	19094.09
513.38	19775.19
513.56	19646.46
513.73	19384.32
513.90	19440.49
514.08	19454.53
514.25	19697.95
514.43	19435.81
514.60	19880.51
514.77	19632.41
514.95	19859.45
515.12	19910.94
515.29	19754.12
515.47	19536.45
515.64	19962.43
515.81	20119.24
515.99	20407.13
516.16	20088.82
516.33	20477.35
516.51	20278.40
516.68	20084.14
516.85	20210.53
517.03	20580.33
517.20	20699.70
517.37	20425.86
517.54	20688.00
517.72	20556.93
517.89	20346.28
518.06	20505.43
518.24	20475.01
518.41	20790.98
518.58	20758.21
518.75	20655.23
518.93	21149.08
519.10	20938.43
519.27	20767.57
519.45	21130.36
519.62	20709.06
519.79	20814.38
519.96	21160.78
520.14	21261.43
520.31	21123.33
520.48	21326.96
520.65	21123.33
520.83	21315.26
521.00	21333.98
521.17	21626.55
521.34	21479.10
521.52	21757.62
521.69	21603.14
521.86	21799.75
522.03	22008.06
522.20	22204.66
522.38	21750.60
522.55	21727.19
522.72	21867.63
522.89	21956.57
523.07	22356.80
523.24	22040.82
523.41	22178.92
523.58	22010.40
523.75	22204.66
523.92	22274.88
524.10	22157.85
524.27	22054.87
524.44	22525.32
524.61	22239.77
524.78	22553.40
524.96	22415.31
525.13	22134.45
525.30	22490.21
525.47	22609.58
525.64	22897.46
525.81	22560.42
525.98	22892.78
526.16	22766.39
526.33	22710.22
526.50	22974.70
526.67	22710.22
526.84	23096.41
527.01	22799.16
527.18	22951.29
527.36	23246.20
527.53	23082.36
527.70	23510.68
527.87	23576.22
528.04	23253.22
528.21	23337.48
528.38	23133.86
528.55	23077.68
528.72	23232.16
528.89	23321.10
529.07	23098.75
529.24	23620.69
529.41	23414.72
529.58	23391.31
529.75	23501.32
529.92	23508.34
530.09	23304.71
530.26	23506.00
530.43	23821.97
530.60	23473.23
530.77	23981.13
530.94	23510.68
531.11	23534.09
531.28	23892.19
531.46	23442.81
531.63	23857.08
531.80	24053.69
531.97	24137.94
532.14	23992.83
532.31	24114.54
532.48	24238.59
532.65	23892.19
532.82	24067.73
532.99	24177.73
533.16	23913.25
533.33	24507.75
533.50	24465.62
533.67	24346.25
533.84	24306.46
534.01	24477.32
534.18	23997.51
534.35	24704.35
534.52	24238.59
534.69	24805.00
534.86	24702.01
535.03	24374.34
535.20	24533.50
535.37	24634.14
535.54	24606.05
535.71	24383.70
535.88	24694.99
536.05	24943.09
536.22	24739.46
536.38	24865.85
536.55	24844.79
536.72	24844.79
536.89	24783.93
537.06	25135.01
537.23	25310.55
537.40	25235.66
537.57	25127.99
537.74	25113.95
537.91	25280.13
538.08	25146.72
538.25	25223.95
538.42	25282.47
538.59	25532.90
538.75	25127.99
538.92	25603.12
539.09	25560.99
539.26	25308.21
539.43	25600.78
539.60	25357.36
539.77	25495.46
539.94	25472.05
540.11	25853.56
540.28	25495.46
540.44	25511.84
540.61	25530.56
540.78	25380.77
540.95	25689.72
541.12	25717.81
541.29	25500.14
541.46	25495.46
541.62	25865.26
541.79	25806.75
541.96	25724.83
542.13	25928.45
542.30	25797.38
542.47	25968.24
542.63	25865.26
542.80	25993.99
542.97	26347.41
543.14	26148.46
543.31	26312.30
543.48	26515.93
543.64	26279.54
543.81	26515.93
543.98	26459.76
544.15	26494.86
544.32	26691.47
544.48	26909.14
544.65	26555.72
544.82	26429.33
544.99	26340.39
545.16	26396.56
545.32	26471.46
545.49	26731.26
545.66	26939.57
545.83	26782.75
546.00	26972.33
546.16	26520.61
546.33	26426.99
546.50	26176.55
546.67	26918.50
546.83	26232.72
547.00	26946.59
547.17	26923.18
547.34	27117.45
547.50	27260.22
547.67	26930.20
547.84	26969.99
548.00	26661.04
548.17	27339.80
548.34	26918.50
548.51	27236.81
548.67	27084.68
548.84	27498.95
549.01	27274.26
549.18	27204.05
549.34	27262.56
549.51	27208.73
549.68	26930.20
549.84	27108.08
550.01	27112.77
550.18	27398.31
550.34	27494.27
550.51	27599.60
550.68	27314.05
550.84	27220.43
551.01	27597.26
551.18	27665.13
551.34	27311.71
551.51	27461.51
551.68	27768.12
551.84	27594.92
552.01	27828.97
552.18	27828.97
552.34	27803.22
552.51	27821.95
552.68	27831.31
552.84	27835.99
553.01	27693.22
553.18	27772.80
553.34	27985.79
553.51	27845.35
553.67	28065.36
553.84	28311.12
554.01	27798.54
554.17	27946.00
554.34	27868.76
554.51	28126.22
554.67	28184.73
554.84	28254.95
555.00	28243.24
555.17	27880.46
555.33	27974.08
555.50	27934.29
555.67	28070.04
555.83	28222.18
556.00	28788.59
556.16	28720.71
556.33	28259.63
556.50	28088.77
556.66	28545.17
556.83	28231.54
556.99	28442.19
557.16	28545.17
557.32	28863.49
557.49	28308.78
557.65	28456.23
557.82	28500.70
557.98	28334.53
558.15	28786.25
558.32	28730.08
558.48	28685.61
558.65	28662.20
558.81	28720.71
558.98	28414.10
559.14	28709.01
559.31	28517.09
559.47	28620.07
559.64	28357.93
559.80	28238.56
559.97	29149.03
560.13	28428.15
560.30	28952.43
560.46	28524.11
560.63	28608.37
560.79	28615.39
560.96	29041.37
561.12	28556.88
561.29	29034.35
561.45	28896.25
561.61	28865.83
561.78	29191.16
561.94	29083.50
562.11	29233.29
562.27	29134.99
562.44	28676.24
562.60	28746.46
562.77	28999.24
562.93	29092.86
563.10	28720.71
563.26	28713.69
563.42	29284.78
563.59	29137.33
563.75	28669.22
563.92	29270.74
564.08	28968.81
564.24	28711.35
564.41	28907.96
564.57	29076.48
564.74	28889.23
564.90	29277.76
565.07	29039.03
565.23	29518.84
565.39	29008.60
565.56	29301.17
565.72	29069.45
565.88	28884.55
566.05	29085.84
566.21	29156.05
566.38	29102.22
566.54	28755.82
566.70	29109.24
566.87	29507.13
567.03	29184.14
567.19	29603.10
567.36	29708.42
567.52	29120.95
567.68	29582.03
567.85	29294.14
568.01	29167.76
568.17	29535.22
568.34	29331.59
568.50	29549.26
568.66	29198.18
568.83	29689.70
568.99	29518.84
569.15	29385.43
569.32	29455.64
569.48	29137.33
569.64	29687.36
569.81	29268.40
569.97	29689.70
570.13	29825.45
570.30	29268.40
570.46	29645.23
570.62	29544.58
570.78	29579.69
570.95	29132.65
571.11	30043.12
571.27	29324.57
571.43	29333.93
571.60	29493.09
571.76	29385.43
571.92	29605.44
572.09	29310.53
572.25	29212.23
572.41	29528.20
572.57	29570.33
572.74	29715.44
572.90	29600.76
573.06	29752.89
573.22	29783.32
573.38	29151.37
573.55	29549.26
573.71	29586.71
573.87	29858.21
574.03	29532.88
574.20	29366.70
574.36	29598.41
574.52	29624.16
574.68	29916.73
574.84	29413.51
575.01	29518.84
575.17	30008.01
575.33	29731.83
575.49	29457.98
575.65	29905.02
575.82	29521.18
575.98	29890.98
576.14	29577.35
576.30	29713.10
576.46	29631.18
576.62	29720.12
576.79	29560.97
576.95	29600.76
577.11	29820.77
577.27	29778.64
577.43	30026.73
577.59	29383.09
577.75	29811.40
577.92	29397.13
578.08	29736.51
578.24	29752.89
578.40	29692.04
578.56	29972.90
578.72	29776.30
578.88	30017.37
579.04	29900.34
579.21	29979.92
579.37	29907.37
579.53	29692.04
579.69	29539.90
579.85	29743.53
580.01	29748.21
580.17	29790.34
580.33	29780.98
580.49	29607.78
580.65	30017.37
580.82	29979.92
580.98	29797.36
581.14	29778.64
581.30	30026.73
581.46	29752.89
581.62	30106.31
581.78	29661.61
581.94	30164.82
582.10	29961.20
582.26	29977.58
582.42	29598.41
582.58	29792.68
582.74	30068.86
582.90	29984.60
583.06	30096.95
583.22	30087.59
583.38	29839.49
583.54	29970.56
583.70	29738.85
583.86	30061.84
584.02	29818.42
584.18	30183.55
584.34	30113.33
584.50	30000.99
584.66	29635.86
584.82	29900.34
584.98	29982.26
585.14	29919.07
585.30	29493.09
585.46	29675.65
585.62	29340.96
585.78	30331.00
585.94	29668.63
586.10	30010.35
586.26	30218.66
586.42	30197.59
586.58	30176.53
586.74	30068.86
586.90	29806.72
587.06	29902.68
587.22	29816.08
587.38	29951.84
587.54	30115.67
587.70	30258.45
587.86	30134.40
588.02	30277.17
588.18	30323.98
588.34	30321.64
588.49	30139.08
588.65	30178.87
588.81	30040.78
588.97	30176.53
589.13	30277.17
589.29	29893.32
589.45	30223.34
589.61	29965.88
589.77	30480.80
589.93	30560.37
590.08	30188.23
590.24	30197.59
590.40	30267.81
590.56	30658.68
590.72	30139.08
590.88	30258.45
591.04	29776.30
591.20	30473.78
591.35	30361.43
591.51	30808.47
591.67	30459.73
591.83	30759.32
591.99	30225.68
