SpectraSuite Data File
++++++++++++++++++++++++++++++++++++
Date: Fri Oct 18 13:58:15 GMT-05:00 2013
User: bianchi
Dark Spectrum Present: No
Reference Spectrum Present: No
Number of Sampled Component Spectra: 1
Spectrometers: USB2+H05261
Integration Time (usec): 50000 (USB2+H05261)
Spectra Averaged: 1 (USB2+H05261)
Boxcar Smoothing: 0 (USB2+H05261)
Correct for Electrical Dark: No (USB2+H05261)
Strobe/Lamp Enabled: No (USB2+H05261)
Correct for Detector Non-linearity: No (USB2+H05261)
Correct for Stray Light: No (USB2+H05261)
Number of Pixels in Processed Spectrum: 2048
>>>>>Begin Processed Spectral Data<<<<<
365.73	0.00
365.92	0.00
366.12	0.00
366.32	0.00
366.52	0.00
366.72	0.00
366.91	0.00
367.11	0.00
367.31	0.00
367.51	0.00
367.70	0.00
367.90	0.00
368.10	0.00
368.30	0.00
368.49	0.00
368.69	0.00
368.89	0.00
369.09	0.00
369.28	0.00
369.48	0.00
369.68	0.00
369.87	0.00
370.07	0.00
370.27	0.00
370.47	9.36
370.66	84.26
370.86	102.98
371.06	147.45
371.25	131.07
371.45	79.58
371.65	152.13
371.84	177.88
372.04	173.20
372.24	189.58
372.44	248.10
372.63	234.05
372.83	220.01
373.03	154.48
373.22	135.75
373.42	163.84
373.62	285.55
373.81	203.63
374.01	238.73
374.21	217.67
374.40	234.05
374.60	180.22
374.79	271.50
374.99	273.84
375.19	224.69
375.38	229.37
375.58	191.92
375.78	208.31
375.97	241.08
376.17	311.29
376.37	229.37
376.56	278.52
376.76	236.39
376.95	283.20
377.15	257.46
377.35	278.52
377.54	278.52
377.74	262.14
377.93	255.12
378.13	208.31
378.33	212.99
378.52	292.57
378.72	280.86
378.91	273.84
379.11	269.16
379.31	285.55
379.50	238.73
379.70	318.31
379.89	358.10
380.09	318.31
380.28	271.50
380.48	269.16
380.68	339.38
380.87	245.76
381.07	266.82
381.26	304.27
381.46	358.10
381.65	362.78
381.85	407.25
382.04	362.78
382.24	395.55
382.43	292.57
382.63	332.36
382.83	280.86
383.02	334.70
383.22	346.40
383.41	313.63
383.61	442.36
383.80	449.38
384.00	327.68
384.19	355.76
384.39	306.61
384.58	365.12
384.78	341.72
384.97	355.76
385.17	367.46
385.36	418.96
385.56	365.12
385.75	397.89
385.95	341.72
386.14	423.64
386.34	421.30
386.53	411.93
386.72	386.19
386.92	440.02
387.11	348.74
387.31	475.13
387.50	437.68
387.70	395.55
387.89	374.49
388.09	381.51
388.28	381.51
388.48	418.96
388.67	418.96
388.86	496.19
389.06	402.57
389.25	447.04
389.45	416.62
389.64	397.89
389.84	482.15
390.03	564.07
390.22	465.77
390.42	461.09
390.61	493.85
390.81	496.19
391.00	414.27
391.19	498.53
391.39	557.05
391.58	486.83
391.78	524.28
391.97	528.96
392.16	538.32
392.36	592.16
392.55	545.34
392.75	610.88
392.94	557.05
393.13	533.64
393.33	608.54
393.52	543.00
393.71	547.69
393.91	566.41
394.10	566.41
394.29	519.60
394.49	512.58
394.68	500.87
394.88	540.66
395.07	559.39
395.26	573.43
395.46	634.29
395.65	564.07
395.84	564.07
396.04	566.41
396.23	627.26
396.42	610.88
396.62	688.12
396.81	613.22
397.00	587.47
397.19	622.58
397.39	582.79
397.58	599.18
397.77	716.20
397.97	695.14
398.16	685.78
398.35	734.93
398.55	681.10
398.74	760.67
398.93	849.61
399.12	732.59
399.32	685.78
399.51	718.54
399.70	763.01
399.90	667.05
400.09	814.51
400.28	767.70
400.47	842.59
400.67	798.12
400.86	718.54
401.05	781.74
401.24	791.10
401.44	807.48
401.63	763.01
401.82	828.55
402.01	826.21
402.21	746.63
402.40	823.87
402.59	863.66
402.78	875.36
402.97	891.74
403.17	807.48
403.36	844.93
403.55	791.10
403.74	959.62
403.93	889.40
404.13	889.40
404.32	866.00
404.51	971.32
404.70	882.38
404.89	844.93
405.09	966.64
405.28	976.00
405.47	894.08
405.66	931.53
405.85	973.66
406.05	994.73
406.24	922.17
406.43	994.73
406.62	1081.33
406.81	1029.84
407.00	1013.45
407.20	947.92
407.39	1001.75
407.58	1041.54
407.77	1008.77
407.96	1062.60
408.15	1090.69
408.34	978.34
408.54	1104.73
408.73	1041.54
408.92	1137.50
409.11	1142.18
409.30	1025.15
409.49	1107.07
409.68	1193.67
409.87	1064.94
410.07	1196.01
410.26	1170.27
410.45	1174.95
410.64	1217.08
410.83	1233.46
411.02	1191.33
411.21	1334.11
411.40	1181.97
411.59	1364.53
411.78	1282.61
411.98	1270.91
412.17	1226.44
412.36	1280.27
412.55	1348.15
412.74	1448.79
412.93	1378.58
413.12	1348.15
413.31	1444.11
413.50	1373.89
413.69	1416.02
413.88	1509.65
414.07	1497.94
414.26	1509.65
414.45	1561.14
414.64	1476.88
414.83	1596.25
415.02	1479.22
415.22	1542.41
415.41	1425.39
415.60	1551.78
415.79	1519.01
415.98	1504.96
416.17	1638.38
416.36	1584.54
416.55	1572.84
416.74	1619.65
416.93	1547.09
417.12	1703.91
417.31	1633.69
417.50	1582.20
417.69	1680.50
417.88	1809.23
418.07	1673.48
418.26	1692.21
418.45	1774.13
418.64	1806.89
418.83	1795.19
419.02	1713.27
419.21	1678.16
419.39	1757.74
419.58	1788.17
419.77	1811.57
419.96	1881.79
420.15	1856.04
420.34	1860.73
420.53	1863.07
420.72	1870.09
420.91	1893.49
421.10	1849.02
421.29	1874.77
421.48	1933.28
421.67	1968.39
421.86	1926.26
422.05	1935.62
422.24	1949.67
422.43	2022.22
422.61	1895.83
422.80	2010.52
422.99	2097.12
423.18	1980.09
423.37	2043.29
423.56	2038.61
423.75	1928.60
423.94	1973.07
424.13	1832.64
424.32	1994.14
424.50	2038.61
424.69	2132.23
424.88	1994.14
425.07	1975.41
425.26	1891.15
425.45	2047.97
425.64	2111.16
425.83	1963.71
426.01	2008.18
426.20	2001.16
426.39	2050.31
426.58	2038.61
426.77	2087.76
426.96	2029.24
427.15	2136.91
427.33	2033.93
427.52	2092.44
427.71	2174.36
427.90	2047.97
428.09	2094.78
428.28	2169.68
428.46	2059.67
428.65	2094.78
428.84	2270.32
429.03	2256.28
429.22	2188.40
429.40	2286.70
429.59	2225.85
429.78	2087.76
429.97	2155.63
430.16	2174.36
430.34	2263.30
430.53	2263.30
430.72	2258.62
430.91	2356.92
431.10	2375.64
431.28	2354.58
431.47	2420.11
431.66	2471.61
431.85	2232.87
432.03	2377.98
432.22	2420.11
432.41	2368.62
432.60	2445.86
432.79	2417.77
432.97	2504.37
433.16	2392.03
433.35	2392.03
433.54	2452.88
433.72	2497.35
433.91	2555.86
434.10	2539.48
434.28	2476.29
434.47	2509.05
434.66	2612.04
434.85	2630.76
435.03	2518.42
435.22	2633.10
435.41	2665.87
435.59	2654.17
435.78	2640.12
435.97	2661.19
436.16	2672.89
436.34	2602.68
436.53	2789.92
436.72	2712.68
436.90	2644.81
437.09	2644.81
437.28	2757.15
437.46	2810.98
437.65	2761.83
437.84	2712.68
438.02	2729.06
438.21	2827.37
438.40	2712.68
438.58	2708.00
438.77	2815.66
438.96	2878.86
439.14	2932.69
439.33	3000.57
439.52	3014.61
439.70	3129.30
439.89	3047.38
440.08	3068.44
440.26	3068.44
440.45	3098.87
440.63	3045.04
440.82	3073.12
441.01	3096.53
441.19	3129.30
441.38	3176.11
441.57	3220.58
441.75	3192.49
441.94	3304.84
442.12	3117.59
442.31	3407.82
442.50	3368.03
442.68	3283.77
442.87	3243.98
443.05	3281.43
443.24	3309.52
443.43	3265.05
443.61	3393.78
443.80	3489.74
443.98	3300.16
444.17	3265.05
444.35	3325.90
444.54	3508.46
444.73	3440.59
444.91	3372.71
445.10	3407.82
445.28	3438.25
445.47	3391.44
445.65	3346.97
445.84	3517.83
446.02	3562.30
446.21	3447.61
446.39	3503.78
446.58	3492.08
446.77	3660.60
446.95	3384.41
447.14	3489.74
447.32	3449.95
447.51	3482.72
447.69	3389.10
447.88	3466.33
448.06	3508.46
448.25	3412.50
448.43	3566.98
448.62	3489.74
448.80	3496.76
448.99	3630.17
449.17	3634.85
449.36	3569.32
449.54	3681.66
449.73	3688.68
449.91	3693.37
450.10	3691.02
450.28	3826.78
450.46	3789.33
450.65	3707.41
450.83	3667.62
451.02	3714.43
451.20	3791.67
451.39	3829.12
451.57	3714.43
451.76	3632.51
451.94	3798.69
452.13	3838.48
452.31	3796.35
452.49	3866.56
452.68	3705.07
452.86	3896.99
453.05	3899.33
453.23	3922.74
453.42	3789.33
453.60	3943.80
453.78	3946.14
453.97	3838.48
454.15	3950.82
454.34	3936.78
454.52	3988.27
454.70	3995.29
454.89	4067.85
455.07	4002.32
455.26	4065.51
455.44	4229.35
455.62	4035.08
455.81	4131.05
455.99	4161.47
456.17	4112.32
456.36	4147.43
456.54	4175.52
456.73	4102.96
456.91	4329.99
457.09	4280.84
457.28	4402.55
457.46	4147.43
457.64	4367.44
457.83	4322.97
458.01	4100.62
458.19	4348.72
458.38	4231.69
458.56	4285.52
458.74	4365.10
458.93	4219.99
459.11	4358.08
459.29	4395.53
459.48	4388.50
459.66	4500.85
459.84	4557.02
460.03	4587.45
460.21	4468.08
460.39	4552.34
460.57	4334.67
460.76	4451.70
460.94	4592.13
461.12	4629.58
461.31	4561.70
461.49	4559.36
461.67	4723.20
461.85	4699.80
462.04	4638.94
462.22	4966.62
462.40	4835.55
462.59	4638.94
462.77	4643.62
462.95	4821.50
463.13	4723.20
463.32	4732.56
463.50	4868.31
463.68	4887.04
463.86	4744.27
464.05	4716.18
464.23	4868.31
464.41	4744.27
464.59	4767.67
464.78	4983.00
464.96	4954.91
465.14	4819.16
465.32	4957.25
465.50	4908.10
465.69	5069.60
465.87	4919.81
466.05	4922.15
466.23	4968.96
466.41	4910.44
466.60	5114.07
466.78	5090.67
466.96	5186.63
467.14	5135.14
467.32	4987.68
467.51	5198.33
467.69	5029.81
467.87	5076.62
468.05	5252.16
468.23	5195.99
468.41	5114.07
468.60	5268.55
468.78	5245.14
468.96	5231.10
469.14	5423.02
469.32	5315.36
469.50	5252.16
469.69	5310.68
469.87	5338.76
470.05	5416.00
470.23	5366.85
470.41	5430.04
470.59	5416.00
470.77	5486.22
470.95	5408.98
471.14	5619.63
471.32	5310.68
471.50	5542.39
471.68	5504.94
471.86	5551.75
472.04	5565.79
472.22	5668.78
472.40	5680.48
472.58	5643.03
472.77	5839.64
472.95	5748.36
473.13	5935.60
473.31	5790.49
473.49	5830.27
473.67	5816.23
473.85	6005.81
474.03	5898.15
474.21	6024.54
474.39	6181.35
474.57	6033.90
474.75	6202.42
474.93	6059.65
475.12	6071.35
475.30	6265.61
475.48	6270.30
475.66	6143.91
475.84	6272.64
476.02	6078.37
476.20	6375.62
476.38	6363.92
476.56	6670.53
476.74	6429.45
476.92	6509.03
477.10	6473.92
477.28	6588.61
477.46	6600.31
477.64	6691.59
477.82	6796.92
478.00	7042.67
478.18	6986.50
478.36	7061.40
478.54	7314.17
478.72	6946.71
478.90	7136.29
479.08	7087.14
479.26	7180.76
479.44	7190.13
479.62	7335.24
479.80	7353.96
479.98	7368.01
480.16	7618.44
480.34	7400.77
480.52	7641.85
480.70	7875.90
480.88	7590.36
481.06	7693.34
481.24	7566.95
481.41	7822.07
481.59	7819.73
481.77	7969.52
481.95	7934.42
482.13	8091.23
482.31	8100.59
482.49	8262.09
482.67	8472.74
482.85	8566.36
483.03	8301.88
483.21	8418.91
483.39	8482.10
483.57	8643.60
483.74	8711.47
483.92	8592.11
484.10	8613.17
484.28	8891.70
484.46	9205.33
484.64	8952.55
484.82	8966.59
485.00	9142.13
485.18	9341.08
485.35	9373.85
485.53	9390.23
485.71	9362.14
485.89	9516.62
486.07	9535.34
486.25	9458.10
486.43	9706.20
486.61	9696.84
486.78	9727.27
486.96	9832.59
487.14	10150.90
487.32	10202.40
487.50	10284.31
487.68	10129.84
487.85	10139.20
488.03	10225.80
488.21	10497.30
488.39	10457.51
488.57	10686.89
488.75	10684.55
488.92	10726.68
489.10	10890.51
489.28	10726.68
489.46	10977.11
489.64	11089.46
489.81	11297.77
489.99	11379.68
490.17	11363.30
490.35	11297.77
490.53	11290.74
490.70	11644.17
490.88	11632.46
491.06	11719.06
491.24	11702.68
491.41	11485.01
491.59	11819.71
491.77	11960.14
491.95	12210.57
492.13	12086.53
492.30	12154.40
492.48	12348.67
492.66	12189.51
492.84	12320.58
493.01	12395.48
493.19	12461.01
493.37	12762.94
493.54	12814.43
493.72	12847.20
493.90	12697.41
494.08	12718.47
494.25	13205.30
494.43	13238.07
494.61	13266.16
494.79	13413.61
494.96	13458.08
495.14	13535.32
495.32	13572.77
495.49	13509.57
495.67	13593.83
495.85	13617.24
496.02	14092.37
496.20	13741.29
496.38	13755.33
496.55	14113.43
496.73	14052.58
496.91	14111.09
497.09	14602.60
497.26	14312.38
497.44	14427.06
497.62	14387.27
497.79	14464.51
497.97	14508.98
498.14	14455.15
498.32	14937.30
498.50	14726.65
498.67	15201.78
498.85	14965.39
499.03	14731.33
499.20	15126.88
499.38	14860.06
499.56	15051.99
499.73	15433.49
499.91	15239.23
500.08	15424.13
500.26	15255.61
500.44	15571.58
500.61	15800.96
500.79	15426.47
500.97	15693.29
501.14	15524.77
501.32	15852.45
501.49	15836.06
501.67	15679.25
501.84	15920.32
502.02	15786.91
502.20	16002.24
502.37	16126.29
502.55	15882.88
502.72	16180.12
502.90	16248.00
503.07	16109.91
503.25	16142.67
503.43	16231.62
503.60	16465.67
503.78	16449.28
503.95	16414.18
504.13	16243.32
504.30	16585.04
504.48	16489.07
504.65	16568.65
504.83	17085.91
505.01	16781.64
505.18	16903.35
505.36	17144.42
505.53	16842.50
505.71	16793.34
505.88	17132.72
506.06	17055.48
506.23	17287.20
506.41	17362.09
506.58	17273.15
506.76	17341.03
506.93	17322.30
507.11	17198.26
507.28	17460.40
507.46	17160.81
507.63	17481.46
507.81	17680.41
507.98	17539.97
508.16	17734.24
508.33	17923.82
508.50	17858.29
508.68	17837.22
508.85	18024.47
509.03	17860.63
509.20	18263.20
509.38	18281.92
509.55	18157.88
509.73	18349.80
509.90	18380.23
510.08	18162.56
510.25	18183.62
510.42	18548.75
510.60	18448.10
510.77	18677.48
510.95	18810.89
511.12	18539.38
511.30	18595.56
511.47	18469.17
511.64	19222.82
511.82	18794.50
511.99	18752.37
512.17	19255.59
512.34	19183.03
512.51	18951.32
512.69	19274.31
512.86	19145.58
513.04	19417.08
513.21	19377.30
513.38	19473.26
513.56	19562.20
513.73	19161.97
513.90	19604.33
514.08	19517.73
514.25	19641.78
514.43	19594.96
514.60	19908.60
514.77	19744.76
514.95	20168.40
515.12	19730.72
515.29	19709.65
515.47	19999.88
515.64	19950.73
515.81	20198.82
515.99	20362.66
516.16	20287.76
516.33	20343.94
516.51	20367.34
516.68	20049.03
516.85	20098.18
517.03	20475.01
517.20	20428.20
517.37	20585.01
517.54	20458.62
517.72	20465.64
517.89	20851.83
518.06	20664.59
518.24	20369.68
518.41	20713.74
518.58	20870.56
518.75	20695.02
518.93	20830.77
519.10	20978.22
519.27	20608.42
519.45	20858.85
519.62	21001.63
519.79	20879.92
519.96	21022.69
520.14	21429.94
520.31	21322.28
520.48	21523.57
520.65	21305.90
520.83	21610.17
521.00	21603.14
521.17	21544.63
521.34	21427.60
521.52	21589.10
521.69	21724.85
521.86	21568.04
522.03	21996.35
522.20	21598.46
522.38	21696.77
522.55	21930.82
522.72	21853.58
522.89	21799.75
523.07	22167.21
523.24	21982.31
523.41	22466.80
523.58	21673.36
523.75	22347.44
523.92	21923.80
524.10	22059.55
524.27	22274.88
524.44	22239.77
524.61	22689.15
524.78	22625.96
524.96	22593.19
525.13	22284.24
525.30	22298.28
525.47	22590.85
525.64	22520.63
525.81	22651.70
525.98	22848.31
526.16	22787.46
526.33	22803.84
526.50	22836.61
526.67	22513.61
526.84	23035.55
527.01	22946.61
527.18	22806.18
527.36	23110.45
527.53	23159.60
527.70	23648.77
527.87	23122.15
528.04	23419.40
528.21	23232.16
528.38	23168.96
528.55	23143.22
528.72	23154.92
528.89	23454.51
529.07	23337.48
529.24	23222.80
529.41	23388.97
529.58	23548.13
529.75	23381.95
529.92	23367.91
530.09	23578.56
530.26	23613.66
530.43	23318.76
530.60	24018.58
530.77	23541.11
530.94	24011.56
531.11	23789.20
531.28	23749.42
531.46	23765.80
531.63	23910.91
531.80	23845.38
531.97	24299.44
532.14	24226.89
532.31	24067.73
532.48	24006.87
532.65	24020.92
532.82	23798.57
532.99	24137.94
533.16	23791.55
533.33	24327.53
533.50	24383.70
533.67	24346.25
533.84	24257.31
534.01	24395.40
534.18	24369.66
534.35	24404.77
534.52	24709.04
534.69	24306.46
534.86	24790.95
535.03	24414.13
535.20	24580.31
535.37	24772.23
535.54	24781.59
535.71	24322.85
535.88	24376.68
536.05	24662.22
536.22	24687.97
536.38	24973.52
536.55	24744.14
536.72	24734.78
536.89	24833.08
537.06	24762.87
537.23	25043.73
537.40	24711.38
537.57	25060.12
537.74	25172.46
537.91	25371.41
538.08	25177.14
538.25	24961.81
538.42	25486.09
538.59	25303.53
538.75	25008.62
538.92	24968.84
539.09	25516.52
539.26	25504.82
539.43	25326.94
539.60	25752.91
539.77	25050.75
539.94	25362.04
540.11	25729.51
540.28	25434.60
540.44	25502.48
540.61	25310.55
540.78	25493.12
540.95	25352.68
541.12	25486.09
541.29	25834.83
541.46	25600.78
541.62	25638.23
541.79	26010.37
541.96	25462.69
542.13	25699.08
542.30	25785.68
542.47	25979.95
542.63	26022.08
542.80	26209.32
542.97	26134.42
543.14	26286.56
543.31	26118.04
543.48	26087.61
543.64	26417.63
543.81	26277.19
543.98	26324.01
544.15	26618.91
544.32	26834.24
544.48	26782.75
544.65	26518.27
544.82	26408.26
544.99	26068.89
545.16	26398.90
545.32	26384.86
545.49	26396.56
545.66	27007.44
545.83	26668.06
546.00	26827.22
546.16	26785.09
546.33	26888.07
546.50	26335.71
546.67	26813.18
546.83	26300.60
547.00	26944.25
547.17	26689.13
547.34	26635.30
547.50	26991.06
547.67	26937.23
547.84	27061.27
548.00	27236.81
548.17	26984.04
548.34	26672.74
548.51	27215.75
548.67	27225.11
548.84	27278.94
549.01	27009.78
549.18	27463.85
549.34	27042.55
549.51	27250.86
549.68	27206.39
549.84	27288.31
550.01	27201.71
550.18	27344.48
550.34	27363.20
550.51	27791.52
550.68	27611.30
550.84	27307.03
551.01	27386.61
551.18	27204.05
551.34	27800.88
551.51	27538.74
551.68	27447.46
551.84	27747.05
552.01	28048.98
552.18	27615.98
552.34	27896.85
552.51	27632.36
552.68	27524.70
552.84	27929.61
553.01	27604.28
553.18	27826.63
553.34	28182.39
553.51	27651.09
553.67	27999.83
553.84	28259.63
554.01	28039.62
554.17	27866.42
554.34	28128.56
554.51	27711.94
554.67	28067.70
554.84	28364.95
555.00	27882.80
555.17	27953.02
555.33	28245.58
555.50	28088.77
555.67	27845.35
555.83	28259.63
556.00	28079.41
556.16	27803.22
556.33	28161.33
556.50	28135.58
556.66	28196.43
556.83	28079.41
556.99	28526.45
557.16	28666.88
557.32	28343.89
557.49	28620.07
557.65	28409.42
557.82	28439.85
557.98	28039.62
558.15	28404.74
558.32	28701.99
558.48	28568.58
558.65	28664.54
558.81	28400.06
558.98	28678.58
559.14	28435.17
559.31	28498.36
559.47	28430.49
559.64	28889.23
559.80	28706.67
559.97	28826.04
560.13	28655.18
560.30	28704.33
560.46	28678.58
560.63	28587.30
560.79	28746.46
560.96	28814.34
561.12	28690.29
561.29	28711.35
561.45	28563.90
561.61	28685.61
561.78	29397.13
561.94	28840.08
562.11	29324.57
562.27	28868.17
562.44	29181.80
562.60	28774.55
562.77	28643.48
562.93	28680.92
563.10	28755.82
563.26	28723.05
563.42	29202.86
563.59	28584.96
563.75	28706.67
563.92	28889.23
564.08	28875.19
564.24	28823.70
564.41	28872.85
564.57	28847.10
564.74	28746.46
564.90	29296.49
565.07	29097.54
565.23	29202.86
565.39	29214.57
565.56	29453.30
565.72	28830.72
565.88	29013.28
566.05	28959.45
566.21	29106.90
566.38	29003.92
566.54	29158.39
566.70	29392.45
566.87	29516.50
567.03	28914.98
567.19	29472.03
567.36	29287.12
567.52	29542.24
567.68	29020.30
567.85	29160.73
568.01	29036.69
568.17	29366.70
568.34	29460.32
568.50	29624.16
568.66	29427.56
568.83	29465.00
568.99	29261.38
569.15	29579.69
569.32	29153.71
569.48	29460.32
569.64	29596.07
569.81	29448.62
569.97	29427.56
570.13	29200.52
570.30	29359.68
570.46	29530.54
570.62	29256.70
570.78	29404.15
570.95	29240.31
571.11	29060.09
571.27	29139.67
571.43	29247.33
571.60	29603.10
571.76	29692.04
571.92	29406.49
572.09	29575.01
572.25	29525.86
572.41	29336.27
572.57	29317.55
572.74	29439.26
572.90	29275.42
573.06	29474.37
573.22	29579.69
573.38	29326.91
573.55	29486.07
573.71	29914.39
573.87	29785.66
574.03	29301.17
574.20	29909.71
574.36	29404.15
574.52	29111.58
574.68	29666.29
574.84	29628.84
575.01	29710.76
575.17	29628.84
575.33	29675.65
575.49	29483.73
575.65	29570.33
575.82	29926.09
575.98	29635.86
576.14	29621.82
576.30	29446.28
576.46	29518.84
576.62	29593.73
576.79	29734.17
576.95	29329.25
577.11	29708.42
577.27	29687.36
577.43	29764.59
577.59	29544.58
577.75	29509.47
577.92	29776.30
578.08	29364.36
578.24	29465.00
578.40	29411.17
578.56	29785.66
578.72	29408.83
578.88	29900.34
579.04	30213.98
579.21	29860.55
579.37	29851.19
579.53	29888.64
579.69	29750.55
579.85	29750.55
580.01	29977.58
580.17	29443.94
580.33	29816.08
580.49	29500.11
580.65	29687.36
580.82	29879.28
580.98	29839.49
581.14	29652.25
581.30	30033.75
581.46	29743.53
581.62	29755.23
581.78	29516.50
581.94	30197.59
582.10	29563.31
582.26	29729.48
582.42	29771.61
582.58	29968.22
582.74	29872.26
582.90	30312.28
583.06	29766.93
583.22	29635.86
583.38	29638.20
583.54	29605.44
583.70	29659.27
583.86	30394.20
584.02	29680.33
584.18	29879.28
584.34	30017.37
584.50	29675.65
584.66	29764.59
584.82	29673.31
584.98	29446.28
585.14	30122.69
585.30	29303.51
585.46	29956.52
585.62	29460.32
585.78	29797.36
585.94	29689.70
586.10	29813.74
586.26	30230.36
586.42	30043.12
586.58	29855.87
586.74	29640.54
586.90	29699.06
587.06	29708.42
587.22	29965.88
587.38	29710.76
587.54	29586.71
587.70	30122.69
587.86	30005.67
588.02	29979.92
588.18	30019.71
588.34	30073.54
588.49	30024.39
588.65	30195.25
588.81	29989.28
588.97	29504.79
589.13	29914.39
589.29	30146.10
589.45	30169.51
589.61	30036.09
589.77	30520.59
589.93	30424.62
590.08	30279.51
590.24	30101.63
590.40	30466.75
590.56	30356.75
590.72	29965.88
590.88	30122.69
591.04	30099.29
591.20	30478.46
591.35	30043.12
591.51	30225.68
591.67	30174.19
591.83	30675.06
591.99	30583.78
