SpectraSuite Data File
++++++++++++++++++++++++++++++++++++
Date: Fri Oct 18 13:58:11 GMT-05:00 2013
User: bianchi
Dark Spectrum Present: No
Reference Spectrum Present: No
Number of Sampled Component Spectra: 1
Spectrometers: USB2+H05261
Integration Time (usec): 50000 (USB2+H05261)
Spectra Averaged: 1 (USB2+H05261)
Boxcar Smoothing: 0 (USB2+H05261)
Correct for Electrical Dark: No (USB2+H05261)
Strobe/Lamp Enabled: No (USB2+H05261)
Correct for Detector Non-linearity: No (USB2+H05261)
Correct for Stray Light: No (USB2+H05261)
Number of Pixels in Processed Spectrum: 2048
>>>>>Begin Processed Spectral Data<<<<<
365.73	0.00
365.92	0.00
366.12	0.00
366.32	0.00
366.52	0.00
366.72	0.00
366.91	0.00
367.11	0.00
367.31	0.00
367.51	0.00
367.70	0.00
367.90	0.00
368.10	0.00
368.30	0.00
368.49	0.00
368.69	0.00
368.89	0.00
369.09	0.00
369.28	0.00
369.48	0.00
369.68	0.00
369.87	0.00
370.07	0.00
370.27	0.00
370.47	0.00
370.66	95.96
370.86	84.26
371.06	168.52
371.25	131.07
371.45	100.64
371.65	198.95
371.84	170.86
372.04	168.52
372.24	210.65
372.44	191.92
372.63	189.58
372.83	194.26
373.03	156.82
373.22	315.97
373.42	196.60
373.62	222.35
373.81	234.05
374.01	236.39
374.21	250.44
374.40	222.35
374.60	189.58
374.79	271.50
374.99	287.89
375.19	224.69
375.38	273.84
375.58	308.95
375.78	280.86
375.97	250.44
376.17	241.08
376.37	264.48
376.56	285.55
376.76	231.71
376.95	299.59
377.15	304.27
377.35	304.27
377.54	238.73
377.74	245.76
377.93	262.14
378.13	292.57
378.33	278.52
378.52	318.31
378.72	273.84
378.91	229.37
379.11	280.86
379.31	339.38
379.50	297.25
379.70	308.95
379.89	299.59
380.09	287.89
380.28	241.08
380.48	332.36
380.68	334.70
380.87	243.42
381.07	320.65
381.26	283.20
381.46	376.83
381.65	362.78
381.85	376.83
382.04	330.02
382.24	358.10
382.43	355.76
382.63	362.78
382.83	353.42
383.02	383.85
383.22	355.76
383.41	367.46
383.61	308.95
383.80	374.49
384.00	379.17
384.19	332.36
384.39	355.76
384.58	362.78
384.78	365.12
384.97	449.38
385.17	271.50
385.36	348.74
385.56	381.51
385.75	358.10
385.95	344.06
386.14	397.89
386.34	444.70
386.53	440.02
386.72	393.21
386.92	454.06
387.11	449.38
387.31	313.63
387.50	381.51
387.70	482.15
387.89	433.00
388.09	456.40
388.28	477.47
388.48	512.58
388.67	442.36
388.86	454.06
389.06	496.19
389.25	521.94
389.45	500.87
389.64	475.13
389.84	468.11
390.03	444.70
390.22	423.64
390.42	454.06
390.61	554.71
390.81	484.49
391.00	510.24
391.19	543.00
391.39	491.51
391.58	475.13
391.78	533.64
391.97	503.22
392.16	496.19
392.36	547.69
392.55	496.19
392.75	559.39
392.94	608.54
393.13	573.43
393.33	557.05
393.52	540.66
393.71	568.75
393.91	606.20
394.10	533.64
394.29	571.09
394.49	606.20
394.68	676.41
394.88	547.69
395.07	589.82
395.26	617.90
395.46	596.84
395.65	685.78
395.84	688.12
396.04	699.82
396.23	692.80
396.42	662.37
396.62	695.14
396.81	669.39
397.00	720.88
397.19	601.52
397.39	690.46
397.58	692.80
397.77	638.97
397.97	713.86
398.16	706.84
398.35	732.59
398.55	706.84
398.74	641.31
398.93	723.23
399.12	692.80
399.32	664.71
399.51	741.95
399.70	807.48
399.90	814.51
400.09	779.40
400.28	819.19
400.47	730.25
400.67	819.19
400.86	713.86
401.05	835.57
401.24	802.80
401.44	814.51
401.63	821.53
401.82	784.08
402.01	760.67
402.21	882.38
402.40	908.13
402.59	781.74
402.78	842.59
402.97	835.57
403.17	882.38
403.36	849.61
403.55	917.49
403.74	898.77
403.93	959.62
404.13	952.60
404.32	896.43
404.51	961.96
404.70	868.34
404.89	964.30
405.09	947.92
405.28	968.98
405.47	926.85
405.66	992.39
405.85	997.07
406.05	1041.54
406.24	1004.09
406.43	987.71
406.62	1046.22
406.81	1025.15
407.00	1004.09
407.20	983.02
407.39	1055.58
407.58	1142.18
407.77	1146.86
407.96	1144.52
408.15	1069.62
408.34	1083.67
408.54	1083.67
408.73	1160.91
408.92	1064.94
409.11	1123.46
409.30	1224.10
409.49	1146.86
409.68	1111.75
409.87	1191.33
410.07	1207.72
410.26	1203.04
410.45	1247.51
410.64	1235.80
410.83	1233.46
411.02	1219.42
411.21	1254.53
411.40	1233.46
411.59	1329.42
411.78	1296.66
411.98	1296.66
412.17	1341.13
412.36	1336.45
412.55	1359.85
412.74	1394.96
412.93	1376.24
413.12	1380.92
413.31	1462.83
413.50	1514.33
413.69	1472.20
413.88	1523.69
414.07	1493.26
414.26	1544.75
414.45	1446.45
414.64	1406.66
414.83	1465.18
415.02	1544.75
415.22	1500.28
415.41	1619.65
415.60	1514.33
415.79	1495.60
415.98	1638.38
416.17	1671.14
416.36	1614.97
416.55	1682.85
416.74	1722.63
416.93	1710.93
417.12	1701.57
417.31	1647.74
417.50	1783.49
417.69	1764.76
417.88	1741.36
418.07	1678.16
418.26	1788.17
418.45	1816.26
418.64	1689.87
418.83	1757.74
419.02	1846.68
419.21	1830.30
419.39	1898.17
419.58	1853.70
419.77	1870.09
419.96	1921.58
420.15	1872.43
420.34	1916.90
420.53	1966.05
420.72	1858.39
420.91	1954.35
421.10	2012.86
421.29	2033.93
421.48	1879.45
421.67	2017.54
421.86	1956.69
422.05	2012.86
422.24	2071.37
422.43	1961.37
422.61	2029.24
422.80	2036.27
422.99	1940.30
423.18	1989.46
423.37	2080.74
423.56	2115.84
423.75	1968.39
423.94	1959.03
424.13	1944.99
424.32	1956.69
424.50	2073.71
424.69	2174.36
424.88	2106.48
425.07	2099.46
425.26	1996.48
425.45	2097.12
425.64	1949.67
425.83	2069.03
426.01	2167.34
426.20	2069.03
426.39	2202.44
426.58	1991.80
426.77	2115.84
426.96	2129.89
427.15	2066.69
427.33	2195.42
427.52	2134.57
427.71	2242.23
427.90	2277.34
428.09	2209.47
428.28	2090.10
428.46	2284.36
428.65	2190.74
428.84	2235.21
429.03	2289.04
429.22	2232.87
429.40	2279.68
429.59	2324.15
429.78	2200.10
429.97	2139.25
430.16	2324.15
430.34	2387.35
430.53	2356.92
430.72	2291.38
430.91	2403.73
431.10	2307.77
431.28	2438.84
431.47	2476.29
431.66	2452.88
431.85	2445.86
432.03	2387.35
432.22	2525.44
432.41	2499.69
432.60	2516.08
432.79	2583.95
432.97	2495.01
433.16	2476.29
433.35	2483.31
433.54	2499.69
433.72	2506.71
433.91	2539.48
434.10	2555.86
434.28	2605.02
434.47	2567.57
434.66	2644.81
434.85	2583.95
435.03	2703.32
435.22	2513.74
435.41	2778.22
435.59	2609.70
435.78	2642.46
435.97	2651.83
436.16	2686.94
436.34	2677.57
436.53	2761.83
436.72	2698.64
436.90	2672.89
437.09	2743.11
437.28	2703.32
437.46	2715.02
437.65	2764.17
437.84	2911.63
438.02	2857.79
438.21	2759.49
438.40	2729.06
438.58	2813.32
438.77	2932.69
438.96	2906.95
439.14	2998.23
439.33	3000.57
439.52	2878.86
439.70	2981.84
439.89	2949.08
440.08	3028.65
440.26	3066.10
440.45	3014.61
440.63	3045.04
440.82	3157.38
441.01	3056.74
441.19	3103.55
441.38	3187.81
441.57	3255.69
441.75	3342.28
441.94	3449.95
442.12	3379.73
442.31	3344.63
442.50	3351.65
442.68	3407.82
442.87	3389.10
443.05	3449.95
443.24	3384.41
443.43	3433.57
443.61	3412.50
443.80	3527.19
443.98	3428.88
444.17	3361.01
444.35	3471.01
444.54	3522.51
444.73	3382.07
444.91	3421.86
445.10	3524.85
445.28	3506.12
445.47	3510.80
445.65	3487.40
445.84	3538.89
446.02	3588.04
446.21	3581.02
446.39	3548.25
446.58	3606.77
446.77	3583.36
446.95	3499.10
447.14	3517.83
447.32	3571.66
447.51	3515.48
447.69	3562.30
447.88	3602.08
448.06	3468.67
448.25	3630.17
448.43	3485.06
448.62	3578.68
448.80	3529.53
448.99	3627.83
449.17	3595.06
449.36	3627.83
449.54	3730.81
449.73	3646.55
449.91	3735.50
450.10	3763.58
450.28	3775.28
450.46	3751.88
450.65	3730.81
450.83	3819.75
451.02	3777.62
451.20	3868.91
451.39	3831.46
451.57	3964.87
451.76	3932.10
451.94	3836.14
452.13	3983.59
452.31	4025.72
452.49	3705.07
452.68	3882.95
452.86	3866.56
453.05	4011.68
453.23	3936.78
453.42	3981.25
453.60	3943.80
453.78	4009.34
453.97	3964.87
454.15	3889.97
454.34	3955.51
454.52	4180.20
454.70	4046.79
454.89	4016.36
455.07	4131.05
455.26	3983.59
455.44	4222.33
455.62	4201.26
455.81	4086.58
455.99	4280.84
456.17	4138.07
456.36	4126.36
456.54	4269.14
456.73	4229.35
456.91	4348.72
457.09	4248.07
457.28	4409.57
457.46	4400.21
457.64	4442.34
457.83	4589.79
458.01	4486.81
458.19	4493.83
458.38	4491.49
458.56	4533.62
458.74	4608.51
458.93	4463.40
459.11	4461.06
459.29	4571.07
459.48	4566.39
459.66	4582.77
459.84	4545.32
460.03	4564.04
460.21	4681.07
460.39	4500.85
460.57	4629.58
460.76	4718.52
460.94	4732.56
461.12	4695.11
461.31	4711.50
461.49	4606.17
461.67	4606.17
461.85	4662.35
462.04	4713.84
462.22	5071.94
462.40	4746.61
462.59	4695.11
462.77	4919.81
462.95	4905.76
463.13	4905.76
463.32	4842.57
463.50	4933.85
463.68	5050.88
463.86	4990.02
464.05	4823.84
464.23	4887.04
464.41	5048.54
464.59	5018.11
464.78	5179.61
464.96	4943.21
465.14	5076.62
465.32	4940.87
465.50	5057.90
465.69	5071.94
465.87	5107.05
466.05	5055.56
466.23	5027.47
466.41	5156.20
466.60	5238.12
466.78	5093.01
466.96	5074.28
467.14	5165.56
467.32	5158.54
467.51	5172.58
467.69	5151.52
467.87	5324.72
468.05	5184.29
468.23	5249.82
468.41	5240.46
468.60	5158.54
468.78	5188.97
468.96	5390.25
469.14	5235.78
469.32	5303.65
469.50	5247.48
469.69	5401.96
469.87	5406.64
470.05	5394.93
470.23	5469.83
470.41	5575.16
470.59	5418.34
470.77	5495.58
470.95	5586.86
471.14	5804.53
471.32	5799.85
471.50	5678.14
471.68	5565.79
471.86	5692.18
472.04	5717.93
472.22	5940.28
472.40	5685.16
472.58	5947.30
472.77	5834.96
472.95	5823.25
473.13	6146.25
473.31	5998.79
473.49	5907.51
473.67	5846.66
473.85	5837.30
474.03	6134.54
474.21	6001.13
474.39	6122.84
474.57	6052.63
474.75	6249.23
474.93	6272.64
475.12	6303.06
475.30	6518.39
475.48	6085.39
475.66	6389.66
475.84	6492.65
476.02	6487.96
476.20	6628.40
476.38	6595.63
476.56	6691.59
476.74	6773.51
476.92	6663.51
477.10	6642.44
477.28	6759.47
477.46	6679.89
477.64	6736.06
477.82	7075.44
478.00	7080.12
478.18	7054.37
478.36	7187.79
478.54	7169.06
478.72	7171.40
478.90	7204.17
479.08	7126.93
479.26	7400.77
479.44	7508.44
479.62	7440.56
479.80	7466.31
479.98	7571.63
480.16	7805.69
480.34	7676.96
480.52	7843.14
480.70	7789.30
480.88	7674.62
481.06	7913.35
481.24	7925.05
481.41	8044.42
481.59	8018.68
481.77	8234.00
481.95	8198.90
482.13	8194.22
482.31	8124.00
482.49	8334.65
482.67	8369.76
482.85	8365.07
483.03	8528.91
483.21	8709.13
483.39	8823.82
483.57	8727.86
483.74	8723.18
483.92	8936.17
484.10	8896.38
484.28	9069.58
484.46	9123.41
484.64	9198.31
484.82	9121.07
485.00	9308.31
485.18	9479.17
485.35	9469.81
485.53	9551.73
485.71	9731.95
485.89	9743.65
486.07	9586.83
486.25	9774.08
486.43	9914.51
486.61	9813.87
486.78	10211.76
486.96	10202.40
487.14	10394.32
487.32	10265.59
487.50	10101.75
487.68	10516.03
487.85	10497.30
488.03	10576.88
488.21	10803.91
488.39	10724.33
488.57	10590.92
488.75	10909.24
488.92	11110.52
489.10	11304.79
489.28	11187.76
489.46	11150.31
489.64	11288.40
489.81	11632.46
489.99	11555.22
490.17	11707.36
490.35	11712.04
490.53	11730.76
490.70	11831.41
490.88	11854.81
491.06	12020.99
491.24	11878.22
491.41	12128.66
491.59	12278.45
491.77	12140.36
491.95	12477.40
492.13	12348.67
492.30	12552.29
492.48	12517.18
492.66	12606.13
492.84	12589.74
493.01	12924.44
493.19	12833.16
493.37	12798.05
493.54	12894.01
493.72	13123.38
493.90	13074.23
494.08	13261.48
494.25	13212.32
494.43	13294.24
494.61	13415.95
494.79	13657.03
494.96	13582.13
495.14	13734.26
495.32	13701.50
495.49	13617.24
495.67	13994.06
495.85	13914.48
496.02	14031.51
496.20	14134.50
496.38	14122.79
496.55	14221.10
496.73	14455.15
496.91	14265.57
497.09	14516.00
497.26	14394.29
497.44	14497.28
497.62	14696.22
497.79	14707.93
497.97	14927.94
498.14	15117.52
498.32	15166.67
498.50	15066.03
498.67	14981.77
498.85	15494.35
499.03	15232.21
499.20	15428.81
499.38	15185.40
499.56	15470.94
499.73	15826.70
499.91	15618.39
500.08	15915.64
500.26	15850.11
500.44	15646.48
500.61	15779.89
500.79	15620.74
500.97	15948.41
501.14	16435.24
501.32	16039.69
501.49	16182.46
501.67	16046.71
501.84	16407.16
502.02	16287.79
502.20	16285.45
502.37	16498.44
502.55	16540.57
502.72	16367.37
502.90	16166.08
503.07	16475.03
503.25	16437.58
503.43	16652.91
503.60	16744.19
503.78	16884.62
503.95	17102.29
504.13	16776.96
504.30	17128.04
504.48	17071.87
504.65	16713.77
504.83	17238.05
505.01	17221.66
505.18	17287.20
505.36	17551.68
505.53	17654.66
505.71	17497.84
505.88	17600.83
506.06	17252.09
506.23	17626.57
506.41	17455.72
506.58	17652.32
506.76	17727.22
506.93	17895.74
507.11	17647.64
507.28	17888.71
507.46	18181.28
507.63	17975.31
507.81	18338.10
507.98	18249.16
508.16	18225.75
508.33	18230.43
508.50	18237.45
508.68	18380.23
508.85	18618.96
509.03	18438.74
509.20	18295.97
509.38	18813.23
509.55	18663.43
509.73	19246.23
509.90	18773.44
510.08	18597.90
510.25	18785.14
510.42	18625.98
510.60	19187.71
510.77	19309.42
510.95	19449.85
511.12	18874.08
511.30	18843.65
511.47	19215.80
511.64	19290.70
511.82	19213.46
511.99	19283.67
512.17	19370.27
512.34	19550.49
512.51	19419.42
512.69	19632.41
512.86	19445.17
513.04	19805.61
513.21	19644.12
513.38	19882.85
513.56	20224.57
513.73	19726.04
513.90	19681.56
514.08	19924.98
514.25	20161.37
514.43	20189.46
514.60	20341.60
514.77	20266.70
514.95	20421.17
515.12	20374.36
515.29	20547.56
515.47	20620.12
515.64	20407.13
515.81	20716.08
515.99	20372.02
516.16	20795.66
516.33	20585.01
516.51	20840.13
516.68	20570.97
516.85	20718.42
517.03	20510.11
517.20	20931.41
517.37	21104.61
517.54	20940.77
517.72	20905.66
517.89	20783.96
518.06	21102.27
518.24	21226.32
518.41	21095.25
518.58	20978.22
518.75	21427.60
518.93	21348.03
519.10	21081.21
519.27	21715.49
519.45	21289.51
519.62	21357.39
519.79	21458.03
519.96	21448.67
520.14	21731.87
520.31	21806.77
520.48	21678.04
520.65	21736.56
520.83	21689.74
521.00	21855.92
521.17	21689.74
521.34	21933.16
521.52	21956.57
521.69	22024.44
521.86	21989.33
522.03	22185.94
522.20	22052.53
522.38	22349.78
522.55	21994.01
522.72	21846.56
522.89	22534.68
523.07	22513.61
523.24	22560.42
523.41	22820.22
523.58	22431.69
523.75	22850.65
523.92	22707.88
524.10	22705.54
524.27	22558.08
524.44	22817.88
524.61	22897.46
524.78	23030.87
524.96	22806.18
525.13	23035.55
525.30	23068.32
525.47	23096.41
525.64	22656.39
525.81	23068.32
525.98	23470.89
526.16	23236.84
526.33	23379.61
526.50	23480.25
526.67	23077.68
526.84	23267.27
527.01	23531.75
527.18	23779.84
527.36	23646.43
527.53	23592.60
527.70	23927.30
527.87	23920.28
528.04	23608.98
528.21	23672.18
528.38	23569.19
528.55	24039.64
528.72	23798.57
528.89	23892.19
529.07	24079.43
529.24	24053.69
529.41	23864.10
529.58	23784.52
529.75	24173.05
529.92	24013.90
530.09	24133.26
530.26	24044.32
530.43	24180.07
530.60	24046.66
530.77	24166.03
530.94	24545.20
531.11	24276.04
531.28	24456.26
531.46	24479.66
531.63	24264.33
531.80	24741.80
531.97	24397.74
532.14	24694.99
532.31	24683.29
532.48	24926.71
532.65	24931.39
532.82	24657.54
532.99	24863.51
533.16	24837.76
533.33	24788.61
533.50	24872.87
533.67	24716.06
533.84	24907.98
534.01	25099.90
534.18	24397.74
534.35	25074.16
534.52	25156.08
534.69	25261.40
534.86	25048.41
535.03	25053.09
535.20	25177.14
535.37	25214.59
535.54	25556.31
535.71	25036.71
535.88	25633.55
536.05	25687.38
536.22	25570.35
536.38	25553.97
536.55	25764.62
536.72	25549.29
536.89	25537.59
537.06	25626.53
537.23	25661.63
537.40	25324.60
537.57	25671.00
537.74	25628.87
537.91	26031.44
538.08	25764.62
538.25	25352.68
538.42	25907.39
538.59	25879.30
538.75	25617.16
538.92	25565.67
539.09	25614.82
539.26	26092.29
539.43	26047.82
539.60	26101.65
539.77	25874.62
539.94	26188.25
540.11	26024.42
540.28	26073.57
540.44	25907.39
540.61	26120.38
540.78	26113.36
540.95	26450.39
541.12	26113.36
541.29	26153.15
541.46	26260.81
541.62	26195.28
541.79	26237.41
541.96	26167.19
542.13	26462.10
542.30	26331.03
542.47	26574.44
542.63	26590.83
542.80	26895.10
542.97	27096.38
543.14	26728.92
543.31	26773.39
543.48	27009.78
543.64	27105.74
543.81	27285.97
543.98	27269.58
544.15	27311.71
544.32	27246.18
544.48	27503.64
544.65	27075.32
544.82	27166.60
544.99	26684.45
545.16	27243.84
545.32	27428.74
545.49	27442.78
545.66	27204.05
545.83	27426.40
546.00	27721.30
546.16	27344.48
546.33	27126.81
546.50	27105.74
546.67	27082.34
546.83	27171.28
547.00	27592.58
547.17	27562.15
547.34	27618.32
547.50	27714.28
547.67	27810.25
547.84	27922.59
548.00	27758.75
548.17	27953.02
548.34	27889.82
548.51	27852.38
548.67	28149.62
548.84	27784.50
549.01	27943.66
549.18	27866.42
549.34	27655.77
549.51	27791.52
549.68	27955.36
549.84	27887.48
550.01	27885.14
550.18	28046.64
550.34	28119.20
550.51	28135.58
550.68	28348.57
550.84	27936.63
551.01	28212.82
551.18	27620.66
551.34	28402.40
551.51	27880.46
551.68	28116.86
551.84	28376.66
552.01	27950.68
552.18	28231.54
552.34	28299.42
552.51	28531.13
552.68	28292.40
552.84	28591.98
553.01	28285.37
553.18	28367.29
553.34	28374.31
553.51	28238.56
553.67	28788.59
553.84	28924.34
554.01	28599.01
554.17	28641.14
554.34	28767.52
554.51	28201.11
554.67	28481.98
554.84	28629.43
555.00	29001.58
555.17	28545.17
555.33	28903.28
555.50	28945.41
555.67	28748.80
555.83	28786.25
556.00	28919.66
556.16	29331.59
556.33	28711.35
556.50	28840.08
556.66	29029.66
556.83	29092.86
556.99	29006.26
557.16	29369.04
557.32	29109.24
557.49	28926.68
557.65	28896.25
557.82	29029.66
557.98	28980.51
558.15	29364.36
558.32	29151.37
558.48	29228.61
558.65	29399.47
558.81	29165.42
558.98	29118.60
559.14	29165.42
559.31	29046.05
559.47	29195.84
559.64	29355.00
559.80	29422.87
559.97	29413.51
560.13	29369.04
560.30	29289.46
560.46	29858.21
560.63	29460.32
560.79	29560.97
560.96	29708.42
561.12	29483.73
561.29	29247.33
561.45	29472.03
561.61	29476.71
561.78	29385.43
561.94	29373.72
562.11	29483.73
562.27	29535.22
562.44	29532.88
562.60	29701.40
562.77	29502.45
562.93	29642.88
563.10	29734.17
563.26	29710.76
563.42	29617.14
563.59	29647.57
563.75	29862.90
563.92	29837.15
564.08	29509.47
564.24	29858.21
564.41	29467.34
564.57	29699.06
564.74	29436.92
564.90	29668.63
565.07	29890.98
565.23	29937.79
565.39	29886.30
565.56	29865.24
565.72	29563.31
565.88	29729.48
566.05	29797.36
566.21	29621.82
566.38	29916.73
566.54	29867.58
566.70	30211.64
566.87	30015.03
567.03	30258.45
567.19	30082.91
567.36	30108.65
567.52	29947.15
567.68	30040.78
567.85	29888.64
568.01	30085.25
568.17	29867.58
568.34	30424.62
568.50	30197.59
568.66	29928.43
568.83	30710.17
568.99	30263.13
569.15	30108.65
569.32	29827.79
569.48	29626.50
569.64	29979.92
569.81	30249.08
569.97	30103.97
570.13	30225.68
570.30	29956.52
570.46	30480.80
570.62	30429.30
570.78	30204.61
570.95	30368.45
571.11	30511.22
571.27	29998.65
571.43	30000.99
571.60	30064.18
571.76	30340.36
571.92	30302.92
572.09	30499.52
572.25	30340.36
572.41	30225.68
572.57	30347.39
572.74	30286.53
572.90	30480.80
573.06	30239.72
573.22	30340.36
573.38	30455.05
573.55	30199.93
573.71	30419.94
573.87	30778.04
574.03	30387.18
574.20	30263.13
574.36	30506.54
574.52	30445.69
574.68	30391.86
574.84	30274.83
575.01	30192.91
575.17	30258.45
575.33	30213.98
575.49	30230.36
575.65	30342.70
575.82	30314.62
575.98	30745.28
576.14	30515.90
576.30	30368.45
576.46	30450.37
576.62	30611.87
576.79	30450.37
576.95	30403.56
577.11	30298.23
577.27	30361.43
577.43	30817.83
577.59	30803.79
577.75	30822.51
577.92	30487.82
578.08	30155.46
578.24	30384.83
578.40	30497.18
578.56	30424.62
578.72	30501.86
578.88	30534.63
579.04	31002.74
579.21	30323.98
579.37	30668.04
579.53	30764.00
579.69	30361.43
579.85	30464.41
580.01	30206.95
580.17	30260.79
580.33	30424.62
580.49	30457.39
580.65	30546.33
580.82	30829.54
580.98	30319.30
581.14	30745.28
581.30	30726.55
581.46	30675.06
581.62	30913.80
581.78	30373.13
581.94	30581.44
582.10	30476.12
582.26	30471.43
582.42	30607.19
582.58	30553.35
582.74	30494.84
582.90	30974.65
583.06	30721.87
583.22	30515.90
583.38	30225.68
583.54	30473.78
583.70	30567.40
583.86	30572.08
584.02	30345.05
584.18	30939.54
584.34	30637.61
584.50	30717.19
584.66	31110.40
584.82	30153.12
584.98	30778.04
585.14	30466.75
585.30	30316.96
585.46	30553.35
585.62	30623.57
585.78	30815.49
585.94	30536.97
586.10	30939.54
586.26	30536.97
586.42	30958.27
586.58	30866.98
586.74	30881.03
586.90	30600.16
587.06	30382.49
587.22	30773.36
587.38	30522.93
587.54	30899.75
587.70	31143.17
587.86	31061.25
588.02	30745.28
588.18	30972.31
588.34	31154.87
588.49	30981.67
588.65	30710.17
588.81	30789.75
588.97	31246.15
589.13	30831.88
589.29	30836.56
589.45	30974.65
589.61	31227.43
589.77	31232.11
589.93	31227.43
590.08	30916.14
590.24	31002.74
590.40	31297.64
590.56	31311.69
590.72	30976.99
590.88	30565.06
591.04	30789.75
591.20	31285.94
591.35	31206.36
591.51	31372.54
591.67	30845.92
591.83	31566.81
591.99	30958.27
