SpectraSuite Data File
++++++++++++++++++++++++++++++++++++
Date: Fri Oct 18 13:58:36 GMT-05:00 2013
User: bianchi
Dark Spectrum Present: No
Reference Spectrum Present: No
Number of Sampled Component Spectra: 1
Spectrometers: USB2+H05261
Integration Time (usec): 50000 (USB2+H05261)
Spectra Averaged: 1 (USB2+H05261)
Boxcar Smoothing: 0 (USB2+H05261)
Correct for Electrical Dark: No (USB2+H05261)
Strobe/Lamp Enabled: No (USB2+H05261)
Correct for Detector Non-linearity: No (USB2+H05261)
Correct for Stray Light: No (USB2+H05261)
Number of Pixels in Processed Spectrum: 2048
>>>>>Begin Processed Spectral Data<<<<<
365.73	0.00
365.92	0.00
366.12	0.00
366.32	0.00
366.52	0.00
366.72	0.00
366.91	0.00
367.11	0.00
367.31	0.00
367.51	0.00
367.70	0.00
367.90	0.00
368.10	0.00
368.30	0.00
368.49	0.00
368.69	0.00
368.89	0.00
369.09	0.00
369.28	0.00
369.48	0.00
369.68	0.00
369.87	0.00
370.07	0.00
370.27	0.00
370.47	0.00
370.66	65.54
370.86	140.43
371.06	86.60
371.25	173.20
371.45	154.48
371.65	168.52
371.84	135.75
372.04	152.13
372.24	159.16
372.44	100.64
372.63	184.90
372.83	241.08
373.03	159.16
373.22	208.31
373.42	152.13
373.62	161.50
373.81	294.91
374.01	222.35
374.21	177.88
374.40	201.29
374.60	208.31
374.79	201.29
374.99	283.20
375.19	318.31
375.38	198.95
375.58	180.22
375.78	351.08
375.97	234.05
376.17	222.35
376.37	271.50
376.56	318.31
376.76	250.44
376.95	231.71
377.15	285.55
377.35	362.78
377.54	205.97
377.74	264.48
377.93	278.52
378.13	259.80
378.33	252.78
378.52	210.65
378.72	182.56
378.91	320.65
379.11	304.27
379.31	315.97
379.50	250.44
379.70	367.46
379.89	273.84
380.09	252.78
380.28	266.82
380.48	365.12
380.68	348.74
380.87	325.33
381.07	348.74
381.26	301.93
381.46	388.53
381.65	341.72
381.85	250.44
382.04	243.42
382.24	322.99
382.43	360.44
382.63	215.33
382.83	360.44
383.02	330.02
383.22	442.36
383.41	386.19
383.61	337.04
383.80	475.13
384.00	372.15
384.19	409.59
384.39	397.89
384.58	351.08
384.78	346.40
384.97	440.02
385.17	355.76
385.36	461.09
385.56	294.91
385.75	367.46
385.95	362.78
386.14	421.30
386.34	341.72
386.53	461.09
386.72	393.21
386.92	383.85
387.11	458.74
387.31	524.28
387.50	421.30
387.70	470.45
387.89	360.44
388.09	395.55
388.28	402.57
388.48	381.51
388.67	414.27
388.86	496.19
389.06	491.51
389.25	447.04
389.45	433.00
389.64	493.85
389.84	416.62
390.03	454.06
390.22	461.09
390.42	489.17
390.61	433.00
390.81	456.40
391.00	463.43
391.19	374.49
391.39	404.91
391.58	468.11
391.78	521.94
391.97	524.28
392.16	470.45
392.36	528.96
392.55	486.83
392.75	533.64
392.94	524.28
393.13	526.62
393.33	531.30
393.52	568.75
393.71	540.66
393.91	629.60
394.10	573.43
394.29	493.85
394.49	594.50
394.68	603.86
394.88	615.56
395.07	557.05
395.26	503.22
395.46	629.60
395.65	596.84
395.84	697.48
396.04	683.44
396.23	613.22
396.42	620.24
396.62	662.37
396.81	622.58
397.00	657.69
397.19	610.88
397.39	650.67
397.58	695.14
397.77	624.92
397.97	730.25
398.16	676.41
398.35	772.38
398.55	667.05
398.74	627.26
398.93	784.08
399.12	702.16
399.32	645.99
399.51	629.60
399.70	739.61
399.90	727.91
400.09	727.91
400.28	802.80
400.47	812.17
400.67	830.89
400.86	809.83
401.05	758.33
401.24	891.74
401.44	800.46
401.63	779.40
401.82	795.78
402.01	861.32
402.21	835.57
402.40	777.06
402.59	784.08
402.78	882.38
402.97	844.93
403.17	823.87
403.36	961.96
403.55	765.36
403.74	917.49
403.93	915.15
404.13	922.17
404.32	873.02
404.51	861.32
404.70	851.96
404.89	842.59
405.09	976.00
405.28	924.51
405.47	912.81
405.66	983.02
405.85	1018.13
406.05	985.37
406.24	1081.33
406.43	990.05
406.62	964.30
406.81	945.58
407.00	1083.67
407.20	1020.47
407.39	964.30
407.58	1053.24
407.77	994.73
407.96	1060.26
408.15	1090.69
408.34	990.05
408.54	1125.80
408.73	1100.05
408.92	1130.48
409.11	1114.10
409.30	1123.46
409.49	1139.84
409.68	1097.71
409.87	1067.28
410.07	1200.69
410.26	1247.51
410.45	1240.48
410.64	1242.82
410.83	1266.23
411.02	1254.53
411.21	1331.76
411.40	1210.06
411.59	1128.14
411.78	1212.40
411.98	1254.53
412.17	1294.32
412.36	1200.69
412.55	1401.98
412.74	1331.76
412.93	1240.48
413.12	1343.47
413.31	1301.34
413.50	1430.07
413.69	1446.45
413.88	1462.83
414.07	1453.47
414.26	1516.67
414.45	1401.98
414.64	1409.00
414.83	1493.26
415.02	1439.43
415.22	1549.43
415.41	1612.63
415.60	1572.84
415.79	1631.35
415.98	1614.97
416.17	1619.65
416.36	1591.56
416.55	1657.10
416.74	1685.19
416.93	1624.33
417.12	1661.78
417.31	1600.93
417.50	1626.67
417.69	1827.96
417.88	1685.19
418.07	1771.79
418.26	1781.15
418.45	1837.32
418.64	1809.23
418.83	1746.04
419.02	1818.60
419.21	1811.57
419.39	1795.19
419.58	1832.64
419.77	1825.62
419.96	1732.00
420.15	1834.98
420.34	1806.89
420.53	1921.58
420.72	1921.58
420.91	1856.04
421.10	1832.64
421.29	1940.30
421.48	1842.00
421.67	2008.18
421.86	1942.64
422.05	1994.14
422.24	1909.88
422.43	1982.43
422.61	1977.75
422.80	1977.75
422.99	2083.08
423.18	1947.33
423.37	1947.33
423.56	1982.43
423.75	1968.39
423.94	1994.14
424.13	1980.09
424.32	1867.75
424.50	2064.35
424.69	2066.69
424.88	2047.97
425.07	1949.67
425.26	1952.01
425.45	2031.58
425.64	1973.07
425.83	1952.01
426.01	2057.33
426.20	2005.84
426.39	1998.82
426.58	2113.50
426.77	2155.63
426.96	2087.76
427.15	2083.08
427.33	2160.31
427.52	2036.27
427.71	2122.87
427.90	2071.37
428.09	2101.80
428.28	2111.16
428.46	2069.03
428.65	2195.42
428.84	2272.66
429.03	2209.47
429.22	2115.84
429.40	2190.74
429.59	2260.96
429.78	2139.25
429.97	2197.76
430.16	2188.40
430.34	2258.62
430.53	2380.32
430.72	2272.66
430.91	2314.79
431.10	2246.91
431.28	2260.96
431.47	2359.26
431.66	2380.32
431.85	2310.11
432.03	2422.45
432.22	2347.56
432.41	2403.73
432.60	2572.25
432.79	2422.45
432.97	2445.86
433.16	2506.71
433.35	2476.29
433.54	2483.31
433.72	2452.88
433.91	2516.08
434.10	2530.12
434.28	2476.29
434.47	2569.91
434.66	2555.86
434.85	2555.86
435.03	2588.63
435.22	2600.34
435.41	2621.40
435.59	2616.72
435.78	2621.40
435.97	2586.29
436.16	2607.36
436.34	2726.72
436.53	2675.23
436.72	2722.04
436.90	2644.81
437.09	2750.13
437.28	2569.91
437.46	2672.89
437.65	2799.28
437.84	2782.90
438.02	2761.83
438.21	2876.52
438.40	2637.78
438.58	2860.13
438.77	2902.26
438.96	2815.66
439.14	2839.07
439.33	2839.07
439.52	2920.99
439.70	2998.23
439.89	2995.89
440.08	3028.65
440.26	3026.31
440.45	3082.49
440.63	3080.14
440.82	3056.74
441.01	3023.97
441.19	3091.85
441.38	3281.43
441.57	3166.74
441.75	3349.31
441.94	3307.18
442.12	3241.64
442.31	3300.16
442.50	3272.07
442.68	3297.81
442.87	3239.30
443.05	3222.92
443.24	3428.88
443.43	3307.18
443.61	3442.93
443.80	3527.19
443.98	3403.14
444.17	3232.28
444.35	3428.88
444.54	3435.91
444.73	3344.63
444.91	3389.10
445.10	3330.58
445.28	3375.05
445.47	3454.63
445.65	3353.99
445.84	3461.65
446.02	3569.32
446.21	3421.86
446.39	3356.33
446.58	3529.53
446.77	3463.99
446.95	3431.23
447.14	3485.06
447.32	3632.51
447.51	3433.57
447.69	3478.04
447.88	3506.12
448.06	3613.79
448.25	3433.57
448.43	3527.19
448.62	3454.63
448.80	3588.04
448.99	3524.85
449.17	3545.91
449.36	3569.32
449.54	3684.00
449.73	3583.36
449.91	3801.03
450.10	3756.56
450.28	3803.37
450.46	3763.58
450.65	3712.09
450.83	3648.90
451.02	3686.34
451.20	3712.09
451.39	3625.49
451.57	3784.65
451.76	3705.07
451.94	3751.88
452.13	3918.06
452.31	3840.82
452.49	3822.09
452.68	3885.29
452.86	3908.69
453.05	3859.54
453.23	3964.87
453.42	3810.39
453.60	3784.65
453.78	3784.65
453.97	3887.63
454.15	3894.65
454.34	3782.31
454.52	3981.25
454.70	4098.28
454.89	3953.16
455.07	4081.89
455.26	3990.61
455.44	4215.30
455.62	4070.19
455.81	4053.81
455.99	4021.04
456.17	4105.30
456.36	4147.43
456.54	4119.34
456.73	4201.26
456.91	4147.43
457.09	4198.92
457.28	4257.43
457.46	4095.94
457.64	4346.37
457.83	4360.42
458.01	4236.37
458.19	4315.95
458.38	4283.18
458.56	4290.20
458.74	4409.57
458.93	4402.55
459.11	4346.37
459.29	4435.32
459.48	4358.08
459.66	4505.53
459.84	4484.47
460.03	4491.49
460.21	4500.85
460.39	4505.53
460.57	4657.67
460.76	4512.55
460.94	4655.33
461.12	4662.35
461.31	4699.80
461.49	4596.81
461.67	4505.53
461.85	4706.82
462.04	4716.18
462.22	4798.10
462.40	4821.50
462.59	4772.35
462.77	4758.31
462.95	4807.46
463.13	4781.71
463.32	4660.01
463.50	4812.14
463.68	4856.61
463.86	4809.80
464.05	4868.31
464.23	4781.71
464.41	4905.76
464.59	4851.93
464.78	5020.45
464.96	4819.16
465.14	4973.64
465.32	4884.70
465.50	4847.25
465.69	4873.00
465.87	4819.16
466.05	4999.38
466.23	4994.70
466.41	4915.12
466.60	5217.05
466.78	4882.36
466.96	5039.17
467.14	4774.69
467.32	5020.45
467.51	5228.76
467.69	4943.21
467.87	5146.84
468.05	5081.30
468.23	5081.30
468.41	5074.28
468.60	5203.01
468.78	5270.89
468.96	5205.35
469.14	5298.97
469.32	5359.83
469.50	5331.74
469.69	5397.28
469.87	5413.66
470.05	5511.96
470.23	5460.47
470.41	5373.87
470.59	5383.23
470.77	5371.53
470.95	5359.83
471.14	5514.30
471.32	5497.92
471.50	5650.05
471.68	5509.62
471.86	5743.67
472.04	5621.97
472.22	5841.98
472.40	5621.97
472.58	5781.12
472.77	5605.58
472.95	5762.40
473.13	5888.79
473.31	5738.99
473.49	5797.51
473.67	5783.46
473.85	5853.68
474.03	6108.80
474.21	5886.45
474.39	5912.19
474.57	6076.03
474.75	6162.63
474.93	6005.81
475.12	6108.80
475.30	6225.82
475.48	6244.55
475.66	5987.09
475.84	6239.87
476.02	6394.34
476.20	6300.72
476.38	6487.96
476.56	6497.33
476.74	6441.15
476.92	6480.94
477.10	6520.73
477.28	6693.93
477.46	6682.23
477.64	6729.04
477.82	6729.04
478.00	7054.37
478.18	6911.60
478.36	6927.99
478.54	6881.18
478.72	7166.72
478.90	7164.38
479.08	7047.35
479.26	7272.04
479.44	7253.32
479.62	7281.41
479.80	7365.67
479.98	7260.34
480.16	7398.43
480.34	7454.61
480.52	7620.78
480.70	7646.53
480.88	7616.10
481.06	7733.13
481.24	7421.84
481.41	7861.86
481.59	7969.52
481.77	8037.40
481.95	8154.43
482.13	8056.12
482.31	8191.88
482.49	7997.61
482.67	8030.38
482.85	8311.24
483.03	8528.91
483.21	8486.78
483.39	8542.96
483.57	8411.89
483.74	8669.34
483.92	8524.23
484.10	8725.52
484.28	8879.99
484.46	9221.71
484.64	8994.68
484.82	8990.00
485.00	9022.77
485.18	9308.31
485.35	9507.26
485.53	9495.55
485.71	9308.31
485.89	9465.13
486.07	9483.85
486.25	9540.02
486.43	9671.09
486.61	9511.94
486.78	9853.66
486.96	10188.35
487.14	10085.37
487.32	10003.45
487.50	10010.47
487.68	10363.89
487.85	10436.45
488.03	10459.85
488.21	10469.22
488.39	10630.71
488.57	10675.18
488.75	10523.05
488.92	10731.36
489.10	10827.32
489.28	11077.76
489.46	11145.63
489.64	10913.92
489.81	11056.69
489.99	11232.23
490.17	11414.79
490.35	11379.68
490.53	11424.15
490.70	11595.01
490.88	11463.94
491.06	11396.07
491.24	11735.45
491.41	11735.45
491.59	11899.28
491.77	11660.55
491.95	11978.86
492.13	12053.76
492.30	12142.70
492.48	12217.60
492.66	12058.44
492.84	12423.56
493.01	12388.46
493.19	12542.93
493.37	12650.60
493.54	12528.89
493.72	12688.04
493.90	12613.15
494.08	13125.72
494.25	13151.47
494.43	13118.70
494.61	13359.78
494.79	13151.47
494.96	13327.01
495.14	13462.76
495.32	13476.80
495.49	13528.30
495.67	13631.28
495.85	13858.31
496.02	13762.35
496.20	13940.23
496.38	13858.31
496.55	14015.13
496.73	14132.15
496.91	14146.20
497.09	14377.91
497.26	14415.36
497.44	14328.76
497.62	14251.52
497.79	14546.43
497.97	14483.24
498.14	14703.25
498.32	14740.69
498.50	14731.33
498.67	15044.96
498.85	14850.70
499.03	15061.35
499.20	15147.95
499.38	14759.42
499.56	14960.70
499.73	15206.46
499.91	15428.81
500.08	15302.42
500.26	15260.29
500.44	15353.91
500.61	15180.71
500.79	15484.98
500.97	15587.97
501.14	15920.32
501.32	15990.54
501.49	15775.21
501.67	15658.18
501.84	15800.96
502.02	15679.25
502.20	15967.13
502.37	16051.39
502.55	15976.50
502.72	16147.36
502.90	15969.48
503.07	16173.10
503.25	16180.12
503.43	16093.52
503.60	16545.25
503.78	16304.17
503.95	16395.45
504.13	16472.69
504.30	16730.15
504.48	16734.83
504.65	16449.28
504.83	16622.48
505.01	16929.09
505.18	16711.42
505.36	16903.35
505.53	16821.43
505.71	17174.85
505.88	17104.64
506.06	16968.88
506.23	17224.00
506.41	17151.45
506.58	17233.36
506.76	17315.28
506.93	17273.15
507.11	17071.87
507.28	17432.31
507.46	17383.16
507.63	17397.20
507.81	17638.28
507.98	17610.19
508.16	17296.56
508.33	17439.33
508.50	17584.44
508.68	18167.24
508.85	18071.28
509.03	18040.85
509.20	17961.27
509.38	18368.52
509.55	18459.81
509.73	18085.32
509.90	18228.09
510.08	18045.53
510.25	18420.02
510.42	18298.31
510.60	18403.63
510.77	18686.84
510.95	18588.53
511.12	18366.18
511.30	18483.21
511.47	18693.86
511.64	18843.65
511.82	18801.52
511.99	18590.88
512.17	19122.18
512.34	18986.43
512.51	18984.09
512.69	19190.05
512.86	19026.21
513.04	19489.64
513.21	19255.59
513.38	19510.71
513.56	19197.07
513.73	19152.60
513.90	19290.70
514.08	19456.87
514.25	19501.34
514.43	19466.24
514.60	20020.94
514.77	19693.27
514.95	19714.33
515.12	19616.03
515.29	19836.04
515.47	20077.12
515.64	19908.60
515.81	19817.32
515.99	20210.53
516.16	20229.25
516.33	20226.91
516.51	20329.89
516.68	20196.48
516.85	20060.73
517.03	20297.13
517.20	20587.35
517.37	20517.14
517.54	20407.13
517.72	20519.48
517.89	20243.29
518.06	20402.45
518.24	20287.76
518.41	20463.30
518.58	20601.40
518.75	20685.65
518.93	20802.68
519.10	20692.68
519.27	20910.35
519.45	20826.09
519.62	21069.50
519.79	20828.43
519.96	20844.81
520.14	20966.52
520.31	20753.53
520.48	20870.56
520.65	21064.82
520.83	21198.23
521.00	21352.71
521.17	21043.76
521.34	21331.64
521.52	21207.59
521.69	21453.35
521.86	21600.80
522.03	21898.05
522.20	21769.32
522.38	21731.87
522.55	21741.24
522.72	21881.67
522.89	21872.31
523.07	22094.66
523.24	21703.79
523.41	22068.91
523.58	21972.95
523.75	22347.44
523.92	22061.89
524.10	21940.18
524.27	21947.20
524.44	22230.41
524.61	22401.27
524.78	22305.31
524.96	22326.37
525.13	22455.10
525.30	22614.26
525.47	22455.10
525.64	22347.44
525.81	22492.55
525.98	22518.29
526.16	22661.07
526.33	22775.75
526.50	22710.22
526.67	22574.47
526.84	22389.56
527.01	22724.26
527.18	22675.11
527.36	23014.49
527.53	23061.30
527.70	23173.64
527.87	23379.61
528.04	23007.47
528.21	22937.25
528.38	23026.19
528.55	23126.83
528.72	23346.84
528.89	23337.48
529.07	23091.73
529.24	23585.58
529.41	23014.49
529.58	23489.62
529.75	23260.24
529.92	23559.83
530.09	23257.90
530.26	23566.85
530.43	23367.91
530.60	23363.23
530.77	23632.39
530.94	23606.64
531.11	23716.65
531.28	23590.26
531.46	23899.21
531.63	23875.80
531.80	24044.32
531.97	24114.54
532.14	24074.75
532.31	23831.33
532.48	24208.16
532.65	24393.06
532.82	23592.60
532.99	23749.42
533.16	24177.73
533.33	24189.44
533.50	24608.39
533.67	24311.14
533.84	24278.38
534.01	24175.39
534.18	23981.13
534.35	24472.64
534.52	24437.53
534.69	24463.28
534.86	24372.00
535.03	24514.77
535.20	24720.74
535.37	24753.51
535.54	24678.61
535.71	24512.43
535.88	24744.14
536.05	24617.75
536.22	25036.71
536.38	25170.12
536.55	24727.76
536.72	24975.86
536.89	25149.06
537.06	25209.91
537.23	25090.54
537.40	24943.09
537.57	24615.41
537.74	25055.43
537.91	25170.12
538.08	25406.52
538.25	25109.27
538.42	25720.15
538.59	24907.98
538.75	24627.12
538.92	25053.09
539.09	25205.23
539.26	25340.98
539.43	25483.75
539.60	25685.04
539.77	25263.74
539.94	25553.97
540.11	25563.33
540.28	25481.41
540.44	25450.99
540.61	25366.73
540.78	25467.37
540.95	25502.48
541.12	25916.75
541.29	25663.97
541.46	25413.54
541.62	25626.53
541.79	25727.17
541.96	25371.41
542.13	25872.28
542.30	25926.11
542.47	25916.75
542.63	26036.12
542.80	25996.33
542.97	26087.61
543.14	26352.09
543.31	26331.03
543.48	26022.08
543.64	26174.21
543.81	26511.25
543.98	26506.57
544.15	26281.88
544.32	26305.28
544.48	26375.50
544.65	26143.78
544.82	26342.73
544.99	26377.84
545.16	26630.62
545.32	26405.92
545.49	26586.15
545.66	26714.87
545.83	26984.04
546.00	26457.42
546.16	26494.86
546.33	26380.18
546.50	26396.56
546.67	26740.62
546.83	26089.95
547.00	27030.85
547.17	26801.47
547.34	26813.18
547.50	27239.15
547.67	27178.30
547.84	26768.71
548.00	27012.12
548.17	26778.07
548.34	26677.43
548.51	27054.25
548.67	27213.41
548.84	27274.26
549.01	27110.43
549.18	26881.05
549.34	27206.39
549.51	27098.72
549.68	27054.25
549.84	26838.92
550.01	27255.54
550.18	27058.93
550.34	27412.35
550.51	27562.15
550.68	27367.88
550.84	27070.64
551.01	27534.06
551.18	27363.20
551.34	26852.97
551.51	27150.21
551.68	27608.96
551.84	27494.27
552.01	27428.74
552.18	27761.09
552.34	27618.32
552.51	27770.46
552.68	27859.40
552.84	27351.50
553.01	27388.95
553.18	27702.58
553.34	27889.82
553.51	27402.99
553.67	27718.96
553.84	27847.69
554.01	27779.82
554.17	28123.88
554.34	28121.54
554.51	27871.10
554.67	27604.28
554.84	27962.38
555.00	27733.01
555.17	27772.80
555.33	27777.48
555.50	27857.06
555.67	27758.75
555.83	27646.41
556.00	28002.17
556.16	28559.22
556.33	28058.34
556.50	28177.71
556.66	28041.96
556.83	28208.14
556.99	28652.84
557.16	28503.04
557.32	28292.40
557.49	28252.61
557.65	27955.36
557.82	28128.56
557.98	28290.06
558.15	28456.23
558.32	28261.97
558.48	28212.82
558.65	28493.68
558.81	28624.75
558.98	28397.72
559.14	28624.75
559.31	27948.34
559.47	28587.30
559.64	28360.27
559.80	28622.41
559.97	28678.58
560.13	28449.21
560.30	28474.96
560.46	28463.25
560.63	28496.02
560.79	28781.57
560.96	28524.11
561.12	28587.30
561.29	28723.05
561.45	28678.58
561.61	28673.90
561.78	28842.42
561.94	28966.47
562.11	28489.00
562.27	28369.63
562.44	28959.45
562.60	28526.45
562.77	28584.96
562.93	28521.77
563.10	28505.38
563.26	28673.90
563.42	29064.77
563.59	29118.60
563.75	28828.38
563.92	29235.63
564.08	28802.63
564.24	28657.52
564.41	28622.41
564.57	28517.09
564.74	29043.71
564.90	28996.90
565.07	28861.15
565.23	29212.23
565.39	29158.39
565.56	29158.39
565.72	28893.91
565.88	28826.04
566.05	28936.04
566.21	28968.81
566.38	29064.77
566.54	29184.14
566.70	29242.65
566.87	29111.58
567.03	29041.37
567.19	29710.76
567.36	29333.93
567.52	29355.00
567.68	29385.43
567.85	28961.79
568.01	29249.67
568.17	29280.10
568.34	29113.92
568.50	29315.21
568.66	29163.08
568.83	29378.40
568.99	29186.48
569.15	29277.76
569.32	29329.25
569.48	28879.87
569.64	29579.69
569.81	28842.42
569.97	29268.40
570.13	29149.03
570.30	29095.20
570.46	29453.30
570.62	29408.83
570.78	29425.22
570.95	29287.12
571.11	29359.68
571.27	28966.47
571.43	28994.56
571.60	28931.36
571.76	29291.80
571.92	29605.44
572.09	29539.90
572.25	29638.20
572.41	29111.58
572.57	29289.46
572.74	29729.48
572.90	29530.54
573.06	29212.23
573.22	29195.84
573.38	29741.19
573.55	29146.69
573.71	29603.10
573.87	29586.71
574.03	29521.18
574.20	29965.88
574.36	29457.98
574.52	29469.69
574.68	29406.49
574.84	29280.10
575.01	29659.27
575.17	29490.75
575.33	29469.69
575.49	29429.90
575.65	29516.50
575.82	29434.58
575.98	29502.45
576.14	29333.93
576.30	29462.66
576.46	29607.78
576.62	29809.06
576.79	29544.58
576.95	29118.60
577.11	29635.86
577.27	29640.54
577.43	29612.46
577.59	29633.52
577.75	29516.50
577.92	29294.14
578.08	29090.52
578.24	29376.06
578.40	29717.78
578.56	29371.38
578.72	29209.89
578.88	29940.13
579.04	29862.90
579.21	29764.59
579.37	29659.27
579.53	29834.81
579.69	29350.32
579.85	29319.89
580.01	29542.24
580.17	29413.51
580.33	29429.90
580.49	29467.34
580.65	29879.28
580.82	29244.99
580.98	29771.61
581.14	29680.33
581.30	30089.93
581.46	30043.12
581.62	29886.30
581.78	29549.26
581.94	29635.86
582.10	29195.84
582.26	29479.05
582.42	29804.38
582.58	30024.39
582.74	29942.47
582.90	30080.56
583.06	29869.92
583.22	29600.76
583.38	29621.82
583.54	30008.01
583.70	29696.72
583.86	29551.60
584.02	29577.35
584.18	30162.48
584.34	29905.02
584.50	29816.08
584.66	29862.90
584.82	29308.19
584.98	30017.37
585.14	29518.84
585.30	29668.63
585.46	29837.15
585.62	29488.41
585.78	30066.52
585.94	29748.21
586.10	29790.34
586.26	29593.73
586.42	29923.75
586.58	29675.65
586.74	29663.95
586.90	29579.69
587.06	29624.16
587.22	29572.67
587.38	29736.51
587.54	29991.62
587.70	29741.19
587.86	29961.20
588.02	29862.90
588.18	30125.04
588.34	30148.44
588.49	30225.68
588.65	29509.47
588.81	30026.73
588.97	29837.15
589.13	29647.57
589.29	29806.72
589.45	30038.44
589.61	30085.25
589.77	30038.44
589.93	30045.46
590.08	30258.45
590.24	30113.33
590.40	30043.12
590.56	30108.65
590.72	29944.81
590.88	29727.14
591.04	30089.93
591.20	30604.84
591.35	30199.93
591.51	30316.96
591.67	30775.70
591.83	30305.26
591.99	30258.45
