SpectraSuite Data File
++++++++++++++++++++++++++++++++++++
Date: Fri Oct 18 13:58:42 GMT-05:00 2013
User: bianchi
Dark Spectrum Present: No
Reference Spectrum Present: No
Number of Sampled Component Spectra: 1
Spectrometers: USB2+H05261
Integration Time (usec): 50000 (USB2+H05261)
Spectra Averaged: 1 (USB2+H05261)
Boxcar Smoothing: 0 (USB2+H05261)
Correct for Electrical Dark: No (USB2+H05261)
Strobe/Lamp Enabled: No (USB2+H05261)
Correct for Detector Non-linearity: No (USB2+H05261)
Correct for Stray Light: No (USB2+H05261)
Number of Pixels in Processed Spectrum: 2048
>>>>>Begin Processed Spectral Data<<<<<
365.73	0.00
365.92	0.00
366.12	0.00
366.32	0.00
366.52	0.00
366.72	0.00
366.91	0.00
367.11	0.00
367.31	0.00
367.51	0.00
367.70	0.00
367.90	0.00
368.10	0.00
368.30	0.00
368.49	0.00
368.69	0.00
368.89	0.00
369.09	0.00
369.28	0.00
369.48	0.00
369.68	0.00
369.87	0.00
370.07	0.00
370.27	0.00
370.47	0.00
370.66	74.90
370.86	67.88
371.06	145.11
371.25	187.24
371.45	58.51
371.65	189.58
371.84	156.82
372.04	159.16
372.24	227.03
372.44	180.22
372.63	234.05
372.83	220.01
373.03	170.86
373.22	205.97
373.42	243.42
373.62	250.44
373.81	212.99
374.01	234.05
374.21	210.65
374.40	222.35
374.60	220.01
374.79	166.18
374.99	248.10
375.19	241.08
375.38	215.33
375.58	278.52
375.78	227.03
375.97	208.31
376.17	330.02
376.37	212.99
376.56	290.23
376.76	208.31
376.95	285.55
377.15	236.39
377.35	287.89
377.54	234.05
377.74	252.78
377.93	311.29
378.13	299.59
378.33	276.18
378.52	269.16
378.72	355.76
378.91	315.97
379.11	255.12
379.31	273.84
379.50	285.55
379.70	332.36
379.89	294.91
380.09	294.91
380.28	259.80
380.48	290.23
380.68	285.55
380.87	264.48
381.07	262.14
381.26	313.63
381.46	248.10
381.65	315.97
381.85	365.12
382.04	341.72
382.24	341.72
382.43	315.97
382.63	339.38
382.83	315.97
383.02	339.38
383.22	372.15
383.41	304.27
383.61	348.74
383.80	337.04
384.00	393.21
384.19	304.27
384.39	320.65
384.58	360.44
384.78	376.83
384.97	339.38
385.17	404.91
385.36	451.72
385.56	339.38
385.75	447.04
385.95	421.30
386.14	517.26
386.34	386.19
386.53	374.49
386.72	388.53
386.92	381.51
387.11	414.27
387.31	458.74
387.50	383.85
387.70	369.80
387.89	330.02
388.09	393.21
388.28	421.30
388.48	454.06
388.67	409.59
388.86	381.51
389.06	451.72
389.25	418.96
389.45	409.59
389.64	465.77
389.84	484.49
390.03	451.72
390.22	472.79
390.42	517.26
390.61	421.30
390.81	475.13
391.00	519.60
391.19	545.34
391.39	505.56
391.58	500.87
391.78	524.28
391.97	557.05
392.16	458.74
392.36	482.15
392.55	578.11
392.75	645.99
392.94	512.58
393.13	524.28
393.33	507.90
393.52	496.19
393.71	603.86
393.91	559.39
394.10	526.62
394.29	552.37
394.49	566.41
394.68	545.34
394.88	624.92
395.07	624.92
395.26	596.84
395.46	543.00
395.65	617.90
395.84	622.58
396.04	650.67
396.23	533.64
396.42	641.31
396.62	606.20
396.81	662.37
397.00	608.54
397.19	683.44
397.39	674.07
397.58	671.73
397.77	653.01
397.97	685.78
398.16	713.86
398.35	669.39
398.55	627.26
398.74	685.78
398.93	758.33
399.12	746.63
399.32	697.48
399.51	784.08
399.70	695.14
399.90	744.29
400.09	779.40
400.28	777.06
400.47	758.33
400.67	788.76
400.86	791.10
401.05	739.61
401.24	774.72
401.44	835.57
401.63	816.85
401.82	849.61
402.01	898.77
402.21	807.48
402.40	866.00
402.59	835.57
402.78	837.91
402.97	802.80
403.17	870.68
403.36	898.77
403.55	795.78
403.74	917.49
403.93	875.36
404.13	917.49
404.32	802.80
404.51	819.19
404.70	1013.45
404.89	905.79
405.09	926.85
405.28	922.17
405.47	943.24
405.66	840.25
405.85	940.90
406.05	987.71
406.24	938.55
406.43	1027.50
406.62	931.53
406.81	1071.97
407.00	1013.45
407.20	1020.47
407.39	1008.77
407.58	1050.90
407.77	1041.54
407.96	1078.99
408.15	1090.69
408.34	1074.31
408.54	1088.35
408.73	1032.18
408.92	1123.46
409.11	1104.73
409.30	1130.48
409.49	1104.73
409.68	1165.59
409.87	1238.14
410.07	1191.33
410.26	1212.40
410.45	1102.39
410.64	1226.44
410.83	1226.44
411.02	1291.98
411.21	1268.57
411.40	1181.97
411.59	1256.87
411.78	1327.08
411.98	1212.40
412.17	1331.76
412.36	1310.70
412.55	1273.25
412.74	1341.13
412.93	1221.76
413.12	1266.23
413.31	1387.94
413.50	1270.91
413.69	1430.07
413.88	1385.60
414.07	1441.77
414.26	1357.51
414.45	1406.66
414.64	1320.06
414.83	1507.30
415.02	1420.71
415.22	1507.30
415.41	1486.24
415.60	1542.41
415.79	1465.18
415.98	1678.16
416.17	1612.63
416.36	1579.86
416.55	1600.93
416.74	1631.35
416.93	1643.06
417.12	1689.87
417.31	1612.63
417.50	1650.08
417.69	1699.23
417.88	1753.06
418.07	1769.44
418.26	1675.82
418.45	1797.53
418.64	1797.53
418.83	1743.70
419.02	1682.85
419.21	1867.75
419.39	1935.62
419.58	1790.51
419.77	1832.64
419.96	1872.43
420.15	1891.15
420.34	1797.53
420.53	1783.49
420.72	1928.60
420.91	1863.07
421.10	1914.56
421.29	2008.18
421.48	1942.64
421.67	2012.86
421.86	1853.70
422.05	2024.56
422.24	1909.88
422.43	1872.43
422.61	1989.46
422.80	2040.95
422.99	1914.56
423.18	2010.52
423.37	2148.61
423.56	2125.21
423.75	1982.43
423.94	1991.80
424.13	1914.56
424.32	1998.82
424.50	2064.35
424.69	2111.16
424.88	2200.10
425.07	2090.10
425.26	1881.79
425.45	1935.62
425.64	2064.35
425.83	2026.90
426.01	2054.99
426.20	1991.80
426.39	2031.58
426.58	1952.01
426.77	2085.42
426.96	2129.89
427.15	2125.21
427.33	2174.36
427.52	2080.74
427.71	2176.70
427.90	2106.48
428.09	2155.63
428.28	2146.27
428.46	2129.89
428.65	2267.98
428.84	2202.44
429.03	2244.57
429.22	2193.08
429.40	2188.40
429.59	2202.44
429.78	2221.17
429.97	2118.18
430.16	2328.83
430.34	2385.01
430.53	2356.92
430.72	2279.68
430.91	2186.06
431.10	2270.32
431.28	2359.26
431.47	2326.49
431.66	2490.33
431.85	2422.45
432.03	2314.79
432.22	2403.73
432.41	2326.49
432.60	2413.09
432.79	2445.86
432.97	2480.97
433.16	2382.67
433.35	2377.98
433.54	2450.54
433.72	2445.86
433.91	2626.08
434.10	2558.21
434.28	2511.39
434.47	2553.52
434.66	2597.99
434.85	2534.80
435.03	2553.52
435.22	2537.14
435.41	2605.02
435.59	2693.96
435.78	2700.98
435.97	2588.63
436.16	2626.08
436.34	2658.85
436.53	2710.34
436.72	2724.38
436.90	2619.06
437.09	2745.45
437.28	2691.62
437.46	2679.91
437.65	2827.37
437.84	2799.28
438.02	2661.19
438.21	2752.47
438.40	2703.32
438.58	2827.37
438.77	2799.28
438.96	2717.36
439.14	2974.82
439.33	2972.48
439.52	2972.48
439.70	2998.23
439.89	2984.18
440.08	3021.63
440.26	2956.10
440.45	3087.17
440.63	3035.67
440.82	3150.36
441.01	3089.51
441.19	3166.74
441.38	3141.00
441.57	3098.87
441.75	3229.94
441.94	3265.05
442.12	3117.59
442.31	3339.94
442.50	3403.14
442.68	3440.59
442.87	3393.78
443.05	3232.28
443.24	3353.99
443.43	3356.33
443.61	3288.45
443.80	3531.87
443.98	3337.60
444.17	3173.77
444.35	3346.97
444.54	3361.01
444.73	3478.04
444.91	3286.11
445.10	3358.67
445.28	3335.26
445.47	3529.53
445.65	3262.71
445.84	3377.39
446.02	3550.59
446.21	3454.63
446.39	3389.10
446.58	3510.80
446.77	3463.99
446.95	3309.52
447.14	3527.19
447.32	3421.86
447.51	3435.91
447.69	3435.91
447.88	3499.10
448.06	3421.86
448.25	3602.08
448.43	3471.01
448.62	3428.88
448.80	3335.26
448.99	3463.99
449.17	3625.49
449.36	3566.98
449.54	3651.24
449.73	3552.93
449.91	3618.47
450.10	3705.07
450.28	3758.90
450.46	3719.11
450.65	3819.75
450.83	3616.13
451.02	3637.19
451.20	3798.69
451.39	3733.15
451.57	3758.90
451.76	3723.79
451.94	3686.34
452.13	3789.33
452.31	3740.18
452.49	3761.24
452.68	3655.92
452.86	3801.03
453.05	3782.31
453.23	3857.20
453.42	3829.12
453.60	3880.61
453.78	3946.14
453.97	3819.75
454.15	3932.10
454.34	3915.72
454.52	3974.23
454.70	3904.01
454.89	3936.78
455.07	3992.95
455.26	3985.93
455.44	4114.66
455.62	4021.04
455.81	3976.57
455.99	4184.88
456.17	4210.62
456.36	4189.56
456.54	4294.88
456.73	4159.13
456.91	4414.25
457.09	4189.56
457.28	4444.68
457.46	4224.67
457.64	4421.27
457.83	4372.12
458.01	4217.65
458.19	4278.50
458.38	4292.54
458.56	4425.95
458.74	4264.46
458.93	4425.95
459.11	4334.67
459.29	4379.14
459.48	4428.29
459.66	4440.00
459.84	4470.42
460.03	4557.02
460.21	4624.90
460.39	4514.89
460.57	4514.89
460.76	4435.32
460.94	4645.96
461.12	4454.04
461.31	4606.17
461.49	4489.15
461.67	4585.11
461.85	4753.63
462.04	4620.22
462.22	4884.70
462.40	4837.89
462.59	4774.69
462.77	4713.84
462.95	4777.03
463.13	4755.97
463.32	4854.27
463.50	4823.84
463.68	4910.44
463.86	4695.11
464.05	4983.00
464.23	4753.63
464.41	4922.15
464.59	4643.62
464.78	5001.72
464.96	4966.62
465.14	4849.59
465.32	5020.45
465.50	4975.98
465.69	4997.04
465.87	5013.43
466.05	5041.51
466.23	4887.04
466.41	5018.11
466.60	4983.00
466.78	5181.95
466.96	4994.70
467.14	5074.28
467.32	5046.20
467.51	5217.05
467.69	5034.49
467.87	5142.16
468.05	5167.90
468.23	4975.98
468.41	5055.56
468.60	5172.58
468.78	5186.63
468.96	5032.15
469.14	5128.11
469.32	5345.78
469.50	5277.91
469.69	5139.82
469.87	5301.31
470.05	5261.52
470.23	5256.84
470.41	5320.04
470.59	5523.66
470.77	5408.98
470.95	5423.02
471.14	5617.29
471.32	5397.28
471.50	5589.20
471.68	5619.63
471.86	5694.52
472.04	5633.67
472.22	5696.86
472.40	5495.58
472.58	5518.98
472.77	5610.26
472.95	5820.91
473.13	5933.26
473.31	5671.12
473.49	5741.33
473.67	5762.40
473.85	5837.30
474.03	6040.92
474.21	5870.06
474.39	5937.94
474.57	6115.82
474.75	6155.61
474.93	6078.37
475.12	6232.85
475.30	6092.41
475.48	6047.94
475.66	6127.52
475.84	6115.82
476.02	6279.66
476.20	6317.11
476.38	6436.47
476.56	6436.47
476.74	6464.56
476.92	6471.58
477.10	6593.29
477.28	6628.40
477.46	6450.52
477.64	6782.87
477.82	6843.73
478.00	6895.22
478.18	6815.64
478.36	6899.90
478.54	7012.24
478.72	7122.25
478.90	7365.67
479.08	7215.87
479.26	7232.26
479.44	7321.20
479.62	7213.53
479.80	7426.52
479.98	7363.33
480.16	7356.30
480.34	7599.72
480.52	7470.99
480.70	7611.42
480.88	7571.63
481.06	7557.59
481.24	7627.81
481.41	7765.90
481.59	7882.92
481.77	8067.83
481.95	7864.20
482.13	7992.93
482.31	8056.12
482.49	8379.12
482.67	8329.97
482.85	8208.26
483.03	8238.69
483.21	8472.74
483.39	8549.98
483.57	8662.32
483.74	8573.38
483.92	8638.92
484.10	8580.40
484.28	8795.73
484.46	8833.18
484.64	9092.98
484.82	8915.10
485.00	9235.75
485.18	9132.77
485.35	9446.40
485.53	9289.59
485.71	9399.59
485.89	9444.06
486.07	9722.59
486.25	9458.10
486.43	9502.58
486.61	9521.30
486.78	9813.87
486.96	9816.21
487.14	9905.15
487.32	9975.36
487.50	9886.42
487.68	9996.43
487.85	10303.04
488.03	10420.06
488.21	10518.37
488.39	10590.92
488.57	10626.03
488.75	10513.69
488.92	10600.29
489.10	10951.37
489.28	10906.90
489.46	11040.31
489.64	10909.24
489.81	11021.58
489.99	11234.57
490.17	11143.29
490.35	11552.88
490.53	11220.53
490.70	11580.97
490.88	11452.24
491.06	11754.17
491.24	11634.80
491.41	11524.80
491.59	11915.67
491.77	12063.12
491.95	12098.23
492.13	12175.47
492.30	12004.61
492.48	12135.68
492.66	12205.89
492.84	12224.62
493.01	12517.18
493.19	12393.14
493.37	12713.79
493.54	12353.35
493.72	12702.09
493.90	12776.98
494.08	12814.43
494.25	12933.80
494.43	13111.68
494.61	13167.85
494.79	13235.73
494.96	13064.87
495.14	13324.67
495.32	13345.73
495.49	13385.52
495.67	13345.73
495.85	13528.30
496.02	13916.83
496.20	13598.51
496.38	13827.88
496.55	13806.82
496.73	14223.44
496.91	13930.87
497.09	14155.56
497.26	14288.97
497.44	14359.19
497.62	14232.80
497.79	14483.24
497.97	14380.25
498.14	14607.28
498.32	14368.55
498.50	14637.71
498.67	14728.99
498.85	14595.58
499.03	14724.31
499.20	14920.92
499.38	14815.59
499.56	15227.53
499.73	15166.67
499.91	15246.25
500.08	15342.21
500.26	15234.55
500.44	15246.25
500.61	15391.36
500.79	15353.91
500.97	15506.05
501.14	15719.04
501.32	15651.16
501.49	15536.48
501.67	16074.80
501.84	15885.22
502.02	15765.85
502.20	16119.27
502.37	16255.02
502.55	15896.92
502.72	16112.25
502.90	16159.06
503.07	16173.10
503.25	16079.48
503.43	15875.85
503.60	16243.32
503.78	16613.12
503.95	16601.42
504.13	16533.54
504.30	16510.14
504.48	16613.12
504.65	16521.84
504.83	17039.10
505.01	17104.64
505.18	16765.26
505.36	16931.44
505.53	16678.66
505.71	17018.04
505.88	17011.01
506.06	16812.07
506.23	17167.83
506.41	16898.67
506.58	17167.83
506.76	17331.67
506.93	17219.32
507.11	17242.73
507.28	17436.99
507.46	17556.36
507.63	17671.04
507.81	17741.26
507.98	17406.56
508.16	17305.92
508.33	18008.08
508.50	17591.47
508.68	17572.74
508.85	18071.28
509.03	18082.98
509.20	18153.20
509.38	18136.81
509.55	18068.94
509.73	18066.60
509.90	18181.28
510.08	18511.30
510.25	18139.15
510.42	18288.95
510.60	18838.97
510.77	18546.40
510.95	18735.99
511.12	18560.45
511.30	18827.27
511.47	18658.75
511.64	18565.13
511.82	18757.05
511.99	18808.54
512.17	19077.71
512.34	18963.02
512.51	18909.19
512.69	19021.53
512.86	19122.18
513.04	19173.67
513.21	19213.46
513.38	19332.82
513.56	19215.80
513.73	19403.04
513.90	19428.79
514.08	19222.82
514.25	19435.81
514.43	19475.60
514.60	19833.70
514.77	19812.63
514.95	19887.53
515.12	19683.91
515.29	19510.71
515.47	19756.46
515.64	19964.77
515.81	19791.57
515.99	20084.14
516.16	20140.31
516.33	19974.13
516.51	20414.15
516.68	19974.13
516.85	19971.79
517.03	20011.58
517.20	20240.95
517.37	20460.96
517.54	20638.84
517.72	20535.86
517.89	20383.73
518.06	20575.65
518.24	20365.00
518.41	20400.11
518.58	20856.51
518.75	20664.59
518.93	20840.13
519.10	20673.95
519.27	20685.65
519.45	21071.84
519.62	21069.50
519.79	21055.46
519.96	20798.00
520.14	20879.92
520.31	20968.86
520.48	21214.62
520.65	21020.35
520.83	21490.80
521.00	21326.96
521.17	21120.99
521.34	21226.32
521.52	21366.75
521.69	21469.73
521.86	21570.38
522.03	21582.08
522.20	21549.31
522.38	21448.67
522.55	21586.76
522.72	21638.25
522.89	21846.56
523.07	22001.04
523.24	21750.60
523.41	22185.94
523.58	21909.75
523.75	22146.15
523.92	21825.50
524.10	22298.28
524.27	22146.15
524.44	22462.12
524.61	22345.09
524.78	22022.10
524.96	22417.65
525.13	22125.08
525.30	22164.87
525.47	22417.65
525.64	22211.68
525.81	22464.46
525.98	22616.60
526.16	22548.72
526.33	22530.00
526.50	22941.93
526.67	22560.42
526.84	22546.38
527.01	22590.85
527.18	22597.87
527.36	23040.23
527.53	22932.57
527.70	23192.37
527.87	22895.12
528.04	23204.07
528.21	23314.08
528.38	22710.22
528.55	22782.77
528.72	23316.42
528.89	23300.03
529.07	23269.61
529.24	23180.67
529.41	23264.92
529.58	23625.37
529.75	23213.43
529.92	23353.87
530.09	23424.08
530.26	23611.32
530.43	23777.50
530.60	23491.96
530.77	23632.39
530.94	23510.68
531.11	23744.73
531.28	23510.68
531.46	23765.80
531.63	23803.25
531.80	23810.27
531.97	23901.55
532.14	23868.78
532.31	23929.64
532.48	24095.82
532.65	23768.14
532.82	23564.51
532.99	23969.43
533.16	23903.89
533.33	24229.23
533.50	24201.14
533.67	24205.82
533.84	24163.69
534.01	24229.23
534.18	24390.72
534.35	24369.66
534.52	24346.25
534.69	24624.78
534.86	24437.53
535.03	24191.78
535.20	24484.34
535.37	24620.10
535.54	24535.84
535.71	24336.89
535.88	24584.99
536.05	24482.00
536.22	24744.14
536.38	25085.86
536.55	24711.38
536.72	24844.79
536.89	24795.64
537.06	24837.76
537.23	24648.18
537.40	24690.31
537.57	24781.59
537.74	25319.92
537.91	24907.98
538.08	25118.63
538.25	24772.23
538.42	25240.34
538.59	25146.72
538.75	25055.43
538.92	25043.73
539.09	24938.41
539.26	25008.62
539.43	25266.08
539.60	25298.85
539.77	25443.96
539.94	25193.53
540.11	25343.32
540.28	25238.00
540.44	25458.01
540.61	25287.15
540.78	25156.08
540.95	25598.44
541.12	25610.14
541.29	25713.13
541.46	25530.56
541.62	25448.64
541.79	25715.47
541.96	25467.37
542.13	25624.18
542.30	25497.80
542.47	25584.40
542.63	25947.18
542.80	25993.99
542.97	26218.68
543.14	26305.28
543.31	26326.35
543.48	25933.14
543.64	26092.29
543.81	26272.51
543.98	26382.52
544.15	26359.11
544.32	26513.59
544.48	26534.65
544.65	26143.78
544.82	26279.54
544.99	25930.80
545.16	26026.76
545.32	26286.56
545.49	26885.73
545.66	26948.93
545.83	26761.69
546.00	26742.96
546.16	26443.37
546.33	26492.52
546.50	26448.05
546.67	26810.84
546.83	26462.10
547.00	26560.40
547.17	26696.15
547.34	26808.50
547.50	26817.86
547.67	26988.72
547.84	26705.51
548.00	27175.96
548.17	26981.70
548.34	26752.32
548.51	26951.27
548.67	27166.60
548.84	27410.01
549.01	27075.32
549.18	26852.97
549.34	26815.52
549.51	26539.33
549.68	26981.70
549.84	26726.58
550.01	26778.07
550.18	27098.72
550.34	27175.96
550.51	27225.11
550.68	27393.63
550.84	27302.35
551.01	27182.98
551.18	27030.85
551.34	27152.55
551.51	27412.35
551.68	27321.07
551.84	27370.22
552.01	27449.80
552.18	27950.68
552.34	27534.06
552.51	27473.21
552.68	27276.60
552.84	27459.16
553.01	27690.88
553.18	27555.13
553.34	28006.85
553.51	27807.90
553.67	27559.81
553.84	28023.23
554.01	27641.73
554.17	27578.53
554.34	27857.06
554.51	27934.29
554.67	28072.39
554.84	27475.55
555.00	27707.26
555.17	27175.96
555.33	28240.90
555.50	27917.91
555.67	27899.19
555.83	28175.37
556.00	27943.66
556.16	28292.40
556.33	27791.52
556.50	27920.25
556.66	28201.11
556.83	27931.95
556.99	28229.20
557.16	28397.72
557.32	28238.56
557.49	28362.61
557.65	27906.21
557.82	27974.08
557.98	27974.08
558.15	28364.95
558.32	28456.23
558.48	28514.75
558.65	28622.41
558.81	28229.20
558.98	28357.93
559.14	28261.97
559.31	28137.92
559.47	28463.25
559.64	28205.80
559.80	28631.77
559.97	28332.18
560.13	28493.68
560.30	28521.77
560.46	28629.43
560.63	28671.56
560.79	28416.44
560.96	28753.48
561.12	28725.39
561.29	28484.32
561.45	28636.45
561.61	29015.62
561.78	28840.08
561.94	28697.31
562.11	28753.48
562.27	28826.04
562.44	28577.94
562.60	28811.99
562.77	28982.85
562.93	28357.93
563.10	29050.73
563.26	29177.12
563.42	29118.60
563.59	29090.52
563.75	28809.65
563.92	28835.40
564.08	28535.81
564.24	28575.60
564.41	28444.53
564.57	28720.71
564.74	28872.85
564.90	28961.79
565.07	28919.66
565.23	29228.61
565.39	28968.81
565.56	29006.26
565.72	28882.21
565.88	29027.32
566.05	28774.55
566.21	28776.89
566.38	28802.63
566.54	29144.35
566.70	29214.57
566.87	29472.03
567.03	28772.21
567.19	29132.65
567.36	29252.02
567.52	29032.00
567.68	29296.49
567.85	29034.35
568.01	29212.23
568.17	29010.94
568.34	29486.07
568.50	29113.92
568.66	29247.33
568.83	29242.65
568.99	29078.82
569.15	29057.75
569.32	29247.33
569.48	29153.71
569.64	29792.68
569.81	29139.67
569.97	29301.17
570.13	29401.81
570.30	28945.41
570.46	29184.14
570.62	29123.29
570.78	29340.96
570.95	29039.03
571.11	29277.76
571.27	29097.54
571.43	29237.97
571.60	29249.67
571.76	29048.39
571.92	29263.72
572.09	29298.83
572.25	29542.24
572.41	29586.71
572.57	29537.56
572.74	29434.58
572.90	28877.53
573.06	29268.40
573.22	29078.82
573.38	29338.62
573.55	29338.62
573.71	29717.78
573.87	29565.65
574.03	29329.25
574.20	29266.06
574.36	29130.31
574.52	29390.11
574.68	29230.95
574.84	29811.40
575.01	29846.51
575.17	29275.42
575.33	29553.94
575.49	29488.41
575.65	29799.70
575.82	29324.57
575.98	29399.47
576.14	29408.83
576.30	29586.71
576.46	29488.41
576.62	29427.56
576.79	29479.05
576.95	29532.88
577.11	29441.60
577.27	29518.84
577.43	29422.87
577.59	29706.08
577.75	29219.25
577.92	29252.02
578.08	29331.59
578.24	29537.56
578.40	29329.25
578.56	29209.89
578.72	29408.83
578.88	29851.19
579.04	29907.37
579.21	29408.83
579.37	29551.60
579.53	29408.83
579.69	29425.22
579.85	29500.11
580.01	29610.12
580.17	29790.34
580.33	29497.77
580.49	29495.43
580.65	29347.98
580.82	29785.66
580.98	29610.12
581.14	29745.87
581.30	29624.16
581.46	29284.78
581.62	29441.60
581.78	29537.56
581.94	29649.91
582.10	29731.83
582.26	29659.27
582.42	29771.61
582.58	29626.50
582.74	29741.19
582.90	29837.15
583.06	29839.49
583.22	29542.24
583.38	29282.44
583.54	29483.73
583.70	29364.36
583.86	29886.30
584.02	29366.70
584.18	30132.06
584.34	29979.92
584.50	29577.35
584.66	29872.26
584.82	29329.25
584.98	29895.66
585.14	29820.77
585.30	29762.25
585.46	29563.31
585.62	29537.56
585.78	29757.57
585.94	29364.36
586.10	29546.92
586.26	29937.79
586.42	29841.83
586.58	30265.47
586.74	29827.79
586.90	29490.75
587.06	29390.11
587.22	29322.23
587.38	29577.35
587.54	29745.87
587.70	29898.00
587.86	29965.88
588.02	29839.49
588.18	29743.53
588.34	30115.67
588.49	29486.07
588.65	29680.33
588.81	29600.76
588.97	29914.39
589.13	29839.49
589.29	29549.26
589.45	29699.06
589.61	30040.78
589.77	29912.05
589.93	30312.28
590.08	30551.01
590.24	30188.23
590.40	30197.59
590.56	30199.93
590.72	29900.34
590.88	30012.69
591.04	29612.46
591.20	30045.46
591.35	30036.09
591.51	30466.75
591.67	30513.56
591.83	30162.48
591.99	30066.52
