SpectraSuite Data File
++++++++++++++++++++++++++++++++++++
Date: Fri Oct 18 13:58:16 GMT-05:00 2013
User: bianchi
Dark Spectrum Present: No
Reference Spectrum Present: No
Number of Sampled Component Spectra: 1
Spectrometers: USB2+H05261
Integration Time (usec): 50000 (USB2+H05261)
Spectra Averaged: 1 (USB2+H05261)
Boxcar Smoothing: 0 (USB2+H05261)
Correct for Electrical Dark: No (USB2+H05261)
Strobe/Lamp Enabled: No (USB2+H05261)
Correct for Detector Non-linearity: No (USB2+H05261)
Correct for Stray Light: No (USB2+H05261)
Number of Pixels in Processed Spectrum: 2048
>>>>>Begin Processed Spectral Data<<<<<
365.73	0.00
365.92	0.00
366.12	0.00
366.32	0.00
366.52	0.00
366.72	0.00
366.91	0.00
367.11	0.00
367.31	0.00
367.51	0.00
367.70	0.00
367.90	0.00
368.10	0.00
368.30	0.00
368.49	0.00
368.69	0.00
368.89	0.00
369.09	0.00
369.28	0.00
369.48	0.00
369.68	0.00
369.87	0.00
370.07	0.00
370.27	0.00
370.47	0.00
370.66	102.98
370.86	65.54
371.06	147.45
371.25	138.09
371.45	100.64
371.65	140.43
371.84	222.35
372.04	119.37
372.24	163.84
372.44	205.97
372.63	205.97
372.83	255.12
373.03	243.42
373.22	180.22
373.42	168.52
373.62	175.54
373.81	241.08
374.01	184.90
374.21	245.76
374.40	283.20
374.60	194.26
374.79	229.37
374.99	283.20
375.19	229.37
375.38	227.03
375.58	227.03
375.78	299.59
375.97	271.50
376.17	220.01
376.37	231.71
376.56	259.80
376.76	243.42
376.95	292.57
377.15	255.12
377.35	252.78
377.54	311.29
377.74	306.61
377.93	189.58
378.13	285.55
378.33	283.20
378.52	283.20
378.72	292.57
378.91	285.55
379.11	285.55
379.31	297.25
379.50	276.18
379.70	294.91
379.89	337.04
380.09	264.48
380.28	341.72
380.48	362.78
380.68	346.40
380.87	334.70
381.07	271.50
381.26	311.29
381.46	367.46
381.65	386.19
381.85	322.99
382.04	290.23
382.24	376.83
382.43	280.86
382.63	351.08
382.83	367.46
383.02	374.49
383.22	400.23
383.41	283.20
383.61	322.99
383.80	322.99
384.00	353.42
384.19	287.89
384.39	337.04
384.58	430.66
384.78	397.89
384.97	449.38
385.17	395.55
385.36	402.57
385.56	358.10
385.75	334.70
385.95	381.51
386.14	500.87
386.34	402.57
386.53	458.74
386.72	381.51
386.92	327.68
387.11	365.12
387.31	437.68
387.50	388.53
387.70	358.10
387.89	435.34
388.09	440.02
388.28	308.95
388.48	393.21
388.67	543.00
388.86	360.44
389.06	491.51
389.25	444.70
389.45	475.13
389.64	477.47
389.84	421.30
390.03	444.70
390.22	444.70
390.42	472.79
390.61	505.56
390.81	479.81
391.00	524.28
391.19	468.11
391.39	587.47
391.58	552.37
391.78	517.26
391.97	566.41
392.16	557.05
392.36	521.94
392.55	535.98
392.75	521.94
392.94	510.24
393.13	547.69
393.33	589.82
393.52	535.98
393.71	493.85
393.91	561.73
394.10	552.37
394.29	564.07
394.49	624.92
394.68	568.75
394.88	603.86
395.07	660.03
395.26	535.98
395.46	587.47
395.65	564.07
395.84	624.92
396.04	669.39
396.23	631.94
396.42	634.29
396.62	655.35
396.81	606.20
397.00	587.47
397.19	629.60
397.39	575.77
397.58	725.57
397.77	641.31
397.97	660.03
398.16	800.46
398.35	678.76
398.55	660.03
398.74	744.29
398.93	725.57
399.12	620.24
399.32	739.61
399.51	786.42
399.70	739.61
399.90	697.48
400.09	807.48
400.28	779.40
400.47	774.72
400.67	798.12
400.86	767.70
401.05	784.08
401.24	753.65
401.44	746.63
401.63	830.89
401.82	786.42
402.01	795.78
402.21	795.78
402.40	805.14
402.59	814.51
402.78	828.55
402.97	835.57
403.17	814.51
403.36	812.17
403.55	903.45
403.74	889.40
403.93	891.74
404.13	933.87
404.32	919.83
404.51	966.64
404.70	903.45
404.89	863.66
405.09	933.87
405.28	919.83
405.47	903.45
405.66	938.55
405.85	1050.90
406.05	959.62
406.24	929.19
406.43	1041.54
406.62	1027.50
406.81	992.39
407.00	971.32
407.20	999.41
407.39	980.68
407.58	1046.22
407.77	1107.07
407.96	987.71
408.15	1050.90
408.34	1004.09
408.54	1125.80
408.73	1109.41
408.92	1167.93
409.11	1151.54
409.30	1165.59
409.49	1170.27
409.68	1104.73
409.87	1160.91
410.07	1219.42
410.26	1174.95
410.45	1146.86
410.64	1214.74
410.83	1247.51
411.02	1277.93
411.21	1277.93
411.40	1282.61
411.59	1284.95
411.78	1284.95
411.98	1203.04
412.17	1306.02
412.36	1179.63
412.55	1331.76
412.74	1306.02
412.93	1376.24
413.12	1364.53
413.31	1315.38
413.50	1226.44
413.69	1371.55
413.88	1413.68
414.07	1423.05
414.26	1420.71
414.45	1453.47
414.64	1514.33
414.83	1511.99
415.02	1523.69
415.22	1497.94
415.41	1500.28
415.60	1502.62
415.79	1533.05
415.98	1612.63
416.17	1645.40
416.36	1596.25
416.55	1577.52
416.74	1643.06
416.93	1591.56
417.12	1568.16
417.31	1724.97
417.50	1722.63
417.69	1661.78
417.88	1776.47
418.07	1654.76
418.26	1743.70
418.45	1722.63
418.64	1839.66
418.83	1832.64
419.02	1696.89
419.21	1825.62
419.39	1827.96
419.58	1797.53
419.77	1830.30
419.96	1797.53
420.15	1827.96
420.34	1856.04
420.53	1881.79
420.72	1935.62
420.91	1891.15
421.10	1898.17
421.29	1944.99
421.48	1783.49
421.67	1961.37
421.86	2022.22
422.05	1898.17
422.24	2054.99
422.43	1947.33
422.61	1952.01
422.80	2036.27
422.99	2111.16
423.18	2012.86
423.37	2005.84
423.56	2047.97
423.75	1937.96
423.94	1980.09
424.13	1935.62
424.32	1984.77
424.50	2071.37
424.69	2043.29
424.88	2115.84
425.07	2148.61
425.26	2031.58
425.45	2005.84
425.64	1954.35
425.83	2022.22
426.01	2019.88
426.20	2129.89
426.39	1998.82
426.58	2094.78
426.77	2094.78
426.96	2087.76
427.15	2059.67
427.33	2174.36
427.52	2157.97
427.71	2080.74
427.90	2190.74
428.09	2146.27
428.28	2153.29
428.46	2232.87
428.65	2221.17
428.84	2218.83
429.03	2282.02
429.22	2193.08
429.40	2310.11
429.59	2228.19
429.78	2106.48
429.97	2012.86
430.16	2237.55
430.34	2160.31
430.53	2303.09
430.72	2321.81
430.91	2354.58
431.10	2256.28
431.28	2345.22
431.47	2415.43
431.66	2436.50
431.85	2420.11
432.03	2445.86
432.22	2452.88
432.41	2424.80
432.60	2326.49
432.79	2434.16
432.97	2630.76
433.16	2429.48
433.35	2525.44
433.54	2408.41
433.72	2541.82
433.91	2466.92
434.10	2361.60
434.28	2523.10
434.47	2518.42
434.66	2466.92
434.85	2600.34
435.03	2562.89
435.22	2602.68
435.41	2682.25
435.59	2548.84
435.78	2581.61
435.97	2731.41
436.16	2736.09
436.34	2602.68
436.53	2684.59
436.72	2747.79
436.90	2630.76
437.09	2710.34
437.28	2612.04
437.46	2768.85
437.65	2710.34
437.84	2651.83
438.02	2757.15
438.21	2782.90
438.40	2703.32
438.58	2848.43
438.77	2871.84
438.96	2820.35
439.14	2885.88
439.33	2946.73
439.52	2960.78
439.70	2998.23
439.89	2979.50
440.08	3030.99
440.26	2946.73
440.45	2925.67
440.63	3073.12
440.82	3101.21
441.01	3091.85
441.19	3274.41
441.38	3035.67
441.57	3222.92
441.75	3136.32
441.94	3225.26
442.12	3197.17
442.31	3218.24
442.50	3138.66
442.68	3304.84
442.87	3239.30
443.05	3258.03
443.24	3316.54
443.43	3461.65
443.61	3382.07
443.80	3536.55
443.98	3234.62
444.17	3304.84
444.35	3400.80
444.54	3566.98
444.73	3368.03
444.91	3398.46
445.10	3297.81
445.28	3471.01
445.47	3396.12
445.65	3384.41
445.84	3414.84
446.02	3501.44
446.21	3466.33
446.39	3463.99
446.58	3297.81
446.77	3487.40
446.95	3414.84
447.14	3419.52
447.32	3538.89
447.51	3499.10
447.69	3440.59
447.88	3583.36
448.06	3372.71
448.25	3576.34
448.43	3604.42
448.62	3480.38
448.80	3548.25
448.99	3487.40
449.17	3536.55
449.36	3548.25
449.54	3707.41
449.73	3798.69
449.91	3705.07
450.10	3662.94
450.28	3662.94
450.46	3658.26
450.65	3747.20
450.83	3782.31
451.02	3698.05
451.20	3805.71
451.39	3831.46
451.57	3782.31
451.76	3632.51
451.94	3761.24
452.13	3943.80
452.31	3805.71
452.49	3777.62
452.68	3803.37
452.86	3861.88
453.05	3908.69
453.23	3840.82
453.42	3840.82
453.60	3857.20
453.78	3763.58
453.97	3941.46
454.15	3915.72
454.34	3861.88
454.52	3861.88
454.70	3953.16
454.89	4021.04
455.07	4032.74
455.26	4095.94
455.44	4042.11
455.62	4067.85
455.81	4084.23
455.99	4156.79
456.17	4152.11
456.36	4025.72
456.54	4170.83
456.73	4109.98
456.91	4238.71
457.09	4285.52
457.28	4435.32
457.46	4187.22
457.64	4234.03
457.83	4290.20
458.01	4252.75
458.19	4451.70
458.38	4358.08
458.56	4461.06
458.74	4458.72
458.93	4503.19
459.11	4337.01
459.29	4479.79
459.48	4503.19
459.66	4418.93
459.84	4636.60
460.03	4568.73
460.21	4559.36
460.39	4575.75
460.57	4521.92
460.76	4650.64
460.94	4552.34
461.12	4465.74
461.31	4662.35
461.49	4545.32
461.67	4561.70
461.85	4812.14
462.04	4638.94
462.22	4924.49
462.40	4880.02
462.59	4718.52
462.77	4585.11
462.95	4636.60
463.13	4826.18
463.32	4873.00
463.50	4837.89
463.68	4826.18
463.86	4910.44
464.05	4795.76
464.23	4805.12
464.41	5093.01
464.59	4760.65
464.78	4816.82
464.96	4938.53
465.14	4762.99
465.32	4926.83
465.50	4940.87
465.69	5055.56
465.87	4755.97
466.05	4933.85
466.23	4961.94
466.41	5032.15
466.60	5078.96
466.78	5029.81
466.96	4933.85
467.14	5041.51
467.32	5022.79
467.51	5163.22
467.69	5008.75
467.87	5130.45
468.05	5224.08
468.23	5097.69
468.41	4964.28
468.60	5174.92
468.78	5261.52
468.96	5135.14
469.14	5249.82
469.32	5282.59
469.50	5184.29
469.69	5310.68
469.87	5284.93
470.05	5401.96
470.23	5348.12
470.41	5404.30
470.59	5694.52
470.77	5366.85
470.95	5481.53
471.14	5596.22
471.32	5476.85
471.50	5612.60
471.68	5631.33
471.86	5734.31
472.04	5572.82
472.22	5720.27
472.40	5556.43
472.58	5680.48
472.77	5671.12
472.95	5813.89
473.13	6043.26
473.31	5797.51
473.49	5895.81
473.67	5928.58
473.85	5877.09
474.03	5846.66
474.21	5865.38
474.39	5905.17
474.57	6097.10
474.75	6054.97
474.93	6031.56
475.12	6069.01
475.30	6368.60
475.48	6195.40
475.66	6242.21
475.84	6413.07
476.02	6253.91
476.20	6195.40
476.38	6160.29
476.56	6462.22
476.74	6602.65
476.92	6509.03
477.10	6431.79
477.28	6665.85
477.46	6717.34
477.64	6841.39
477.82	6862.45
478.00	7037.99
478.18	6986.50
478.36	7000.54
478.54	6981.82
478.72	7131.61
478.90	7040.33
479.08	7157.36
479.26	7229.91
479.44	7363.33
479.62	7190.13
479.80	7325.88
479.98	7321.20
480.16	7515.46
480.34	7522.48
480.52	7595.04
480.70	7555.25
480.88	7494.40
481.06	7726.11
481.24	7742.49
481.41	7817.39
481.59	7843.14
481.77	7962.50
481.95	8037.40
482.13	8072.51
482.31	8166.13
482.49	8245.71
482.67	8301.88
482.85	8390.82
483.03	8498.49
483.21	8500.83
483.39	8699.77
483.57	8355.71
483.74	8765.31
483.92	8395.50
484.10	8725.52
484.28	8870.63
484.46	8954.89
484.64	9376.19
484.82	9195.96
485.00	9128.09
485.18	9238.09
485.35	9586.83
485.53	9245.12
485.71	9441.72
485.89	9722.59
486.07	9373.85
486.25	9558.75
486.43	9657.05
486.61	9802.16
486.78	9954.30
486.96	9848.97
487.14	10083.03
487.32	9949.62
487.50	10221.12
487.68	10209.42
487.85	10281.97
488.03	10377.94
488.21	10377.94
488.39	10546.45
488.57	10607.31
488.75	10541.77
488.92	10738.38
489.10	10724.33
489.28	10881.15
489.46	10813.28
489.64	11016.90
489.81	11157.33
489.99	11449.90
490.17	11257.98
490.35	11449.90
490.53	11377.34
490.70	11520.12
490.88	11386.71
491.06	11887.58
491.24	11740.13
491.41	11730.76
491.59	11796.30
491.77	11969.50
491.95	11950.78
492.13	12025.67
492.30	12203.55
492.48	12049.08
492.66	12067.80
492.84	12418.88
493.01	12446.97
493.19	12512.50
493.37	12713.79
493.54	12641.23
493.72	12713.79
493.90	12863.58
494.08	12889.33
494.25	13186.58
494.43	13074.23
494.61	13392.55
494.79	13511.91
494.96	13355.10
495.14	13207.64
495.32	13453.40
495.49	13455.74
495.67	13493.19
495.85	13645.32
496.02	13767.03
496.20	13741.29
496.38	13816.18
496.55	13820.86
496.73	14389.61
496.91	14101.73
497.09	14237.48
497.26	14471.53
497.44	14588.56
497.62	14457.49
497.79	14469.19
497.97	14427.06
498.14	14490.26
498.32	14869.42
498.50	15061.35
498.67	14642.39
498.85	14956.02
499.03	15073.05
499.20	14855.38
499.38	14918.57
499.56	15283.70
499.73	15248.59
499.91	15506.05
500.08	15169.01
500.26	15145.61
500.44	15140.93
500.61	15353.91
500.79	15501.37
500.97	15576.27
501.14	15873.51
501.32	15864.15
501.49	15695.63
501.67	15735.42
501.84	15770.53
502.02	15833.72
502.20	16308.85
502.37	15882.88
502.55	16070.12
502.72	16147.36
502.90	16226.93
503.07	16044.37
503.25	16353.32
503.43	16381.41
503.60	16367.37
503.78	16446.94
503.95	16418.86
504.13	16624.83
504.30	16622.48
504.48	16795.68
504.65	16830.79
504.83	16659.93
505.01	17055.48
505.18	16884.62
505.36	16968.88
505.53	16699.72
505.71	16856.54
505.88	17125.70
506.06	17043.78
506.23	17238.05
506.41	17336.35
506.58	17095.27
506.76	17282.52
506.93	17362.09
507.11	17233.36
507.28	17467.42
507.46	17603.17
507.63	17542.32
507.81	17762.33
507.98	17451.03
508.16	17572.74
508.33	17809.14
508.50	17855.95
508.68	17832.54
508.85	18487.89
509.03	18253.84
509.20	18508.96
509.38	18284.26
509.55	18207.03
509.73	18242.14
509.90	18106.38
510.08	18026.81
510.25	18146.17
510.42	18618.96
510.60	18939.62
510.77	18436.40
510.95	18892.80
511.12	18487.89
511.30	18469.17
511.47	18703.22
511.64	18640.03
511.82	18668.11
511.99	19035.58
512.17	19108.13
512.34	18902.17
512.51	19084.73
512.69	18906.85
512.86	19374.95
513.04	19318.78
513.21	19377.30
513.38	19365.59
513.56	19412.40
513.73	19669.86
513.90	19262.61
514.08	19494.32
514.25	19407.72
514.43	19269.63
514.60	19791.57
514.77	19730.72
514.95	19723.69
515.12	19962.43
515.29	19613.69
515.47	20219.89
515.64	20002.22
515.81	19941.36
515.99	20238.61
516.16	20435.22
516.33	20243.29
516.51	20105.20
516.68	19978.81
516.85	20339.26
517.03	20280.74
517.20	20247.97
517.37	20563.95
517.54	20503.09
517.72	20531.18
517.89	20601.40
518.06	20538.20
518.24	20533.52
518.41	20535.86
518.58	20680.97
518.75	20510.11
518.93	20833.11
519.10	20692.68
519.27	21085.89
519.45	20685.65
519.62	20877.58
519.79	20788.64
519.96	20732.47
520.14	21170.15
520.31	21308.24
520.48	21205.25
520.65	21226.32
520.83	21331.64
521.00	21156.10
521.17	21362.07
521.34	21521.23
521.52	21593.78
521.69	21451.01
521.86	21551.65
522.03	21795.07
522.20	21399.52
522.38	22019.76
522.55	21806.77
522.72	21884.01
522.89	21905.07
523.07	21923.80
523.24	22050.19
523.41	22314.67
523.58	21926.14
523.75	22118.06
523.92	22061.89
524.10	22195.30
524.27	21907.41
524.44	22148.49
524.61	22012.74
524.78	22300.62
524.96	22419.99
525.13	22419.99
525.30	22492.55
525.47	22553.40
525.64	22157.85
525.81	22827.24
525.98	22574.47
526.16	22923.21
526.33	22623.62
526.50	22977.04
526.67	22597.87
526.84	22904.48
527.01	22548.72
527.18	23147.90
527.36	22923.21
527.53	22860.01
527.70	23105.77
527.87	23133.86
528.04	23117.47
528.21	22988.74
528.38	22843.63
528.55	23000.44
528.72	23136.20
528.89	23187.69
529.07	23709.63
529.24	23498.98
529.41	23630.05
529.58	23384.29
529.75	23445.15
529.92	23435.78
530.09	23241.52
530.26	23524.72
530.43	23711.97
530.60	23594.94
530.77	23693.24
530.94	23639.41
531.11	23665.16
531.28	23442.81
531.46	23775.16
531.63	24105.18
531.80	23917.93
531.97	23793.89
532.14	24170.71
532.31	23917.93
532.48	24032.62
532.65	24109.86
532.82	23946.02
532.99	24119.22
533.16	24187.10
533.33	24159.01
533.50	24283.06
533.67	24680.95
533.84	24353.27
534.01	24051.34
534.18	24009.22
534.35	24709.04
534.52	24491.37
534.69	24437.53
534.86	24851.81
535.03	24159.01
535.20	24685.63
535.37	24556.90
535.54	24613.07
535.71	24685.63
535.88	24636.48
536.05	24952.45
536.22	25165.44
536.38	25039.05
536.55	24872.87
536.72	25001.60
536.89	24971.18
537.06	24266.67
537.23	24975.86
537.40	25060.12
537.57	24868.19
537.74	25266.08
537.91	25329.28
538.08	25504.82
538.25	25111.61
538.42	24884.58
538.59	24905.64
538.75	25282.47
538.92	25219.27
539.09	25296.51
539.26	25301.19
539.43	25102.25
539.60	25469.71
539.77	25605.46
539.94	25610.14
540.11	25200.55
540.28	25214.59
540.44	25640.57
540.61	25502.48
540.78	25509.50
540.95	25628.87
541.12	25577.37
541.29	25256.72
541.46	25556.31
541.62	25935.48
541.79	25598.44
541.96	25439.28
542.13	25621.84
542.30	25752.91
542.47	26087.61
542.63	26272.51
542.80	26031.44
542.97	26122.72
543.14	26562.74
543.31	26181.23
543.48	26347.41
543.64	26490.18
543.81	26377.84
543.98	26459.76
544.15	26419.97
544.32	26637.64
544.48	26536.99
544.65	26204.64
544.82	26717.22
544.99	26483.16
545.16	26838.92
545.32	26448.05
545.49	26796.79
545.66	26726.58
545.83	26888.07
546.00	27147.87
546.16	26740.62
546.33	26487.84
546.50	26354.43
546.67	27002.76
546.83	26434.01
547.00	26731.26
547.17	26642.32
547.34	26515.93
547.50	26944.25
547.67	27133.83
547.84	27159.58
548.00	27171.28
548.17	27358.52
548.34	27068.30
548.51	27164.26
548.67	27166.60
548.84	27187.66
549.01	26742.96
549.18	27129.15
549.34	27337.46
549.51	27014.46
549.68	27630.02
549.84	27271.92
550.01	27335.12
550.18	27068.30
550.34	27470.87
550.51	27548.11
550.68	27466.19
550.84	27421.72
551.01	27590.24
551.18	27204.05
551.34	27218.09
551.51	27260.22
551.68	27402.99
551.84	27810.25
552.01	27620.66
552.18	27725.99
552.34	27733.01
552.51	27601.94
552.68	27948.34
552.84	28088.77
553.01	27927.27
553.18	27503.64
553.34	27484.91
553.51	27929.61
553.67	27969.40
553.84	27826.63
554.01	28044.30
554.17	27941.32
554.34	28154.30
554.51	27676.83
554.67	28276.01
554.84	28114.52
555.00	27775.14
555.17	28133.24
555.33	27908.55
555.50	27955.36
555.67	27782.16
555.83	28046.64
556.00	27999.83
556.16	28421.13
556.33	28077.07
556.50	27992.81
556.66	28460.91
556.83	28133.24
556.99	28669.22
557.16	28760.50
557.32	28491.34
557.49	28587.30
557.65	28158.99
557.82	28720.71
557.98	28182.39
558.15	28301.76
558.32	28580.28
558.48	28254.95
558.65	28381.34
558.81	28613.05
558.98	28863.49
559.14	28577.94
559.31	28250.27
559.47	28140.26
559.64	28418.78
559.80	28556.88
559.97	28781.57
560.13	28332.18
560.30	28575.60
560.46	28570.92
560.63	28629.43
560.79	28816.68
560.96	28533.47
561.12	28882.21
561.29	28601.35
561.45	28704.33
561.61	29032.00
561.78	29076.48
561.94	29092.86
562.11	28938.38
562.27	28919.66
562.44	28863.49
562.60	28851.78
562.77	28744.12
562.93	28903.28
563.10	29198.18
563.26	29034.35
563.42	28943.06
563.59	28950.09
563.75	29006.26
563.92	28943.06
564.08	28500.70
564.24	28978.17
564.41	28868.17
564.57	29046.05
564.74	28835.40
564.90	29153.71
565.07	29106.90
565.23	28879.87
565.39	29205.20
565.56	29120.95
565.72	29137.33
565.88	28936.04
566.05	28936.04
566.21	28863.49
566.38	28891.57
566.54	29127.97
566.70	29053.07
566.87	29429.90
567.03	29280.10
567.19	29343.30
567.36	29303.51
567.52	29457.98
567.68	29563.31
567.85	29273.08
568.01	29043.71
568.17	29039.03
568.34	29256.70
568.50	29448.62
568.66	29301.17
568.83	29261.38
568.99	29378.40
569.15	29591.39
569.32	29048.39
569.48	28779.23
569.64	29689.70
569.81	29216.91
569.97	29156.05
570.13	29319.89
570.30	29242.65
570.46	29312.87
570.62	29521.18
570.78	29273.08
570.95	29235.63
571.11	29455.64
571.27	29125.63
571.43	28835.40
571.60	29525.86
571.76	29376.06
571.92	28940.72
572.09	29455.64
572.25	29743.53
572.41	29706.08
572.57	29418.19
572.74	29624.16
572.90	29120.95
573.06	29542.24
573.22	29544.58
573.38	29394.79
573.55	29607.78
573.71	29549.26
573.87	29626.50
574.03	29610.12
574.20	29771.61
574.36	29411.17
574.52	29563.31
574.68	29338.62
574.84	29296.49
575.01	29432.24
575.17	29198.18
575.33	29912.05
575.49	29626.50
575.65	29670.97
575.82	29692.04
575.98	29200.52
576.14	29708.42
576.30	29837.15
576.46	29280.10
576.62	29486.07
576.79	29701.40
576.95	29394.79
577.11	29825.45
577.27	29443.94
577.43	29525.86
577.59	29500.11
577.75	29280.10
577.92	29188.82
578.08	29474.37
578.24	29249.67
578.40	29591.39
578.56	29481.39
578.72	29362.02
578.88	30052.48
579.04	29773.95
579.21	29759.91
579.37	30005.67
579.53	29745.87
579.69	29366.70
579.85	29333.93
580.01	29457.98
580.17	29603.10
580.33	30061.84
580.49	29659.27
580.65	29472.03
580.82	29846.51
580.98	29961.20
581.14	29921.41
581.30	29956.52
581.46	30125.04
581.62	29652.25
581.78	29406.49
581.94	29614.80
582.10	29762.25
582.26	29677.99
582.42	29832.47
582.58	29703.74
582.74	29752.89
582.90	29708.42
583.06	29879.28
583.22	29841.83
583.38	29853.53
583.54	29762.25
583.70	29942.47
583.86	29752.89
584.02	29745.87
584.18	29373.72
584.34	29998.65
584.50	29673.31
584.66	29820.77
584.82	29734.17
584.98	29830.13
585.14	29818.42
585.30	29706.08
585.46	29535.22
585.62	29542.24
585.78	29823.11
585.94	29944.81
586.10	29734.17
586.26	29944.81
586.42	30199.93
586.58	29713.10
586.74	29778.64
586.90	29727.14
587.06	29689.70
587.22	29858.21
587.38	29680.33
587.54	29736.51
587.70	30118.01
587.86	29830.13
588.02	30352.07
588.18	30071.20
588.34	30178.87
588.49	30190.57
588.65	29923.75
588.81	29855.87
588.97	29907.37
589.13	29968.22
589.29	29970.56
589.45	30029.07
589.61	30302.92
589.77	30345.05
589.93	30359.09
590.08	30155.46
590.24	30061.84
590.40	29968.22
590.56	30204.61
590.72	29954.18
590.88	29823.11
591.04	29858.21
591.20	29916.73
591.35	30272.49
591.51	30623.57
591.67	30225.68
591.83	30455.05
591.99	30202.27
