SpectraSuite Data File
++++++++++++++++++++++++++++++++++++
Date: Fri Oct 18 13:58:26 GMT-05:00 2013
User: bianchi
Dark Spectrum Present: No
Reference Spectrum Present: No
Number of Sampled Component Spectra: 1
Spectrometers: USB2+H05261
Integration Time (usec): 50000 (USB2+H05261)
Spectra Averaged: 1 (USB2+H05261)
Boxcar Smoothing: 0 (USB2+H05261)
Correct for Electrical Dark: No (USB2+H05261)
Strobe/Lamp Enabled: No (USB2+H05261)
Correct for Detector Non-linearity: No (USB2+H05261)
Correct for Stray Light: No (USB2+H05261)
Number of Pixels in Processed Spectrum: 2048
>>>>>Begin Processed Spectral Data<<<<<
365.73	0.00
365.92	0.00
366.12	0.00
366.32	0.00
366.52	0.00
366.72	0.00
366.91	0.00
367.11	0.00
367.31	0.00
367.51	0.00
367.70	0.00
367.90	0.00
368.10	0.00
368.30	0.00
368.49	0.00
368.69	0.00
368.89	0.00
369.09	0.00
369.28	0.00
369.48	0.00
369.68	0.00
369.87	0.00
370.07	0.00
370.27	0.00
370.47	0.00
370.66	32.77
370.86	187.24
371.06	133.41
371.25	77.24
371.45	100.64
371.65	149.79
371.84	208.31
372.04	119.37
372.24	205.97
372.44	117.03
372.63	180.22
372.83	212.99
373.03	229.37
373.22	133.41
373.42	273.84
373.62	241.08
373.81	262.14
374.01	283.20
374.21	196.60
374.40	243.42
374.60	248.10
374.79	266.82
374.99	252.78
375.19	299.59
375.38	243.42
375.58	266.82
375.78	262.14
375.97	264.48
376.17	243.42
376.37	241.08
376.56	234.05
376.76	257.46
376.95	215.33
377.15	285.55
377.35	205.97
377.54	266.82
377.74	198.95
377.93	241.08
378.13	177.88
378.33	273.84
378.52	215.33
378.72	194.26
378.91	299.59
379.11	215.33
379.31	273.84
379.50	189.58
379.70	322.99
379.89	287.89
380.09	259.80
380.28	283.20
380.48	346.40
380.68	290.23
380.87	259.80
381.07	285.55
381.26	297.25
381.46	444.70
381.65	215.33
381.85	287.89
382.04	315.97
382.24	449.38
382.43	313.63
382.63	381.51
382.83	283.20
383.02	351.08
383.22	362.78
383.41	283.20
383.61	320.65
383.80	411.93
384.00	353.42
384.19	236.39
384.39	360.44
384.58	367.46
384.78	365.12
384.97	414.27
385.17	358.10
385.36	322.99
385.56	280.86
385.75	369.80
385.95	411.93
386.14	367.46
386.34	414.27
386.53	348.74
386.72	372.15
386.92	395.55
387.11	402.57
387.31	409.59
387.50	472.79
387.70	400.23
387.89	458.74
388.09	444.70
388.28	458.74
388.48	451.72
388.67	423.64
388.86	428.32
389.06	407.25
389.25	435.34
389.45	482.15
389.64	493.85
389.84	500.87
390.03	461.09
390.22	465.77
390.42	449.38
390.61	472.79
390.81	463.43
391.00	519.60
391.19	545.34
391.39	486.83
391.58	465.77
391.78	505.56
391.97	479.81
392.16	482.15
392.36	550.03
392.55	468.11
392.75	496.19
392.94	510.24
393.13	573.43
393.33	545.34
393.52	479.81
393.71	533.64
393.91	491.51
394.10	596.84
394.29	531.30
394.49	585.13
394.68	547.69
394.88	559.39
395.07	674.07
395.26	638.97
395.46	540.66
395.65	678.76
395.84	589.82
396.04	683.44
396.23	594.50
396.42	667.05
396.62	610.88
396.81	636.63
397.00	594.50
397.19	692.80
397.39	699.82
397.58	645.99
397.77	629.60
397.97	709.18
398.16	692.80
398.35	624.92
398.55	688.12
398.74	645.99
398.93	624.92
399.12	683.44
399.32	746.63
399.51	676.41
399.70	739.61
399.90	746.63
400.09	753.65
400.28	751.31
400.47	751.31
400.67	779.40
400.86	688.12
401.05	699.82
401.24	887.06
401.44	727.91
401.63	781.74
401.82	781.74
402.01	779.40
402.21	861.32
402.40	809.83
402.59	802.80
402.78	837.91
402.97	842.59
403.17	807.48
403.36	821.53
403.55	870.68
403.74	903.45
403.93	924.51
404.13	880.04
404.32	866.00
404.51	896.43
404.70	903.45
404.89	919.83
405.09	980.68
405.28	952.60
405.47	968.98
405.66	968.98
405.85	992.39
406.05	910.47
406.24	835.57
406.43	966.64
406.62	910.47
406.81	971.32
407.00	1029.84
407.20	1015.79
407.39	1015.79
407.58	1041.54
407.77	1064.94
407.96	1114.10
408.15	1008.77
408.34	1135.16
408.54	1032.18
408.73	1142.18
408.92	1193.67
409.11	1062.60
409.30	1109.41
409.49	1224.10
409.68	1196.01
409.87	1179.63
410.07	1210.06
410.26	1149.20
410.45	1188.99
410.64	1177.29
410.83	1121.12
411.02	1114.10
411.21	1273.25
411.40	1252.19
411.59	1210.06
411.78	1252.19
411.98	1249.85
412.17	1275.59
412.36	1324.74
412.55	1280.27
412.74	1233.46
412.93	1322.40
413.12	1369.21
413.31	1404.32
413.50	1256.87
413.69	1420.71
413.88	1437.09
414.07	1392.62
414.26	1437.09
414.45	1465.18
414.64	1444.11
414.83	1460.49
415.02	1551.78
415.22	1493.26
415.41	1516.67
415.60	1488.58
415.79	1469.86
415.98	1563.48
416.17	1643.06
416.36	1540.07
416.55	1554.12
416.74	1561.14
416.93	1657.10
417.12	1652.42
417.31	1657.10
417.50	1638.38
417.69	1685.19
417.88	1753.06
418.07	1799.87
418.26	1722.63
418.45	1774.13
418.64	1755.40
418.83	1799.87
419.02	1790.51
419.21	1813.92
419.39	1767.10
419.58	1729.66
419.77	1764.76
419.96	1832.64
420.15	1886.47
420.34	1867.75
420.53	1902.86
420.72	1930.94
420.91	1846.68
421.10	1975.41
421.29	1923.92
421.48	1865.41
421.67	1912.22
421.86	1881.79
422.05	1909.88
422.24	1961.37
422.43	2073.71
422.61	2050.31
422.80	1916.90
422.99	2083.08
423.18	1984.77
423.37	2033.93
423.56	1935.62
423.75	2008.18
423.94	1900.52
424.13	1856.04
424.32	1785.83
424.50	2073.71
424.69	2076.06
424.88	2167.34
425.07	1994.14
425.26	2015.20
425.45	2087.76
425.64	2118.18
425.83	2059.67
426.01	2092.44
426.20	2005.84
426.39	2099.46
426.58	1982.43
426.77	2005.84
426.96	2064.35
427.15	2143.93
427.33	2050.31
427.52	2094.78
427.71	2174.36
427.90	2183.72
428.09	2122.87
428.28	2214.15
428.46	2125.21
428.65	2165.00
428.84	2242.23
429.03	2286.70
429.22	2284.36
429.40	2120.53
429.59	2298.41
429.78	2071.37
429.97	2111.16
430.16	2165.00
430.34	2237.55
430.53	2422.45
430.72	2317.13
430.91	2176.70
431.10	2319.47
431.28	2368.62
431.47	2406.07
431.66	2492.67
431.85	2420.11
432.03	2445.86
432.22	2492.67
432.41	2420.11
432.60	2403.73
432.79	2354.58
432.97	2427.14
433.16	2551.18
433.35	2410.75
433.54	2471.61
433.72	2483.31
433.91	2530.12
434.10	2408.41
434.28	2593.31
434.47	2452.88
434.66	2495.01
434.85	2600.34
435.03	2504.37
435.22	2506.71
435.41	2764.17
435.59	2668.21
435.78	2551.18
435.97	2626.08
436.16	2621.40
436.34	2696.30
436.53	2572.25
436.72	2764.17
436.90	2661.19
437.09	2726.72
437.28	2710.34
437.46	2686.94
437.65	2623.74
437.84	2792.26
438.02	2726.72
438.21	2684.59
438.40	2738.43
438.58	2789.92
438.77	2953.76
438.96	2792.26
439.14	2951.42
439.33	2895.24
439.52	2988.86
439.70	2979.50
439.89	3047.38
440.08	2923.33
440.26	2965.46
440.45	3052.06
440.63	2988.86
440.82	3042.70
441.01	3012.27
441.19	2970.14
441.38	3176.11
441.57	3176.11
441.75	3117.59
441.94	3220.58
442.12	3300.16
442.31	3129.30
442.50	3325.90
442.68	3304.84
442.87	3255.69
443.05	3225.26
443.24	3353.99
443.43	3300.16
443.61	3358.67
443.80	3456.97
443.98	3272.07
444.17	3251.00
444.35	3386.76
444.54	3379.73
444.73	3452.29
444.91	3272.07
445.10	3447.61
445.28	3449.95
445.47	3361.01
445.65	3414.84
445.84	3435.91
446.02	3520.17
446.21	3487.40
446.39	3288.45
446.58	3428.88
446.77	3604.42
446.95	3508.46
447.14	3503.78
447.32	3552.93
447.51	3571.66
447.69	3431.23
447.88	3555.27
448.06	3557.61
448.25	3501.44
448.43	3442.93
448.62	3466.33
448.80	3494.42
448.99	3538.89
449.17	3616.13
449.36	3438.25
449.54	3630.17
449.73	3672.30
449.91	3646.55
450.10	3641.87
450.28	3728.47
450.46	3702.73
450.65	3705.07
450.83	3826.78
451.02	3707.41
451.20	3721.45
451.39	3796.35
451.57	3833.80
451.76	3763.58
451.94	3702.73
452.13	3758.90
452.31	3850.18
452.49	3733.15
452.68	3829.12
452.86	3779.97
453.05	3929.76
453.23	3889.97
453.42	3630.17
453.60	3887.63
453.78	3929.76
453.97	3882.95
454.15	3798.69
454.34	3796.35
454.52	3964.87
454.70	3946.14
454.89	3997.64
455.07	4035.08
455.26	3957.85
455.44	4072.53
455.62	4009.34
455.81	4088.92
455.99	4140.41
456.17	4086.58
456.36	4231.69
456.54	4205.94
456.73	4278.50
456.91	4084.23
457.09	4184.88
457.28	4297.22
457.46	4173.18
457.64	4318.29
457.83	4320.63
458.01	4241.05
458.19	4414.25
458.38	4421.27
458.56	4351.06
458.74	4332.33
458.93	4341.69
459.11	4386.16
459.29	4432.97
459.48	4479.79
459.66	4318.29
459.84	4393.19
460.03	4486.81
460.21	4505.53
460.39	4535.96
460.57	4372.12
460.76	4510.21
460.94	4573.41
461.12	4526.60
461.31	4657.67
461.49	4622.56
461.67	4594.47
461.85	4685.75
462.04	4580.43
462.22	4821.50
462.40	4671.71
462.59	4643.62
462.77	4638.94
462.95	4706.82
463.13	4786.40
463.32	4791.08
463.50	4847.25
463.68	4851.93
463.86	4720.86
464.05	4716.18
464.23	4702.14
464.41	4861.29
464.59	4713.84
464.78	4844.91
464.96	5022.79
465.14	4823.84
465.32	5032.15
465.50	5022.79
465.69	4971.30
465.87	4882.36
466.05	4901.08
466.23	4863.63
466.41	4910.44
466.60	5046.20
466.78	4975.98
466.96	4999.38
467.14	4945.55
467.32	4980.66
467.51	5057.90
467.69	4943.21
467.87	5022.79
468.05	5158.54
468.23	5149.18
468.41	5167.90
468.60	5149.18
468.78	5296.63
468.96	5015.77
469.14	5102.37
469.32	5146.84
469.50	5219.39
469.69	5245.14
469.87	5296.63
470.05	5371.53
470.23	5334.08
470.41	5451.11
470.59	5399.62
470.77	5327.06
470.95	5558.77
471.14	5451.11
471.32	5446.43
471.50	5614.95
471.68	5523.66
471.86	5495.58
472.04	5603.24
472.22	5839.64
472.40	5575.16
472.58	5778.78
472.77	5689.84
472.95	5652.39
473.13	5827.93
473.31	5853.68
473.49	5743.67
473.67	5799.85
473.85	5827.93
474.03	5823.25
474.21	5923.90
474.39	5921.56
474.57	6080.71
474.75	6059.65
474.93	6326.47
475.12	6057.31
475.30	6195.40
475.48	6162.63
475.66	6193.06
475.84	6143.91
476.02	6352.21
476.20	6410.73
476.38	6441.15
476.56	6415.41
476.74	6558.18
476.92	6558.18
477.10	6408.39
477.28	6504.35
477.46	6534.78
477.64	6733.72
477.82	6555.84
478.00	6696.27
478.18	6771.17
478.36	7047.35
478.54	6935.01
478.72	7040.33
478.90	7248.64
479.08	7187.79
479.26	7152.68
479.44	7360.98
479.62	7213.53
479.80	7431.20
479.98	7379.71
480.16	7473.33
480.34	7307.15
480.52	7686.32
480.70	7536.52
480.88	7503.76
481.06	7602.06
481.24	7775.26
481.41	7651.21
481.59	7868.88
481.77	7995.27
481.95	7960.16
482.13	7796.32
482.31	8032.72
482.49	8308.90
482.67	8222.30
482.85	8311.24
483.03	8594.45
483.21	8435.29
483.39	8496.14
483.57	8418.91
483.74	8603.81
483.92	8559.34
484.10	8629.56
484.28	8608.49
484.46	8992.34
484.64	9046.17
484.82	8947.87
485.00	8997.02
485.18	8908.08
485.35	9149.15
485.53	9603.22
485.71	9289.59
485.89	9696.84
486.07	9687.48
486.25	9441.72
486.43	9533.00
486.61	9448.74
486.78	9837.27
486.96	9909.83
487.14	9933.23
487.32	10054.94
487.50	10052.60
487.68	10104.09
487.85	10457.51
488.03	10139.20
488.21	10520.71
488.39	10408.36
488.57	10726.68
488.75	10782.85
488.92	10839.02
489.10	10649.44
489.28	10881.15
489.46	10967.75
489.64	11005.20
489.81	11276.70
489.99	11077.76
490.17	11152.65
490.35	11295.43
490.53	11473.31
490.70	11447.56
490.88	11531.82
491.06	11838.43
491.24	11644.17
491.41	11712.04
491.59	11901.62
491.77	11899.28
491.95	11910.99
492.13	11878.22
492.30	12060.78
492.48	12442.29
492.66	12409.52
492.84	12058.44
493.01	12182.49
493.19	12439.95
493.37	12594.42
493.54	12461.01
493.72	12528.89
493.90	12669.32
494.08	12776.98
494.25	12940.82
494.43	12940.82
494.61	13099.98
494.79	13324.67
494.96	13109.34
495.14	13427.65
495.32	13233.39
495.49	13448.72
495.67	13504.89
495.85	13809.16
496.02	13837.25
496.20	13659.37
496.38	13813.84
496.55	13778.73
496.73	13998.74
496.91	13879.38
497.09	13905.12
497.26	14218.75
497.44	14300.67
497.62	14246.84
497.79	14153.22
497.97	14366.21
498.14	14614.30
498.32	14771.12
498.50	14773.46
498.67	15005.17
498.85	14572.18
499.03	14602.60
499.20	14995.81
499.38	14843.68
499.56	15119.86
499.73	15110.50
499.91	15154.97
500.08	15232.21
500.26	15007.52
500.44	15342.21
500.61	15407.75
500.79	15290.72
500.97	15466.26
501.14	15681.59
501.32	15793.94
501.49	15744.78
501.67	15583.29
501.84	15903.94
502.02	15522.43
502.20	16044.37
502.37	15950.75
502.55	15733.08
502.72	15882.88
502.90	15955.43
503.07	16049.05
503.25	15969.48
503.43	16100.55
503.60	16187.14
503.78	16067.78
503.95	16549.93
504.13	16252.68
504.30	16240.98
504.48	16322.90
504.65	16479.71
504.83	16652.91
505.01	16769.94
505.18	16856.54
505.36	16877.60
505.53	16821.43
505.71	17060.16
505.88	17109.32
506.06	17088.25
506.23	17153.79
506.41	17067.19
506.58	17261.45
506.76	17191.23
506.93	17228.68
507.11	17324.65
507.28	17577.42
507.46	17404.22
507.63	17341.03
507.81	17614.87
507.98	17554.02
508.16	17844.24
508.33	17811.48
508.50	17757.64
508.68	17612.53
508.85	17991.70
509.03	17977.65
509.20	18022.12
509.38	17933.18
509.55	17968.29
509.73	18265.54
509.90	18363.84
510.08	17998.72
510.25	18136.81
510.42	18263.20
510.60	18494.91
510.77	18670.45
510.95	18637.69
511.12	18558.11
511.30	18382.57
511.47	18799.18
511.64	18377.89
511.82	18820.25
511.99	18625.98
512.17	18822.59
512.34	18745.35
512.51	18806.20
512.69	18923.23
512.86	18984.09
513.04	19220.48
513.21	19515.39
513.38	19173.67
513.56	19601.99
513.73	19194.73
513.90	19147.92
514.08	19234.52
514.25	19513.05
514.43	19491.98
514.60	19601.99
514.77	19585.60
514.95	19854.76
515.12	19747.10
515.29	19831.36
515.47	19768.16
515.64	19768.16
515.81	19740.08
515.99	19763.48
516.16	20065.41
516.33	20144.99
516.51	20187.12
516.68	19978.81
516.85	19950.73
517.03	20198.82
517.20	20161.37
517.37	20320.53
517.54	20467.98
517.72	20685.65
517.89	20287.76
518.06	20662.25
518.24	20414.15
518.41	20343.94
518.58	20493.73
518.75	20519.48
518.93	20540.54
519.10	20575.65
519.27	21001.63
519.45	20856.51
519.62	20739.49
519.79	20730.12
519.96	20847.15
520.14	20886.94
520.31	20912.69
520.48	20861.19
520.65	20936.09
520.83	21556.33
521.00	21156.10
521.17	21043.76
521.34	21111.63
521.52	21186.53
521.69	21495.48
521.86	21502.50
522.03	21385.47
522.20	21720.17
522.38	21654.64
522.55	21752.94
522.72	21656.98
522.89	21603.14
523.07	21671.02
523.24	22122.74
523.41	21591.44
523.58	21755.28
523.75	22253.81
523.92	21621.87
524.10	21776.34
524.27	22043.17
524.44	22204.66
524.61	22207.00
524.78	22190.62
524.96	22108.70
525.13	22485.53
525.30	22291.26
525.47	22286.58
525.64	22078.27
525.81	22527.66
525.98	22560.42
526.16	22326.37
526.33	22443.40
526.50	22698.52
526.67	22642.34
526.84	22457.44
527.01	22520.63
527.18	22864.69
527.36	22778.09
527.53	22927.89
527.70	23435.78
527.87	23096.41
528.04	22539.36
528.21	22801.50
528.38	23136.20
528.55	23173.64
528.72	23035.55
528.89	23370.25
529.07	23297.69
529.24	22808.52
529.41	23548.13
529.58	22974.70
529.75	23391.31
529.92	23360.89
530.09	23393.65
530.26	23407.70
530.43	23381.95
530.60	23433.44
530.77	23583.24
530.94	23456.85
531.11	23407.70
531.28	23559.83
531.46	23541.11
531.63	23398.34
531.80	23821.97
531.97	23910.91
532.14	23957.72
532.31	23946.02
532.48	23796.23
532.65	23843.04
532.82	23721.33
532.99	24121.56
533.16	24051.34
533.33	24086.45
533.50	24266.67
533.67	24095.82
533.84	23777.50
534.01	24037.30
534.18	23995.17
534.35	24496.05
534.52	23913.25
534.69	24343.91
534.86	24463.28
535.03	24294.76
535.20	24713.72
535.37	24308.80
535.54	24472.64
535.71	24119.22
535.88	24498.39
536.05	24552.22
536.22	24538.18
536.38	24683.29
536.55	24718.40
536.72	24978.20
536.89	24636.48
537.06	24786.27
537.23	24933.73
537.40	24561.58
537.57	24870.53
537.74	25106.93
537.91	25057.78
538.08	24879.89
538.25	24812.02
538.42	24638.82
538.59	24982.88
538.75	25029.69
538.92	25252.04
539.09	24989.90
539.26	25186.50
539.43	25226.29
539.60	25357.36
539.77	25252.04
539.94	25326.94
540.11	25226.29
540.28	25345.66
540.44	25568.01
540.61	25160.76
540.78	25195.87
540.95	25439.28
541.12	25631.21
541.29	25455.67
541.46	25621.84
541.62	25682.70
541.79	25830.15
541.96	25146.72
542.13	25600.78
542.30	25771.64
542.47	25689.72
542.63	25708.44
542.80	25940.16
542.97	26232.72
543.14	25895.69
543.31	25876.96
543.48	25977.61
543.64	26478.48
543.81	26181.23
543.98	26326.35
544.15	26115.70
544.32	26188.25
544.48	26665.72
544.65	26101.65
544.82	26415.29
544.99	26169.53
545.16	26024.42
545.32	26497.20
545.49	26197.62
545.66	26195.28
545.83	26497.20
546.00	26314.64
546.16	26071.23
546.33	26544.02
546.50	26094.63
546.67	26288.90
546.83	26356.77
547.00	26380.18
547.17	26703.17
547.34	26492.52
547.50	26752.32
547.67	26881.05
547.84	26541.68
548.00	27072.98
548.17	27150.21
548.34	26621.25
548.51	27145.53
548.67	26878.71
548.84	27054.25
549.01	26953.61
549.18	26675.09
549.34	26892.76
549.51	26941.91
549.68	26766.37
549.84	27187.66
550.01	27075.32
550.18	27302.35
550.34	27023.83
550.51	27281.28
550.68	27417.04
550.84	26984.04
551.01	27131.49
551.18	27000.42
551.34	27395.97
551.51	27175.96
551.68	27548.11
551.84	27538.74
552.01	27372.57
552.18	27330.44
552.34	27225.11
552.51	27597.26
552.68	27496.61
552.84	27449.80
553.01	27531.72
553.18	27529.38
553.34	27459.16
553.51	27505.98
553.67	27583.21
553.84	27763.43
554.01	27784.50
554.17	27910.89
554.34	27737.69
554.51	27683.86
554.67	27751.73
554.84	27810.25
555.00	27688.54
555.17	27950.68
555.33	28280.69
555.50	27601.94
555.67	27847.69
555.83	27852.38
556.00	27934.29
556.16	28053.66
556.33	27931.95
556.50	28088.77
556.66	28388.36
556.83	28231.54
556.99	28004.51
557.16	28491.34
557.32	28158.99
557.49	28041.96
557.65	27943.66
557.82	27627.68
557.98	28084.09
558.15	28140.26
558.32	28383.68
558.48	27833.65
558.65	28203.46
558.81	28788.59
558.98	28163.67
559.14	28353.25
559.31	28556.88
559.47	27950.68
559.64	28357.93
559.80	28212.82
559.97	28732.42
560.13	28297.08
560.30	28325.16
560.46	28414.10
560.63	28622.41
560.79	28371.97
560.96	28355.59
561.12	28395.38
561.29	28364.95
561.45	28687.95
561.61	28418.78
561.78	28807.31
561.94	28563.90
562.11	28739.44
562.27	28744.12
562.44	28706.67
562.60	28570.92
562.77	28479.64
562.93	28339.21
563.10	28308.78
563.26	28629.43
563.42	28716.03
563.59	28685.61
563.75	28477.30
563.92	29050.73
564.08	28435.17
564.24	28830.72
564.41	28360.27
564.57	28762.84
564.74	28540.49
564.90	28575.60
565.07	28854.12
565.23	28575.60
565.39	28767.52
565.56	29153.71
565.72	28636.45
565.88	28697.31
566.05	28421.13
566.21	28807.31
566.38	29060.09
566.54	28774.55
566.70	29380.74
566.87	29160.73
567.03	28802.63
567.19	29319.89
567.36	29111.58
567.52	29202.86
567.68	28858.81
567.85	28844.76
568.01	28924.34
568.17	29247.33
568.34	29163.08
568.50	29532.88
568.66	28849.44
568.83	29132.65
568.99	29015.62
569.15	28966.47
569.32	28819.02
569.48	28634.11
569.64	29289.46
569.81	29123.29
569.97	29511.81
570.13	29472.03
570.30	29099.88
570.46	29034.35
570.62	28912.64
570.78	29240.31
570.95	29064.77
571.11	29032.00
571.27	28886.89
571.43	28947.75
571.60	28922.00
571.76	29186.48
571.92	29095.20
572.09	29324.57
572.25	29081.16
572.41	29289.46
572.57	28973.49
572.74	29350.32
572.90	29081.16
573.06	28847.10
573.22	29163.08
573.38	29326.91
573.55	29380.74
573.71	29495.43
573.87	29518.84
574.03	29249.67
574.20	29755.23
574.36	28987.53
574.52	29237.97
574.68	29237.97
574.84	29088.18
575.01	29385.43
575.17	29432.24
575.33	29219.25
575.49	29347.98
575.65	29514.16
575.82	29275.42
575.98	29340.96
576.14	29820.77
576.30	29530.54
576.46	29284.78
576.62	29200.52
576.79	29539.90
576.95	29369.04
577.11	29373.72
577.27	29511.81
577.43	29570.33
577.59	29291.80
577.75	29411.17
577.92	29453.30
578.08	29216.91
578.24	29127.97
578.40	29280.10
578.56	29191.16
578.72	29453.30
578.88	29670.97
579.04	29790.34
579.21	29530.54
579.37	29106.90
579.53	29795.02
579.69	29163.08
579.85	29263.72
580.01	29340.96
580.17	29373.72
580.33	29448.62
580.49	29570.33
580.65	29472.03
580.82	29661.61
580.98	29326.91
581.14	29443.94
581.30	29645.23
581.46	29249.67
581.62	29551.60
581.78	29132.65
581.94	29177.12
582.10	29237.97
582.26	29287.12
582.42	29729.48
582.58	29259.04
582.74	29598.41
582.90	29434.58
583.06	29460.32
583.22	29362.02
583.38	29432.24
583.54	29469.69
583.70	29298.83
583.86	29373.72
584.02	29422.87
584.18	29528.20
584.34	29717.78
584.50	30036.09
584.66	29680.33
584.82	29340.96
584.98	29525.86
585.14	29680.33
585.30	29539.90
585.46	29584.37
585.62	29355.00
585.78	29879.28
585.94	29408.83
586.10	29434.58
586.26	29628.84
586.42	29699.06
586.58	29825.45
586.74	29610.12
586.90	29448.62
587.06	29179.46
587.22	29553.94
587.38	29668.63
587.54	29776.30
587.70	29706.08
587.86	29727.14
588.02	29825.45
588.18	29888.64
588.34	29972.90
588.49	30015.03
588.65	29853.53
588.81	29752.89
588.97	29549.26
589.13	29685.01
589.29	29535.22
589.45	29677.99
589.61	29977.58
589.77	30087.59
589.93	29757.57
590.08	30199.93
590.24	30082.91
590.40	30036.09
590.56	29893.32
590.72	29965.88
590.88	29853.53
591.04	29514.16
591.20	30000.99
591.35	29940.13
591.51	30157.80
591.67	30064.18
591.83	30148.44
591.99	29949.50
