SpectraSuite Data File
++++++++++++++++++++++++++++++++++++
Date: Fri Oct 18 13:58:01 GMT-05:00 2013
User: bianchi
Dark Spectrum Present: No
Reference Spectrum Present: No
Number of Sampled Component Spectra: 1
Spectrometers: USB2+H05261
Integration Time (usec): 50000 (USB2+H05261)
Spectra Averaged: 1 (USB2+H05261)
Boxcar Smoothing: 0 (USB2+H05261)
Correct for Electrical Dark: No (USB2+H05261)
Strobe/Lamp Enabled: No (USB2+H05261)
Correct for Detector Non-linearity: No (USB2+H05261)
Correct for Stray Light: No (USB2+H05261)
Number of Pixels in Processed Spectrum: 2048
>>>>>Begin Processed Spectral Data<<<<<
365.73	0.00
365.92	0.00
366.12	0.00
366.32	0.00
366.52	0.00
366.72	0.00
366.91	0.00
367.11	0.00
367.31	0.00
367.51	0.00
367.70	0.00
367.90	0.00
368.10	0.00
368.30	0.00
368.49	0.00
368.69	0.00
368.89	0.00
369.09	0.00
369.28	0.00
369.48	0.00
369.68	0.00
369.87	0.00
370.07	0.00
370.27	0.00
370.47	0.00
370.66	93.62
370.86	128.73
371.06	168.52
371.25	126.39
371.45	100.64
371.65	100.64
371.84	140.43
372.04	182.56
372.24	196.60
372.44	110.01
372.63	180.22
372.83	252.78
373.03	238.73
373.22	227.03
373.42	177.88
373.62	196.60
373.81	236.39
374.01	189.58
374.21	222.35
374.40	276.18
374.60	266.82
374.79	131.07
374.99	280.86
375.19	241.08
375.38	238.73
375.58	215.33
375.78	203.63
375.97	287.89
376.17	210.65
376.37	306.61
376.56	278.52
376.76	264.48
376.95	220.01
377.15	290.23
377.35	262.14
377.54	285.55
377.74	231.71
377.93	262.14
378.13	273.84
378.33	250.44
378.52	322.99
378.72	236.39
378.91	308.95
379.11	259.80
379.31	255.12
379.50	262.14
379.70	315.97
379.89	393.21
380.09	266.82
380.28	339.38
380.48	276.18
380.68	306.61
380.87	332.36
381.07	306.61
381.26	318.31
381.46	292.57
381.65	348.74
381.85	297.25
382.04	308.95
382.24	271.50
382.43	355.76
382.63	402.57
382.83	322.99
383.02	369.80
383.22	404.91
383.41	313.63
383.61	409.59
383.80	322.99
384.00	388.53
384.19	390.87
384.39	369.80
384.58	374.49
384.78	365.12
384.97	344.06
385.17	395.55
385.36	379.17
385.56	400.23
385.75	348.74
385.95	395.55
386.14	344.06
386.34	367.46
386.53	376.83
386.72	351.08
386.92	468.11
387.11	454.06
387.31	414.27
387.50	477.47
387.70	418.96
387.89	402.57
388.09	381.51
388.28	383.85
388.48	409.59
388.67	428.32
388.86	468.11
389.06	491.51
389.25	461.09
389.45	440.02
389.64	379.17
389.84	489.17
390.03	489.17
390.22	444.70
390.42	416.62
390.61	484.49
390.81	425.98
391.00	500.87
391.19	613.22
391.39	575.77
391.58	517.26
391.78	486.83
391.97	547.69
392.16	547.69
392.36	547.69
392.55	543.00
392.75	507.90
392.94	592.16
393.13	650.67
393.33	559.39
393.52	615.56
393.71	622.58
393.91	496.19
394.10	564.07
394.29	552.37
394.49	592.16
394.68	571.09
394.88	648.33
395.07	519.60
395.26	624.92
395.46	620.24
395.65	746.63
395.84	648.33
396.04	641.31
396.23	645.99
396.42	524.28
396.62	636.63
396.81	627.26
397.00	662.37
397.19	692.80
397.39	711.52
397.58	653.01
397.77	674.07
397.97	777.06
398.16	681.10
398.35	706.84
398.55	631.94
398.74	734.93
398.93	744.29
399.12	734.93
399.32	634.29
399.51	713.86
399.70	697.48
399.90	678.76
400.09	753.65
400.28	720.88
400.47	716.20
400.67	816.85
400.86	823.87
401.05	772.38
401.24	873.02
401.44	807.48
401.63	849.61
401.82	800.46
402.01	739.61
402.21	748.97
402.40	763.01
402.59	823.87
402.78	990.05
402.97	812.17
403.17	868.34
403.36	819.19
403.55	786.42
403.74	926.85
403.93	882.38
404.13	896.43
404.32	990.05
404.51	924.51
404.70	978.34
404.89	889.40
405.09	980.68
405.28	980.68
405.47	990.05
405.66	1020.47
405.85	940.90
406.05	1027.50
406.24	915.15
406.43	1004.09
406.62	1004.09
406.81	1015.79
407.00	999.41
407.20	978.34
407.39	1069.62
407.58	1076.65
407.77	1078.99
407.96	1135.16
408.15	1086.01
408.34	1149.20
408.54	1050.90
408.73	1160.91
408.92	1006.43
409.11	1111.75
409.30	1163.25
409.49	1097.71
409.68	1118.78
409.87	1203.04
410.07	1205.38
410.26	1284.95
410.45	1240.48
410.64	1186.65
410.83	1121.12
411.02	1137.50
411.21	1282.61
411.40	1172.61
411.59	1191.33
411.78	1238.14
411.98	1247.51
412.17	1324.74
412.36	1310.70
412.55	1294.32
412.74	1362.19
412.93	1324.74
413.12	1301.34
413.31	1413.68
413.50	1345.81
413.69	1210.06
413.88	1362.19
414.07	1476.88
414.26	1446.45
414.45	1493.26
414.64	1362.19
414.83	1451.13
415.02	1507.30
415.22	1502.62
415.41	1425.39
415.60	1577.52
415.79	1526.03
415.98	1467.52
416.17	1519.01
416.36	1554.12
416.55	1678.16
416.74	1666.46
416.93	1561.14
417.12	1661.78
417.31	1596.25
417.50	1713.27
417.69	1706.25
417.88	1647.74
418.07	1717.95
418.26	1720.29
418.45	1636.03
418.64	1865.41
418.83	1764.76
419.02	1778.81
419.21	1804.55
419.39	1825.62
419.58	1769.44
419.77	1830.30
419.96	1771.79
420.15	1888.81
420.34	1853.70
420.53	1909.88
420.72	1900.52
420.91	1902.86
421.10	1921.58
421.29	1975.41
421.48	1886.47
421.67	1902.86
421.86	1825.62
422.05	1902.86
422.24	1952.01
422.43	1933.28
422.61	2012.86
422.80	2078.40
422.99	1963.71
423.18	1933.28
423.37	1994.14
423.56	2069.03
423.75	2008.18
423.94	1930.94
424.13	1902.86
424.32	1923.92
424.50	2022.22
424.69	2083.08
424.88	2047.97
425.07	2010.52
425.26	2054.99
425.45	2071.37
425.64	1944.99
425.83	1989.46
426.01	2115.84
426.20	2038.61
426.39	2090.10
426.58	2047.97
426.77	2047.97
426.96	1998.82
427.15	2099.46
427.33	2129.89
427.52	2108.82
427.71	2111.16
427.90	2146.27
428.09	2174.36
428.28	2202.44
428.46	2216.49
428.65	2211.81
428.84	2221.17
429.03	2223.51
429.22	2104.14
429.40	2310.11
429.59	2207.13
429.78	2188.40
429.97	2090.10
430.16	2214.15
430.34	2328.83
430.53	2258.62
430.72	2331.17
430.91	2239.89
431.10	2242.23
431.28	2354.58
431.47	2385.01
431.66	2422.45
431.85	2256.28
432.03	2436.50
432.22	2495.01
432.41	2438.84
432.60	2567.57
432.79	2403.73
432.97	2406.07
433.16	2537.14
433.35	2464.58
433.54	2441.18
433.72	2457.56
433.91	2436.50
434.10	2532.46
434.28	2504.37
434.47	2607.36
434.66	2527.78
434.85	2588.63
435.03	2661.19
435.22	2569.91
435.41	2621.40
435.59	2684.59
435.78	2630.76
435.97	2719.70
436.16	2703.32
436.34	2649.49
436.53	2651.83
436.72	2738.43
436.90	2672.89
437.09	2729.06
437.28	2689.28
437.46	2677.57
437.65	2705.66
437.84	2787.58
438.02	2677.57
438.21	2684.59
438.40	2656.51
438.58	2803.96
438.77	2827.37
438.96	2785.24
439.14	2923.33
439.33	2958.44
439.52	2916.31
439.70	2937.37
439.89	2972.48
440.08	2979.50
440.26	3075.46
440.45	3038.02
440.63	3103.55
440.82	3108.23
441.01	3021.63
441.19	3145.68
441.38	3260.37
441.57	3328.24
441.75	3197.17
441.94	3126.96
442.12	3262.71
442.31	3424.20
442.50	3276.75
442.68	3211.22
442.87	3236.96
443.05	3309.52
443.24	3339.94
443.43	3363.35
443.61	3400.80
443.80	3478.04
443.98	3529.53
444.17	3356.33
444.35	3368.03
444.54	3431.23
444.73	3370.37
444.91	3566.98
445.10	3527.19
445.28	3487.40
445.47	3475.70
445.65	3510.80
445.84	3487.40
446.02	3536.55
446.21	3449.95
446.39	3440.59
446.58	3440.59
446.77	3463.99
446.95	3365.69
447.14	3595.06
447.32	3433.57
447.51	3478.04
447.69	3595.06
447.88	3487.40
448.06	3559.95
448.25	3461.65
448.43	3508.46
448.62	3543.57
448.80	3510.80
448.99	3627.83
449.17	3461.65
449.36	3475.70
449.54	3728.47
449.73	3730.81
449.91	3508.46
450.10	3803.37
450.28	3756.56
450.46	3747.20
450.65	3667.62
450.83	3707.41
451.02	3728.47
451.20	3950.82
451.39	3875.93
451.57	3730.81
451.76	3674.64
451.94	3845.50
452.13	3829.12
452.31	3873.59
452.49	3730.81
452.68	3929.76
452.86	3861.88
453.05	3808.05
453.23	4014.02
453.42	3840.82
453.60	3852.52
453.78	3733.15
453.97	3946.14
454.15	3999.98
454.34	3896.99
454.52	3976.57
454.70	4021.04
454.89	4004.66
455.07	3824.44
455.26	4131.05
455.44	4156.79
455.62	3943.80
455.81	4140.41
455.99	4184.88
456.17	4212.96
456.36	4131.05
456.54	4072.53
456.73	4262.12
456.91	4266.80
457.09	4318.29
457.28	4264.46
457.46	4184.88
457.64	4566.39
457.83	4212.96
458.01	4304.25
458.19	4318.29
458.38	4311.27
458.56	4369.78
458.74	4477.44
458.93	4442.34
459.11	4479.79
459.29	4421.27
459.48	4482.13
459.66	4484.47
459.84	4449.36
460.03	4477.44
460.21	4449.36
460.39	4498.51
460.57	4557.02
460.76	4648.30
460.94	4596.81
461.12	4638.94
461.31	4559.36
461.49	4638.94
461.67	4678.73
461.85	4608.51
462.04	4681.07
462.22	4971.30
462.40	4702.14
462.59	4732.56
462.77	4854.27
462.95	4732.56
463.13	4777.03
463.32	4786.40
463.50	4821.50
463.68	4784.06
463.86	4751.29
464.05	4947.89
464.23	4802.78
464.41	5015.77
464.59	4734.90
464.78	4943.21
464.96	4905.76
465.14	4929.17
465.32	5046.20
465.50	4922.15
465.69	5107.05
465.87	4915.12
466.05	4833.21
466.23	4994.70
466.41	4917.47
466.60	5050.88
466.78	4983.00
466.96	5125.77
467.14	5048.54
467.32	4849.59
467.51	5291.95
467.69	5060.24
467.87	5212.37
468.05	5188.97
468.23	5132.79
468.41	5221.74
468.60	5221.74
468.78	5275.57
468.96	5200.67
469.14	5167.90
469.32	5224.08
469.50	5268.55
469.69	5207.69
469.87	5509.62
470.05	5341.10
470.23	5476.85
470.41	5322.38
470.59	5331.74
470.77	5376.21
470.95	5537.71
471.14	5476.85
471.32	5390.25
471.50	5593.88
471.68	5441.75
471.86	5570.48
472.04	5671.12
472.22	5806.87
472.40	5582.18
472.58	5703.89
472.77	5849.00
472.95	5795.17
473.13	5975.39
473.31	5696.86
473.49	5888.79
473.67	5764.74
473.85	6019.86
474.03	6024.54
474.21	5994.11
474.39	6029.22
474.57	6029.22
474.75	6118.16
474.93	6186.04
475.12	6106.46
475.30	6324.13
475.48	6200.08
475.66	6239.87
475.84	6104.12
476.02	6230.51
476.20	6249.23
476.38	6583.93
476.56	6569.88
476.74	6607.33
476.92	6366.26
477.10	6513.71
477.28	6527.75
477.46	6661.16
477.64	6644.78
477.82	6778.19
478.00	6773.51
478.18	6927.99
478.36	6970.12
478.54	7019.27
478.72	7040.33
478.90	7344.60
479.08	7145.66
479.26	7356.30
479.44	7316.51
479.62	7330.56
479.80	7384.39
479.98	7524.82
480.16	7541.21
480.34	7398.43
480.52	7445.24
480.70	7786.96
480.88	7552.91
481.06	7730.79
481.24	7749.51
481.41	7808.03
481.59	7896.97
481.77	7852.50
481.95	8028.04
482.13	8102.93
482.31	8081.87
482.49	8266.77
482.67	8332.31
482.85	8285.50
483.03	8554.66
483.21	8535.93
483.39	8641.26
483.57	8627.21
483.74	8564.02
483.92	8674.03
484.10	8704.45
484.28	8922.12
484.46	8898.72
484.64	9247.46
484.82	9214.69
485.00	9048.51
485.18	9373.85
485.35	9439.38
485.53	9284.91
485.71	9408.95
485.89	9516.62
486.07	9373.85
486.25	9446.40
486.43	9687.48
486.61	9706.20
486.78	9877.06
486.96	9851.31
487.14	10052.60
487.32	9968.34
487.50	10122.82
487.68	10349.85
487.85	10448.15
488.03	10644.76
488.21	10548.79
488.39	10527.73
488.57	10778.17
488.75	10789.87
488.92	10745.40
489.10	10864.77
489.28	10813.28
489.46	10862.43
489.64	10970.09
489.81	11122.23
489.99	11143.29
490.17	11389.05
490.35	11461.60
490.53	11559.91
490.70	11454.58
490.88	11517.78
491.06	11658.21
491.24	11894.60
491.41	11896.94
491.59	11885.24
491.77	11927.37
491.95	11920.35
492.13	12119.29
492.30	12149.72
492.48	12320.58
492.66	12311.22
492.84	12280.79
493.01	12606.13
493.19	12561.66
493.37	12659.96
493.54	12716.13
493.72	12685.70
493.90	12886.99
494.08	13011.04
494.25	13165.51
494.43	13200.62
494.61	13104.66
494.79	13437.02
494.96	13158.49
495.14	13338.71
495.32	13415.95
495.49	13479.15
495.67	13792.78
495.85	13886.40
496.02	13561.06
496.20	13820.86
496.38	13846.61
496.55	14083.00
496.73	14651.75
496.91	14073.64
497.09	14164.92
497.26	14218.75
497.44	14211.73
497.62	14321.74
497.79	14618.99
497.97	14511.32
498.14	14572.18
498.32	15005.17
498.50	14885.81
498.67	15051.99
498.85	14925.60
499.03	14988.79
499.20	15143.27
499.38	15056.67
499.56	15229.87
499.73	15243.91
499.91	15133.90
500.08	15272.00
500.26	15396.04
500.44	15215.82
500.61	15431.15
500.79	15482.64
500.97	15939.05
501.14	15730.74
501.32	15805.64
501.49	15791.59
501.67	15779.89
501.84	16030.33
502.02	16051.39
502.20	16081.82
502.37	15922.66
502.55	16081.82
502.72	16194.17
502.90	16283.11
503.07	16252.68
503.25	16170.76
503.43	16285.45
503.60	16407.16
503.78	16603.76
503.95	16524.18
504.13	16416.52
504.30	16704.40
504.48	16659.93
504.65	16645.89
504.83	16870.58
505.01	16968.88
505.18	16992.29
505.36	16826.11
505.53	16851.86
505.71	17165.49
505.88	17057.82
506.06	16992.29
506.23	17221.66
506.41	17249.75
506.58	17514.23
506.76	17202.94
506.93	17422.95
507.11	17563.38
507.28	17507.21
507.46	17980.00
507.63	17671.04
507.81	17795.09
507.98	17729.56
508.16	17694.45
508.33	17823.18
508.50	17820.84
508.68	17996.38
508.85	18139.15
509.03	18054.89
509.20	18125.11
509.38	18279.58
509.55	18389.59
509.73	18408.31
509.90	18359.16
510.08	18370.86
510.25	18558.11
510.42	18520.66
510.60	18494.91
510.77	18590.88
510.95	18899.83
511.12	18775.78
511.30	18600.24
511.47	18841.31
511.64	18728.97
511.82	19222.82
511.99	18911.53
512.17	18960.68
512.34	18916.21
512.51	19133.88
512.69	19255.59
512.86	19377.30
513.04	19351.55
513.21	19632.41
513.38	19363.25
513.56	19157.28
513.73	19309.42
513.90	19515.39
514.08	19597.31
514.25	19667.52
514.43	19707.31
514.60	19646.46
514.77	19814.98
514.95	20046.69
515.12	19775.19
515.29	19660.50
515.47	20053.71
515.64	20168.40
515.81	19946.05
515.99	19934.34
516.16	20147.33
516.33	20350.96
516.51	20407.13
516.68	20341.60
516.85	20219.89
517.03	20093.50
517.20	20505.43
517.37	20636.50
517.54	20545.22
517.72	20662.25
517.89	20547.56
518.06	20416.49
518.24	20512.46
518.41	20718.42
518.58	20587.35
518.75	20915.03
518.93	21022.69
519.10	21003.97
519.27	21083.55
519.45	20870.56
519.62	20989.92
519.79	20945.45
519.96	21296.53
520.14	21102.27
520.31	21142.06
520.48	21362.07
520.65	21376.11
520.83	21383.13
521.00	21303.56
521.17	21238.02
521.34	21383.13
521.52	21830.18
521.69	21242.70
521.86	21668.68
522.03	21818.47
522.20	21635.91
522.38	22024.44
522.55	21624.21
522.72	21944.86
522.89	21626.55
523.07	21832.52
523.24	21853.58
523.41	22258.49
523.58	21862.94
523.75	22118.06
523.92	21923.80
524.10	22162.53
524.27	22616.60
524.44	22380.20
524.61	22209.34
524.78	22511.27
524.96	22490.21
525.13	22513.61
525.30	22583.83
525.47	22752.35
525.64	22518.29
525.81	22801.50
525.98	22939.59
526.16	22883.42
526.33	22817.88
526.50	22499.57
526.67	22595.53
526.84	22822.56
527.01	22522.98
527.18	22939.59
527.36	23005.13
527.53	23323.44
527.70	23164.28
527.87	23105.77
528.04	23089.38
528.21	23178.33
528.38	22890.44
528.55	23201.73
528.72	23208.75
528.89	23433.44
529.07	23648.77
529.24	23332.80
529.41	23229.82
529.58	23538.77
529.75	23370.25
529.92	23594.94
530.09	23613.66
530.26	23531.75
530.43	23608.98
530.60	23618.35
530.77	23449.83
530.94	24020.92
531.11	23906.23
531.28	23735.37
531.46	23323.44
531.63	24114.54
531.80	24224.54
531.97	23894.53
532.14	24191.78
532.31	23894.53
532.48	24128.58
532.65	23927.30
532.82	23934.32
532.99	24072.41
533.16	24077.09
533.33	24226.89
533.50	24559.24
533.67	24233.91
533.84	24334.55
534.01	24446.90
534.18	24577.97
534.35	24631.80
534.52	24601.37
534.69	24673.93
534.86	24594.35
535.03	24666.91
535.20	24872.87
535.37	25144.38
535.54	24505.41
535.71	24638.82
535.88	24416.47
536.05	24463.28
536.22	24769.89
536.38	24812.02
536.55	24938.41
536.72	24943.09
536.89	24940.75
537.06	24912.66
537.23	25247.36
537.40	24978.20
537.57	24877.55
537.74	25242.68
537.91	25219.27
538.08	25439.28
538.25	25184.16
538.42	25422.90
538.59	25479.07
538.75	25135.01
538.92	25542.27
539.09	25568.01
539.26	25336.30
539.43	25532.90
539.60	25507.16
539.77	25659.29
539.94	25469.71
540.11	25628.87
540.28	25521.20
540.44	25280.13
540.61	25460.35
540.78	25413.54
540.95	25640.57
541.12	25743.55
541.29	25989.31
541.46	25806.75
541.62	25757.60
541.79	25914.41
541.96	25359.70
542.13	26010.37
542.30	25668.66
542.47	25940.16
542.63	25975.27
542.80	26120.38
542.97	26391.88
543.14	26424.65
543.31	26092.29
543.48	26267.83
543.64	26855.31
543.81	26721.90
543.98	26265.49
544.15	26787.43
544.32	26831.90
544.48	26621.25
544.65	26590.83
544.82	26457.42
544.99	26450.39
545.16	26373.16
545.32	26499.55
545.49	26686.79
545.66	27002.76
545.83	27047.23
546.00	26824.88
546.16	26565.08
546.33	26801.47
546.50	26412.95
546.67	26768.71
546.83	26464.44
547.00	27040.21
547.17	26941.91
547.34	26995.74
547.50	27056.59
547.67	27089.36
547.84	27182.98
548.00	26890.41
548.17	27222.77
548.34	26998.08
548.51	27014.46
548.67	27300.01
548.84	27147.87
549.01	27239.15
549.18	27236.81
549.34	26998.08
549.51	27428.74
549.68	27248.52
549.84	27089.36
550.01	27096.38
550.18	27182.98
550.34	27487.25
550.51	27440.44
550.68	27438.10
550.84	27117.45
551.01	27370.22
551.18	27400.65
551.34	27690.88
551.51	27211.07
551.68	27850.03
551.84	27960.04
552.01	27929.61
552.18	27660.45
552.34	27866.42
552.51	28210.48
552.68	27871.10
552.84	27681.52
553.01	27922.59
553.18	27850.03
553.34	27957.70
553.51	27814.93
553.67	27871.10
553.84	28217.50
554.01	28418.78
554.17	27896.85
554.34	27995.15
554.51	27725.99
554.67	27754.07
554.84	28060.68
555.00	28081.75
555.17	28128.56
555.33	28266.65
555.50	27953.02
555.67	28011.53
555.83	28048.98
556.00	28379.00
556.16	28624.75
556.33	28369.63
556.50	28339.21
556.66	28528.79
556.83	28379.00
556.99	28308.78
557.16	28252.61
557.32	28226.86
557.49	28552.20
557.65	28222.18
557.82	28161.33
557.98	28081.75
558.15	28526.45
558.32	28748.80
558.48	28830.72
558.65	28538.15
558.81	28641.14
558.98	28456.23
559.14	28430.49
559.31	28641.14
559.47	28959.45
559.64	28517.09
559.80	28840.08
559.97	28748.80
560.13	28577.94
560.30	28755.82
560.46	28821.36
560.63	28847.10
560.79	28795.61
560.96	28975.83
561.12	28877.53
561.29	28980.51
561.45	29209.89
561.61	28945.41
561.78	28552.20
561.94	29212.23
562.11	28971.15
562.27	28891.57
562.44	28844.76
562.60	28833.06
562.77	28868.17
562.93	28917.32
563.10	29057.75
563.26	28924.34
563.42	29015.62
563.59	29366.70
563.75	29008.60
563.92	29235.63
564.08	29032.00
564.24	28882.21
564.41	29057.75
564.57	29151.37
564.74	29181.80
564.90	29116.26
565.07	29280.10
565.23	29383.09
565.39	29120.95
565.56	29184.14
565.72	29355.00
565.88	29329.25
566.05	29008.60
566.21	29226.27
566.38	29385.43
566.54	29205.20
566.70	29216.91
566.87	29771.61
567.03	29516.50
567.19	29603.10
567.36	29397.13
567.52	29053.07
567.68	29418.19
567.85	29198.18
568.01	29179.46
568.17	29310.53
568.34	29465.00
568.50	29362.02
568.66	29502.45
568.83	29537.56
568.99	29350.32
569.15	29497.77
569.32	29516.50
569.48	28987.53
569.64	29380.74
569.81	29453.30
569.97	29535.22
570.13	29404.15
570.30	29537.56
570.46	29551.60
570.62	29401.81
570.78	29603.10
570.95	29457.98
571.11	29380.74
571.27	29500.11
571.43	29399.47
571.60	29689.70
571.76	29364.36
571.92	29553.94
572.09	29394.79
572.25	29729.48
572.41	29448.62
572.57	29649.91
572.74	29635.86
572.90	29560.97
573.06	29689.70
573.22	29469.69
573.38	29755.23
573.55	29771.61
573.71	30029.07
573.87	29729.48
574.03	29542.24
574.20	29273.08
574.36	29699.06
574.52	29703.74
574.68	29703.74
574.84	29612.46
575.01	29909.71
575.17	29589.05
575.33	30132.06
575.49	29436.92
575.65	29795.02
575.82	30110.99
575.98	29376.06
576.14	29893.32
576.30	29413.51
576.46	29645.23
576.62	29397.13
576.79	29703.74
576.95	29530.54
577.11	29420.53
577.27	29287.12
577.43	29846.51
577.59	29858.21
577.75	29748.21
577.92	29308.19
578.08	29757.57
578.24	29663.95
578.40	30012.69
578.56	29848.85
578.72	30043.12
578.88	30340.36
579.04	29879.28
579.21	29708.42
579.37	29933.11
579.53	29858.21
579.69	29617.14
579.85	29825.45
580.01	29947.15
580.17	29406.49
580.33	29825.45
580.49	29715.44
580.65	29844.17
580.82	30022.05
580.98	29879.28
581.14	29905.02
581.30	29986.94
581.46	30031.41
581.62	30108.65
581.78	29933.11
581.94	29666.29
582.10	30008.01
582.26	29968.22
582.42	29642.88
582.58	30466.75
582.74	29745.87
582.90	29809.06
583.06	29942.47
583.22	30139.08
583.38	30122.69
583.54	29965.88
583.70	29717.78
583.86	30209.29
584.02	30295.89
584.18	30026.73
584.34	29898.00
584.50	30066.52
584.66	29841.83
584.82	29928.43
584.98	29685.01
585.14	29975.24
585.30	29666.29
585.46	29811.40
585.62	29591.39
585.78	29708.42
585.94	29858.21
586.10	30052.48
586.26	29907.37
586.42	30501.86
586.58	29989.28
586.74	30192.91
586.90	29926.09
587.06	29832.47
587.22	30038.44
587.38	30206.95
587.54	30134.40
587.70	30391.86
587.86	30787.41
588.02	30082.91
588.18	30185.89
588.34	30314.62
588.49	29933.11
588.65	30092.27
588.81	30143.76
588.97	29883.96
589.13	30263.13
589.29	30022.05
589.45	30244.40
589.61	30258.45
589.77	30473.78
589.93	30436.33
590.08	30457.39
590.24	30356.75
590.40	30426.96
590.56	30312.28
590.72	30223.34
590.88	30106.31
591.04	30263.13
591.20	30319.30
591.35	30366.11
591.51	30820.17
591.67	30478.46
591.83	30822.51
591.99	30513.56
