SpectraSuite Data File
++++++++++++++++++++++++++++++++++++
Date: Fri Oct 18 13:58:05 GMT-05:00 2013
User: bianchi
Dark Spectrum Present: No
Reference Spectrum Present: No
Number of Sampled Component Spectra: 1
Spectrometers: USB2+H05261
Integration Time (usec): 50000 (USB2+H05261)
Spectra Averaged: 1 (USB2+H05261)
Boxcar Smoothing: 0 (USB2+H05261)
Correct for Electrical Dark: No (USB2+H05261)
Strobe/Lamp Enabled: No (USB2+H05261)
Correct for Detector Non-linearity: No (USB2+H05261)
Correct for Stray Light: No (USB2+H05261)
Number of Pixels in Processed Spectrum: 2048
>>>>>Begin Processed Spectral Data<<<<<
365.73	0.00
365.92	0.00
366.12	0.00
366.32	0.00
366.52	0.00
366.72	0.00
366.91	0.00
367.11	0.00
367.31	0.00
367.51	0.00
367.70	0.00
367.90	0.00
368.10	0.00
368.30	0.00
368.49	0.00
368.69	0.00
368.89	0.00
369.09	0.00
369.28	0.00
369.48	0.00
369.68	0.00
369.87	0.00
370.07	0.00
370.27	0.00
370.47	0.00
370.66	95.96
370.86	126.39
371.06	121.71
371.25	117.03
371.45	140.43
371.65	81.92
371.84	156.82
372.04	156.82
372.24	173.20
372.44	182.56
372.63	128.73
372.83	173.20
373.03	257.46
373.22	269.16
373.42	229.37
373.62	159.16
373.81	212.99
374.01	248.10
374.21	264.48
374.40	224.69
374.60	257.46
374.79	194.26
374.99	205.97
375.19	177.88
375.38	191.92
375.58	191.92
375.78	238.73
375.97	315.97
376.17	304.27
376.37	259.80
376.56	285.55
376.76	322.99
376.95	187.24
377.15	294.91
377.35	337.04
377.54	208.31
377.74	257.46
377.93	266.82
378.13	280.86
378.33	292.57
378.52	332.36
378.72	383.85
378.91	269.16
379.11	292.57
379.31	278.52
379.50	273.84
379.70	276.18
379.89	320.65
380.09	276.18
380.28	287.89
380.48	294.91
380.68	283.20
380.87	322.99
381.07	346.40
381.26	400.23
381.46	332.36
381.65	257.46
381.85	339.38
382.04	351.08
382.24	315.97
382.43	297.25
382.63	383.85
382.83	264.48
383.02	454.06
383.22	283.20
383.41	397.89
383.61	318.31
383.80	421.30
384.00	339.38
384.19	433.00
384.39	341.72
384.58	386.19
384.78	440.02
384.97	397.89
385.17	369.80
385.36	465.77
385.56	435.34
385.75	339.38
385.95	430.66
386.14	423.64
386.34	407.25
386.53	475.13
386.72	330.02
386.92	472.79
387.11	510.24
387.31	447.04
387.50	440.02
387.70	430.66
387.89	442.36
388.09	425.98
388.28	397.89
388.48	437.68
388.67	507.90
388.86	484.49
389.06	491.51
389.25	458.74
389.45	505.56
389.64	451.72
389.84	444.70
390.03	463.43
390.22	484.49
390.42	498.53
390.61	461.09
390.81	547.69
391.00	376.83
391.19	587.47
391.39	477.47
391.58	514.92
391.78	547.69
391.97	486.83
392.16	486.83
392.36	521.94
392.55	524.28
392.75	566.41
392.94	571.09
393.13	566.41
393.33	580.45
393.52	531.30
393.71	589.82
393.91	596.84
394.10	613.22
394.29	610.88
394.49	636.63
394.68	695.14
394.88	655.35
395.07	648.33
395.26	601.52
395.46	671.73
395.65	608.54
395.84	610.88
396.04	613.22
396.23	702.16
396.42	599.18
396.62	594.50
396.81	695.14
397.00	667.05
397.19	650.67
397.39	695.14
397.58	746.63
397.77	683.44
397.97	702.16
398.16	678.76
398.35	786.42
398.55	704.50
398.74	725.57
398.93	718.54
399.12	634.29
399.32	716.20
399.51	718.54
399.70	727.91
399.90	758.33
400.09	770.04
400.28	826.21
400.47	763.01
400.67	842.59
400.86	828.55
401.05	805.14
401.24	816.85
401.44	866.00
401.63	844.93
401.82	880.04
402.01	781.74
402.21	779.40
402.40	894.08
402.59	919.83
402.78	870.68
402.97	868.34
403.17	938.55
403.36	968.98
403.55	868.34
403.74	910.47
403.93	952.60
404.13	910.47
404.32	964.30
404.51	882.38
404.70	1008.77
404.89	945.58
405.09	1057.92
405.28	844.93
405.47	978.34
405.66	1057.92
405.85	1027.50
406.05	1067.28
406.24	947.92
406.43	1041.54
406.62	992.39
406.81	1081.33
407.00	1034.52
407.20	1107.07
407.39	1053.24
407.58	1057.92
407.77	1086.01
407.96	1114.10
408.15	1130.48
408.34	1137.50
408.54	1160.91
408.73	1057.92
408.92	1107.07
409.11	1153.88
409.30	1078.99
409.49	1156.22
409.68	1198.35
409.87	1123.46
410.07	1121.12
410.26	1249.85
410.45	1186.65
410.64	1139.84
410.83	1160.91
411.02	1167.93
411.21	1277.93
411.40	1294.32
411.59	1235.80
411.78	1196.01
411.98	1254.53
412.17	1366.87
412.36	1366.87
412.55	1280.27
412.74	1394.96
412.93	1303.68
413.12	1420.71
413.31	1425.39
413.50	1411.34
413.69	1404.32
413.88	1497.94
414.07	1434.75
414.26	1479.22
414.45	1621.99
414.64	1385.60
414.83	1504.96
415.02	1502.62
415.22	1638.38
415.41	1612.63
415.60	1607.95
415.79	1619.65
415.98	1614.97
416.17	1631.35
416.36	1680.50
416.55	1689.87
416.74	1694.55
416.93	1699.23
417.12	1741.36
417.31	1753.06
417.50	1678.16
417.69	1760.08
417.88	1614.97
418.07	1830.30
418.26	1701.57
418.45	1856.04
418.64	1799.87
418.83	1900.52
419.02	1799.87
419.21	1877.11
419.39	1863.07
419.58	1717.95
419.77	1928.60
419.96	1886.47
420.15	1935.62
420.34	1973.07
420.53	1954.35
420.72	1909.88
420.91	1923.92
421.10	1905.20
421.29	1973.07
421.48	1963.71
421.67	1970.73
421.86	1977.75
422.05	2008.18
422.24	1968.39
422.43	1879.45
422.61	2005.84
422.80	2104.14
422.99	2076.06
423.18	2019.88
423.37	2066.69
423.56	2160.31
423.75	1996.48
423.94	1998.82
424.13	1823.28
424.32	2097.12
424.50	2104.14
424.69	2160.31
424.88	2106.48
425.07	2045.63
425.26	2143.93
425.45	2153.29
425.64	2085.42
425.83	2064.35
426.01	2108.82
426.20	2118.18
426.39	2115.84
426.58	2118.18
426.77	2197.76
426.96	2019.88
427.15	2064.35
427.33	2076.06
427.52	2232.87
427.71	2113.50
427.90	2211.81
428.09	2260.96
428.28	2239.89
428.46	2265.64
428.65	2211.81
428.84	2284.36
429.03	2331.17
429.22	2242.23
429.40	2324.15
429.59	2246.91
429.78	2097.12
429.97	2188.40
430.16	2392.03
430.34	2401.39
430.53	2392.03
430.72	2380.32
430.91	2326.49
431.10	2275.00
431.28	2399.05
431.47	2431.82
431.66	2296.07
431.85	2457.56
432.03	2511.39
432.22	2492.67
432.41	2417.77
432.60	2541.82
432.79	2534.80
432.97	2504.37
433.16	2555.86
433.35	2457.56
433.54	2483.31
433.72	2502.03
433.91	2476.29
434.10	2686.94
434.28	2530.12
434.47	2731.41
434.66	2523.10
434.85	2686.94
435.03	2668.21
435.22	2703.32
435.41	2750.13
435.59	2658.85
435.78	2888.22
435.97	2605.02
436.16	2885.88
436.34	2656.51
436.53	2710.34
436.72	2853.11
436.90	2818.00
437.09	2726.72
437.28	2747.79
437.46	2822.69
437.65	2925.67
437.84	2864.82
438.02	2939.71
438.21	2799.28
438.40	2810.98
438.58	2902.26
438.77	3026.31
438.96	2885.88
439.14	3009.93
439.33	2878.86
439.52	3180.79
439.70	3042.70
439.89	3180.79
440.08	3005.25
440.26	3009.93
440.45	3173.77
440.63	3201.85
440.82	3190.15
441.01	3117.59
441.19	3222.92
441.38	3279.09
441.57	3279.09
441.75	3246.32
441.94	3295.47
442.12	3375.05
442.31	3449.95
442.50	3471.01
442.68	3309.52
442.87	3403.14
443.05	3335.26
443.24	3485.06
443.43	3363.35
443.61	3445.27
443.80	3557.61
443.98	3368.03
444.17	3375.05
444.35	3522.51
444.54	3534.21
444.73	3574.00
444.91	3578.68
445.10	3529.53
445.28	3515.48
445.47	3559.95
445.65	3583.36
445.84	3599.74
446.02	3555.27
446.21	3562.30
446.39	3686.34
446.58	3566.98
446.77	3611.45
446.95	3478.04
447.14	3503.78
447.32	3550.59
447.51	3557.61
447.69	3639.53
447.88	3660.60
448.06	3625.49
448.25	3609.11
448.43	3566.98
448.62	3634.85
448.80	3590.38
448.99	3576.34
449.17	3721.45
449.36	3737.84
449.54	3627.83
449.73	3740.18
449.91	3714.43
450.10	3733.15
450.28	3794.01
450.46	3740.18
450.65	3772.94
450.83	3843.16
451.02	3845.50
451.20	3868.91
451.39	3779.97
451.57	3819.75
451.76	3822.09
451.94	3819.75
452.13	4032.74
452.31	3911.04
452.49	3873.59
452.68	3882.95
452.86	3871.25
453.05	4007.00
453.23	4081.89
453.42	3995.29
453.60	3915.72
453.78	3983.59
453.97	3786.99
454.15	3899.33
454.34	3981.25
454.52	4114.66
454.70	4088.92
454.89	4173.18
455.07	3941.46
455.26	4159.13
455.44	4236.37
455.62	4140.41
455.81	4114.66
455.99	4180.20
456.17	4140.41
456.36	4329.99
456.54	4339.35
456.73	4320.63
456.91	4608.51
457.09	4400.21
457.28	4416.59
457.46	4353.40
457.64	4393.19
457.83	4458.72
458.01	4273.82
458.19	4526.60
458.38	4432.97
458.56	4493.83
458.74	4428.29
458.93	4425.95
459.11	4627.24
459.29	4526.60
459.48	4540.64
459.66	4578.09
459.84	4592.13
460.03	4688.09
460.21	4725.54
460.39	4674.05
460.57	4629.58
460.76	4507.87
460.94	4760.65
461.12	4779.37
461.31	4758.31
461.49	4676.39
461.67	4638.94
461.85	4971.30
462.04	4805.12
462.22	5093.01
462.40	5029.81
462.59	4903.42
462.77	4910.44
462.95	4910.44
463.13	4917.47
463.32	4983.00
463.50	4952.57
463.68	4947.89
463.86	4980.66
464.05	4980.66
464.23	4980.66
464.41	5046.20
464.59	5057.90
464.78	5118.75
464.96	5074.28
465.14	4924.49
465.32	5027.47
465.50	5228.76
465.69	5137.48
465.87	5191.31
466.05	5067.26
466.23	5186.63
466.41	5373.87
466.60	5401.96
466.78	5268.55
466.96	5177.26
467.14	5156.20
467.32	5172.58
467.51	5355.15
467.69	5156.20
467.87	5256.84
468.05	5294.29
468.23	5305.99
468.41	5268.55
468.60	5334.08
468.78	5490.90
468.96	5425.36
469.14	5551.75
469.32	5483.88
469.50	5338.76
469.69	5568.13
469.87	5554.09
470.05	5528.35
470.23	5533.03
470.41	5617.29
470.59	5673.46
470.77	5577.50
470.95	5619.63
471.14	5678.14
471.32	5486.22
471.50	5806.87
471.68	5762.40
471.86	5713.25
472.04	5673.46
472.22	5977.73
472.40	5757.72
472.58	5802.19
472.77	5888.79
472.95	6047.94
473.13	5968.37
473.31	6087.73
473.49	6146.25
473.67	5996.45
473.85	5916.87
474.03	6066.67
474.21	6150.93
474.39	6200.08
474.57	6218.80
474.75	6242.21
474.93	6394.34
475.12	6193.06
475.30	6431.79
475.48	6387.32
475.66	6410.73
475.84	6478.60
476.02	6466.90
476.20	6516.05
476.38	6899.90
476.56	6483.28
476.74	6717.34
476.92	6619.04
477.10	6780.53
477.28	6761.81
477.46	6644.78
477.64	7089.48
477.82	6925.65
478.00	7234.60
478.18	7098.84
478.36	7353.96
478.54	7171.40
478.72	7295.45
478.90	7155.02
479.08	7377.37
479.26	7328.22
479.44	7527.16
479.62	7702.70
479.80	7550.57
479.98	7707.38
480.16	7716.75
480.34	7829.09
480.52	7824.41
480.70	7875.90
480.88	7620.78
481.06	8077.19
481.24	7850.16
481.41	7815.05
481.59	8156.77
481.77	8248.05
481.95	8252.73
482.13	8402.52
482.31	8386.14
482.49	8521.89
482.67	8374.44
482.85	8585.08
483.03	8620.19
483.21	8851.91
483.39	8833.18
483.57	8650.62
483.74	8889.35
483.92	8711.47
484.10	9032.13
484.28	9090.64
484.46	9301.29
484.64	9289.59
484.82	9355.12
485.00	9240.44
485.18	9472.15
485.35	9612.58
485.53	9528.32
485.71	9631.30
485.89	9736.63
486.07	9900.47
486.25	10057.28
486.43	9834.93
486.61	9989.41
486.78	10186.01
486.96	10228.14
487.14	10331.12
487.32	10354.53
487.50	10289.00
487.68	10410.70
487.85	10534.75
488.03	10630.71
488.21	10953.71
488.39	10710.29
488.57	10785.19
488.75	11115.20
488.92	11356.28
489.10	11194.78
489.28	11227.55
489.46	11255.64
489.64	11293.08
489.81	11604.38
489.99	11644.17
490.17	11662.89
490.35	11660.55
490.53	11798.64
490.70	12131.00
490.88	12065.46
491.06	11779.92
491.24	12142.70
491.41	12161.42
491.59	12346.33
491.77	12573.36
491.95	12610.81
492.13	12521.87
492.30	12498.46
492.48	12671.66
492.66	12821.45
492.84	12788.69
493.01	12812.09
493.19	13060.19
493.37	13078.91
493.54	13249.77
493.72	12905.71
493.90	13287.22
494.08	13324.67
494.25	13582.13
494.43	13891.08
494.61	13610.22
494.79	13790.44
494.96	13731.92
495.14	13830.23
495.32	14085.34
495.49	14085.34
495.67	13870.01
495.85	14066.62
496.02	14307.69
496.20	14373.23
496.38	14382.59
496.55	14340.46
496.73	14726.65
496.91	14534.73
497.09	14787.50
497.26	14640.05
497.44	14338.12
497.62	14813.25
497.79	14829.63
497.97	14967.73
498.14	15087.09
498.32	15183.06
498.50	15389.02
498.67	15140.93
498.85	15356.25
499.03	15396.04
499.20	15611.37
499.38	15515.41
499.56	15660.52
499.73	15744.78
499.91	15866.49
500.08	15936.71
500.26	15756.49
500.44	15700.31
500.61	15807.98
500.79	15880.53
500.97	16030.33
501.14	16327.58
501.32	16297.15
501.49	16240.98
501.67	16362.69
501.84	16252.68
502.02	16208.21
502.20	16390.77
502.37	16549.93
502.55	16851.86
502.72	16751.21
502.90	16891.65
503.07	16643.55
503.25	16732.49
503.43	16898.67
503.60	16877.60
503.78	17315.28
503.95	17102.29
504.13	17256.77
504.30	17266.13
504.48	17219.32
504.65	17238.05
504.83	17390.18
505.01	17692.11
505.18	17453.37
505.36	17788.07
505.53	17415.93
505.71	17429.97
505.88	17774.03
506.06	17329.33
506.23	17884.03
506.41	17507.21
506.58	18082.98
506.76	18003.40
506.93	18012.76
507.11	17930.84
507.28	18087.66
507.46	18050.21
507.63	18132.13
507.81	18174.26
507.98	18279.58
508.16	18185.96
508.33	18356.82
508.50	18295.97
508.68	18321.71
508.85	18478.53
509.03	18806.20
509.20	18778.12
509.38	18970.04
509.55	18904.51
509.73	18724.29
509.90	18871.74
510.08	19049.62
510.25	18958.34
510.42	19185.37
510.60	19103.45
510.77	19632.41
510.95	19143.24
511.12	18853.02
511.30	19005.15
511.47	19484.96
511.64	19066.00
511.82	19470.92
511.99	19470.92
512.17	19711.99
512.34	19515.39
512.51	19833.70
512.69	19805.61
512.86	19875.83
513.04	19803.27
513.21	20327.55
513.38	20357.98
513.56	20049.03
513.73	20053.71
513.90	20095.84
514.08	20177.76
514.25	20196.48
514.43	20285.42
514.60	20259.68
514.77	20533.52
514.95	20470.33
515.12	20423.51
515.29	20201.16
515.47	20482.03
515.64	20837.79
515.81	20194.14
515.99	20840.13
516.16	21081.21
516.33	20828.43
516.51	20720.76
516.68	20798.00
516.85	20891.62
517.03	20924.39
517.20	21020.35
517.37	20905.66
517.54	21476.76
517.72	21710.81
517.89	20964.18
518.06	21284.83
518.24	21282.49
518.41	21209.93
518.58	21263.77
518.75	21392.50
518.93	21525.91
519.10	21645.27
519.27	21759.96
519.45	21254.40
519.62	21666.34
519.79	21570.38
519.96	21617.19
520.14	22171.89
520.31	21874.65
520.48	21727.19
520.65	21963.59
520.83	22389.56
521.00	21914.44
521.17	21757.62
521.34	22218.71
521.52	22377.86
521.69	22363.82
521.86	22150.83
522.03	22401.27
522.20	22249.13
522.38	22654.05
522.55	22476.16
522.72	22391.91
522.89	22970.02
523.07	22867.03
523.24	22705.54
523.41	22986.40
523.58	22618.94
523.75	22867.03
523.92	22979.38
524.10	23147.90
524.27	22860.01
524.44	22977.04
524.61	23201.73
524.78	23288.33
524.96	23332.80
525.13	22771.07
525.30	23271.95
525.47	23204.07
525.64	23023.85
525.81	23550.47
525.98	23407.70
526.16	23700.26
526.33	23269.61
526.50	23543.45
526.67	23761.12
526.84	23508.34
527.01	23587.92
527.18	23728.35
527.36	23606.64
527.53	23992.83
527.70	24091.13
527.87	24074.75
528.04	23669.84
528.21	24212.84
528.38	24114.54
528.55	24215.18
528.72	23894.53
528.89	24100.50
529.07	23880.49
529.24	24147.31
529.41	24692.65
529.58	24034.96
529.75	23983.47
529.92	24175.39
530.09	24210.50
530.26	24470.30
530.43	24437.53
530.60	24339.23
530.77	24542.86
530.94	24589.67
531.11	24395.40
531.28	24233.91
531.46	24306.46
531.63	24992.24
531.80	24683.29
531.97	25039.05
532.14	24936.07
532.31	24645.84
532.48	25102.25
532.65	24987.56
532.82	24788.61
532.99	24790.95
533.16	24919.68
533.33	24952.45
533.50	25453.33
533.67	25516.52
533.84	24936.07
534.01	24922.02
534.18	25163.10
534.35	25245.02
534.52	25181.82
534.69	25731.85
534.86	25722.49
535.03	25118.63
535.20	25460.35
535.37	25640.57
535.54	26012.71
535.71	25572.69
535.88	25448.64
536.05	25425.24
536.22	25582.06
536.38	25750.57
536.55	25696.74
536.72	26082.93
536.89	25701.42
537.06	25926.11
537.23	25986.97
537.40	25977.61
537.57	25586.74
537.74	26087.61
537.91	26134.42
538.08	26307.62
538.25	26118.04
538.42	26316.98
538.59	25862.92
538.75	26024.42
538.92	25879.30
539.09	26249.11
539.26	26125.06
539.43	26616.57
539.60	26405.92
539.77	26300.60
539.94	26164.85
540.11	26363.79
540.28	26595.51
540.44	26197.62
540.61	26384.86
540.78	26394.22
540.95	26445.71
541.12	26485.50
541.29	26562.74
541.46	26647.00
541.62	26359.11
541.79	26787.43
541.96	26511.25
542.13	26693.81
542.30	26714.87
542.47	26703.17
542.63	27002.76
542.80	27166.60
542.97	27494.27
543.14	27058.93
543.31	26972.33
543.48	27023.83
543.64	27414.69
543.81	27384.27
543.98	27243.84
544.15	27569.17
544.32	27674.49
544.48	27379.59
544.65	27161.92
544.82	27395.97
544.99	27274.26
545.16	27367.88
545.32	27440.44
545.49	27885.14
545.66	27819.61
545.83	27393.63
546.00	27807.90
546.16	27796.20
546.33	27379.59
546.50	27250.86
546.67	27927.27
546.83	27220.43
547.00	27707.26
547.17	28067.70
547.34	27770.46
547.50	27838.33
547.67	28095.79
547.84	28107.49
548.00	28044.30
548.17	28332.18
548.34	28046.64
548.51	28601.35
548.67	27903.87
548.84	28149.62
549.01	28056.00
549.18	28084.09
549.34	28058.34
549.51	28147.28
549.68	28046.64
549.84	27875.78
550.01	28521.77
550.18	28126.22
550.34	28421.13
550.51	28573.26
550.68	28219.84
550.84	28322.82
551.01	28601.35
551.18	28421.13
551.34	28449.21
551.51	28390.70
551.68	28191.75
551.84	28608.37
552.01	28882.21
552.18	28847.10
552.34	28547.51
552.51	28861.15
552.68	28725.39
552.84	28971.15
553.01	28519.43
553.18	29046.05
553.34	28692.63
553.51	29001.58
553.67	29212.23
553.84	29048.39
554.01	29310.53
554.17	29188.82
554.34	28821.36
554.51	28748.80
554.67	28943.06
554.84	28982.85
555.00	28599.01
555.17	28898.59
555.33	29123.29
555.50	29270.74
555.67	29347.98
555.83	29090.52
556.00	29074.13
556.16	29221.59
556.33	29394.79
556.50	29282.44
556.66	29542.24
556.83	29467.34
556.99	29537.56
557.16	29673.31
557.32	29596.07
557.49	29413.51
557.65	29373.72
557.82	29347.98
557.98	29170.10
558.15	29593.73
558.32	29532.88
558.48	29558.63
558.65	29963.54
558.81	29254.36
558.98	29778.64
559.14	29558.63
559.31	29612.46
559.47	29607.78
559.64	29771.61
559.80	29956.52
559.97	30040.78
560.13	30038.44
560.30	29617.14
560.46	30082.91
560.63	29830.13
560.79	30078.22
560.96	30146.10
561.12	29680.33
561.29	29687.36
561.45	29839.49
561.61	30110.99
561.78	29673.31
561.94	30197.59
562.11	30270.15
562.27	29820.77
562.44	30127.38
562.60	29860.55
562.77	30115.67
562.93	29881.62
563.10	30143.76
563.26	29919.07
563.42	30555.69
563.59	29804.38
563.75	30511.22
563.92	30345.05
564.08	29951.84
564.24	29839.49
564.41	29956.52
564.57	30213.98
564.74	29853.53
564.90	29837.15
565.07	30249.08
565.23	30160.14
565.39	30333.34
565.56	30492.50
565.72	30064.18
565.88	30106.31
566.05	29991.62
566.21	30405.90
566.38	30382.49
566.54	30022.05
566.70	30061.84
566.87	30756.98
567.03	30136.74
567.19	30490.16
567.36	30192.91
567.52	30206.95
567.68	30646.97
567.85	30331.00
568.01	30333.34
568.17	30326.32
568.34	30581.44
568.50	30483.14
568.66	30347.39
568.83	30806.13
568.99	30742.94
569.15	30628.25
569.32	30225.68
569.48	30256.11
569.64	30457.39
569.81	30637.61
569.97	30595.48
570.13	30611.87
570.30	30323.98
570.46	30611.87
570.62	30600.16
570.78	30728.89
570.95	30284.19
571.11	30881.03
571.27	30405.90
571.43	30340.36
571.60	30464.41
571.76	30686.76
571.92	30401.22
572.09	30221.00
572.25	30843.58
572.41	30913.80
572.57	30525.27
572.74	30607.19
572.90	30567.40
573.06	30422.28
573.22	30679.74
573.38	30735.92
573.55	30761.66
573.71	30995.71
573.87	30864.64
574.03	31000.40
574.20	30836.56
574.36	30401.22
574.52	30895.07
574.68	30565.06
574.84	30845.92
575.01	30895.07
575.17	30815.49
575.33	30600.16
575.49	30785.07
575.65	31005.08
575.82	30916.14
575.98	31037.84
576.14	31079.97
576.30	30637.61
576.46	30686.76
576.62	30752.30
576.79	30696.13
576.95	30689.10
577.11	30817.83
577.27	30976.99
577.43	30813.15
577.59	30974.65
577.75	30710.17
577.92	30543.99
578.08	30874.01
578.24	30426.96
578.40	30988.69
578.56	30806.13
578.72	30857.62
578.88	31325.73
579.04	31330.41
579.21	30951.24
579.37	30916.14
579.53	31002.74
579.69	31051.89
579.85	30686.76
580.01	30747.62
580.17	30962.95
580.33	31023.80
580.49	31220.41
580.65	30946.56
580.82	31021.46
580.98	30916.14
581.14	30981.67
581.30	31021.46
581.46	30707.83
581.62	30869.33
581.78	31082.31
581.94	31159.55
582.10	31199.34
582.26	30944.22
582.42	31051.89
582.58	30888.05
582.74	30899.75
582.90	31491.91
583.06	30897.41
583.22	31012.10
583.38	31026.14
583.54	30714.85
583.70	31239.13
583.86	30874.01
584.02	31056.57
584.18	31175.94
584.34	31409.99
584.50	31358.50
584.66	31234.45
584.82	30703.15
584.98	31246.15
585.14	30684.42
585.30	30796.77
585.46	30749.96
585.62	30979.33
585.78	31002.74
585.94	30785.07
586.10	31342.11
586.26	30948.90
586.42	31379.56
586.58	31374.88
586.74	31077.63
586.90	30874.01
587.06	30906.77
587.22	30862.30
587.38	30976.99
587.54	31311.69
587.70	31433.39
587.86	31154.87
588.02	31042.53
588.18	31381.90
588.34	31622.98
588.49	31477.86
588.65	30675.06
588.81	31339.77
588.97	31239.13
589.13	31342.11
589.29	31255.51
589.45	31098.70
589.61	31433.39
589.77	31594.89
589.93	31262.54
590.08	31501.27
590.24	31519.99
590.40	31543.40
590.56	31248.49
590.72	31531.70
590.88	31318.71
591.04	31409.99
591.20	31304.67
591.35	31871.07
591.51	31828.95
591.67	31793.84
591.83	31660.43
