SpectraSuite Data File
++++++++++++++++++++++++++++++++++++
Date: Fri Oct 18 13:58:28 GMT-05:00 2013
User: bianchi
Dark Spectrum Present: No
Reference Spectrum Present: No
Number of Sampled Component Spectra: 1
Spectrometers: USB2+H05261
Integration Time (usec): 50000 (USB2+H05261)
Spectra Averaged: 1 (USB2+H05261)
Boxcar Smoothing: 0 (USB2+H05261)
Correct for Electrical Dark: No (USB2+H05261)
Strobe/Lamp Enabled: No (USB2+H05261)
Correct for Detector Non-linearity: No (USB2+H05261)
Correct for Stray Light: No (USB2+H05261)
Number of Pixels in Processed Spectrum: 2048
>>>>>Begin Processed Spectral Data<<<<<
365.73	0.00
365.92	0.00
366.12	0.00
366.32	0.00
366.52	0.00
366.72	0.00
366.91	0.00
367.11	0.00
367.31	0.00
367.51	0.00
367.70	0.00
367.90	0.00
368.10	0.00
368.30	0.00
368.49	0.00
368.69	0.00
368.89	0.00
369.09	0.00
369.28	0.00
369.48	0.00
369.68	0.00
369.87	0.00
370.07	0.00
370.27	0.00
370.47	0.00
370.66	53.83
370.86	147.45
371.06	194.26
371.25	161.50
371.45	114.69
371.65	105.32
371.84	152.13
372.04	163.84
372.24	180.22
372.44	210.65
372.63	138.09
372.83	241.08
373.03	215.33
373.22	276.18
373.42	114.69
373.62	177.88
373.81	177.88
374.01	184.90
374.21	234.05
374.40	234.05
374.60	114.69
374.79	175.54
374.99	248.10
375.19	229.37
375.38	208.31
375.58	198.95
375.78	278.52
375.97	245.76
376.17	273.84
376.37	245.76
376.56	278.52
376.76	252.78
376.95	259.80
377.15	210.65
377.35	182.56
377.54	287.89
377.74	292.57
377.93	210.65
378.13	231.71
378.33	301.93
378.52	308.95
378.72	299.59
378.91	241.08
379.11	372.15
379.31	257.46
379.50	241.08
379.70	245.76
379.89	304.27
380.09	292.57
380.28	327.68
380.48	313.63
380.68	217.67
380.87	250.44
381.07	400.23
381.26	348.74
381.46	327.68
381.65	341.72
381.85	360.44
382.04	262.14
382.24	379.17
382.43	344.06
382.63	395.55
382.83	372.15
383.02	337.04
383.22	325.33
383.41	411.93
383.61	332.36
383.80	348.74
384.00	416.62
384.19	353.42
384.39	318.31
384.58	374.49
384.78	351.08
384.97	421.30
385.17	482.15
385.36	440.02
385.56	365.12
385.75	330.02
385.95	400.23
386.14	447.04
386.34	423.64
386.53	374.49
386.72	454.06
386.92	418.96
387.11	407.25
387.31	416.62
387.50	351.08
387.70	486.83
387.89	486.83
388.09	322.99
388.28	418.96
388.48	454.06
388.67	440.02
388.86	367.46
389.06	470.45
389.25	498.53
389.45	507.90
389.64	479.81
389.84	580.45
390.03	500.87
390.22	437.68
390.42	416.62
390.61	454.06
390.81	524.28
391.00	543.00
391.19	461.09
391.39	514.92
391.58	475.13
391.78	440.02
391.97	493.85
392.16	500.87
392.36	545.34
392.55	535.98
392.75	479.81
392.94	535.98
393.13	557.05
393.33	493.85
393.52	540.66
393.71	571.09
393.91	596.84
394.10	489.17
394.29	561.73
394.49	664.71
394.68	559.39
394.88	702.16
395.07	535.98
395.26	587.47
395.46	629.60
395.65	641.31
395.84	561.73
396.04	709.18
396.23	643.65
396.42	741.95
396.62	587.47
396.81	664.71
397.00	746.63
397.19	606.20
397.39	683.44
397.58	648.33
397.77	622.58
397.97	650.67
398.16	648.33
398.35	741.95
398.55	720.88
398.74	704.50
398.93	678.76
399.12	634.29
399.32	713.86
399.51	732.59
399.70	748.97
399.90	739.61
400.09	748.97
400.28	777.06
400.47	697.48
400.67	730.25
400.86	711.52
401.05	791.10
401.24	840.25
401.44	711.52
401.63	807.48
401.82	835.57
402.01	807.48
402.21	814.51
402.40	807.48
402.59	844.93
402.78	816.85
402.97	854.30
403.17	805.14
403.36	849.61
403.55	912.81
403.74	891.74
403.93	870.68
404.13	873.02
404.32	990.05
404.51	844.93
404.70	880.04
404.89	887.06
405.09	1020.47
405.28	915.15
405.47	992.39
405.66	961.96
405.85	945.58
406.05	990.05
406.24	1036.86
406.43	947.92
406.62	947.92
406.81	985.37
407.00	961.96
407.20	1036.86
407.39	1008.77
407.58	1055.58
407.77	1034.52
407.96	1011.11
408.15	1039.20
408.34	1102.39
408.54	1043.88
408.73	1116.44
408.92	1123.46
409.11	1095.37
409.30	1118.78
409.49	1125.80
409.68	1179.63
409.87	1095.37
410.07	1165.59
410.26	1179.63
410.45	1158.57
410.64	1125.80
410.83	1196.01
411.02	1245.16
411.21	1282.61
411.40	1156.22
411.59	1301.34
411.78	1231.12
411.98	1256.87
412.17	1277.93
412.36	1277.93
412.55	1338.79
412.74	1387.94
412.93	1345.81
413.12	1425.39
413.31	1394.96
413.50	1280.27
413.69	1451.13
413.88	1467.52
414.07	1352.83
414.26	1439.43
414.45	1500.28
414.64	1430.07
414.83	1561.14
415.02	1554.12
415.22	1460.49
415.41	1563.48
415.60	1535.39
415.79	1558.80
415.98	1544.75
416.17	1661.78
416.36	1638.38
416.55	1509.65
416.74	1586.88
416.93	1619.65
417.12	1629.01
417.31	1706.25
417.50	1764.76
417.69	1813.92
417.88	1816.26
418.07	1666.46
418.26	1685.19
418.45	1769.44
418.64	1792.85
418.83	1827.96
419.02	1806.89
419.21	1797.53
419.39	1853.70
419.58	1762.42
419.77	1830.30
419.96	1860.73
420.15	1795.19
420.34	1853.70
420.53	1944.99
420.72	2031.58
420.91	1942.64
421.10	1968.39
421.29	2005.84
421.48	1921.58
421.67	1893.49
421.86	1914.56
422.05	1867.75
422.24	2024.56
422.43	1907.54
422.61	2033.93
422.80	2052.65
422.99	1956.69
423.18	2012.86
423.37	2040.95
423.56	2057.33
423.75	1942.64
423.94	1952.01
424.13	1849.02
424.32	1959.03
424.50	2099.46
424.69	2054.99
424.88	1994.14
425.07	1991.80
425.26	1989.46
425.45	1998.82
425.64	2031.58
425.83	2012.86
426.01	2066.69
426.20	1982.43
426.39	1933.28
426.58	2073.71
426.77	2078.40
426.96	2090.10
427.15	2125.21
427.33	2200.10
427.52	2087.76
427.71	2146.27
427.90	2094.78
428.09	2216.49
428.28	2083.08
428.46	2167.34
428.65	2202.44
428.84	2139.25
429.03	2160.31
429.22	2057.33
429.40	2202.44
429.59	2214.15
429.78	2209.47
429.97	2010.52
430.16	2193.08
430.34	2363.94
430.53	2324.15
430.72	2249.25
430.91	2263.30
431.10	2326.49
431.28	2445.86
431.47	2399.05
431.66	2279.68
431.85	2401.39
432.03	2356.92
432.22	2438.84
432.41	2466.92
432.60	2476.29
432.79	2464.58
432.97	2382.67
433.16	2443.52
433.35	2401.39
433.54	2459.90
433.72	2565.23
433.91	2399.05
434.10	2546.50
434.28	2502.03
434.47	2466.92
434.66	2537.14
434.85	2560.55
435.03	2478.63
435.22	2567.57
435.41	2619.06
435.59	2607.36
435.78	2651.83
435.97	2595.65
436.16	2637.78
436.34	2637.78
436.53	2808.64
436.72	2841.41
436.90	2553.52
437.09	2794.60
437.28	2649.49
437.46	2785.24
437.65	2705.66
437.84	2850.77
438.02	2663.53
438.21	2771.19
438.40	2729.06
438.58	2885.88
438.77	2958.44
438.96	2904.60
439.14	2979.50
439.33	3005.25
439.52	3023.97
439.70	2920.99
439.89	2944.39
440.08	2995.89
440.26	2981.84
440.45	2995.89
440.63	3023.97
440.82	3040.36
441.01	3152.70
441.19	3129.30
441.38	3213.56
441.57	3084.83
441.75	3248.66
441.94	3272.07
442.12	3180.79
442.31	3258.03
442.50	3269.73
442.68	3211.22
442.87	3302.50
443.05	3339.94
443.24	3466.33
443.43	3251.00
443.61	3506.12
443.80	3403.14
443.98	3335.26
444.17	3255.69
444.35	3492.08
444.54	3295.47
444.73	3520.17
444.91	3459.31
445.10	3382.07
445.28	3571.66
445.47	3248.66
445.65	3391.44
445.84	3466.33
446.02	3588.04
446.21	3398.46
446.39	3461.65
446.58	3431.23
446.77	3435.91
446.95	3391.44
447.14	3548.25
447.32	3482.72
447.51	3503.78
447.69	3456.97
447.88	3508.46
448.06	3520.17
448.25	3466.33
448.43	3538.89
448.62	3466.33
448.80	3595.06
448.99	3492.08
449.17	3585.70
449.36	3515.48
449.54	3562.30
449.73	3520.17
449.91	3639.53
450.10	3613.79
450.28	3646.55
450.46	3651.24
450.65	3749.54
450.83	3672.30
451.02	3684.00
451.20	3744.86
451.39	3850.18
451.57	3623.15
451.76	3681.66
451.94	3789.33
452.13	3822.09
452.31	3901.67
452.49	3721.45
452.68	3698.05
452.86	3737.84
453.05	3946.14
453.23	4007.00
453.42	3875.93
453.60	3751.88
453.78	3925.08
453.97	3901.67
454.15	3960.19
454.34	3927.42
454.52	3971.89
454.70	3990.61
454.89	4191.90
455.07	3960.19
455.26	4170.83
455.44	4081.89
455.62	4114.66
455.81	4039.76
455.99	4175.52
456.17	4135.73
456.36	4072.53
456.54	4135.73
456.73	4290.20
456.91	4273.82
457.09	4367.44
457.28	4353.40
457.46	4210.62
457.64	4339.35
457.83	4217.65
458.01	4299.56
458.19	4367.44
458.38	4435.32
458.56	4468.08
458.74	4449.36
458.93	4421.27
459.11	4386.16
459.29	4514.89
459.48	4440.00
459.66	4390.84
459.84	4505.53
460.03	4580.43
460.21	4451.70
460.39	4468.08
460.57	4559.36
460.76	4547.66
460.94	4606.17
461.12	4617.88
461.31	4624.90
461.49	4610.86
461.67	4629.58
461.85	4695.11
462.04	4734.90
462.22	4954.91
462.40	4767.67
462.59	4812.14
462.77	4566.39
462.95	4667.03
463.13	4741.93
463.32	4725.54
463.50	4791.08
463.68	4826.18
463.86	4877.68
464.05	4774.69
464.23	4770.01
464.41	4929.17
464.59	4891.72
464.78	4919.81
464.96	4926.83
465.14	4793.42
465.32	5050.88
465.50	5188.97
465.69	5025.13
465.87	4875.34
466.05	4826.18
466.23	4938.53
466.41	5025.13
466.60	5078.96
466.78	5074.28
466.96	4957.25
467.14	4943.21
467.32	5207.69
467.51	5156.20
467.69	4851.93
467.87	5308.34
468.05	5177.26
468.23	5008.75
468.41	5233.44
468.60	5233.44
468.78	5233.44
468.96	5179.61
469.14	5198.33
469.32	5210.03
469.50	5158.54
469.69	5369.19
469.87	5387.91
470.05	5448.77
470.23	5313.02
470.41	5444.09
470.59	5446.43
470.77	5518.98
470.95	5617.29
471.14	5481.53
471.32	5420.68
471.50	5504.94
471.68	5537.71
471.86	5516.64
472.04	5645.37
472.22	5877.09
472.40	5788.14
472.58	5570.48
472.77	5689.84
472.95	5596.22
473.13	5839.64
473.31	5916.87
473.49	5858.36
473.67	5905.17
473.85	5933.26
474.03	6076.03
474.21	5963.68
474.39	6132.20
474.57	5907.51
474.75	6246.89
474.93	6171.99
475.12	6113.48
475.30	6090.07
475.48	6136.88
475.66	6129.86
475.84	6207.10
476.02	6232.85
476.20	6448.18
476.38	6274.98
476.56	6590.95
476.74	6466.90
476.92	6607.33
477.10	6396.68
477.28	6679.89
477.46	6609.67
477.64	6665.85
477.82	6766.49
478.00	6974.80
478.18	6794.58
478.36	7007.56
478.54	7014.59
478.72	7009.90
478.90	7192.47
479.08	7166.72
479.26	7302.47
479.44	7218.21
479.62	7435.88
479.80	7316.51
479.98	7321.20
480.16	7468.65
480.34	7482.69
480.52	7747.17
480.70	7712.07
480.88	7590.36
481.06	7693.34
481.24	7702.70
481.41	7770.58
481.59	7885.26
481.77	7812.71
481.95	8018.68
482.13	8044.42
482.31	8086.55
482.49	8175.49
482.67	8322.94
482.85	8278.47
483.03	8454.02
483.21	8386.14
483.39	8601.47
483.57	8748.92
483.74	8734.88
483.92	8683.39
484.10	8753.60
484.28	8924.46
484.46	9027.45
484.64	9163.20
484.82	8926.80
485.00	9111.71
485.18	9205.33
485.35	9336.40
485.53	9397.25
485.71	9455.76
485.89	9635.99
486.07	9329.38
486.25	9579.81
486.43	9596.20
486.61	9652.37
486.78	9940.26
486.96	9898.13
487.14	10122.82
487.32	10061.96
487.50	9970.68
487.68	10214.10
487.85	10370.91
488.03	10303.04
488.21	10726.68
488.39	10429.43
488.57	10558.16
488.75	10743.06
488.92	10813.28
489.10	10792.21
489.28	10836.68
489.46	11000.52
489.64	10951.37
489.81	11272.02
489.99	11321.17
490.17	11534.16
490.35	11468.62
490.53	11384.37
490.70	11690.98
490.88	11449.90
491.06	11957.80
491.24	11559.91
491.41	11918.01
491.59	11936.73
491.77	11964.82
491.95	12084.19
492.13	12241.00
492.30	12154.40
492.48	12348.67
492.66	12437.61
492.84	12123.98
493.01	12421.22
493.19	12435.27
493.37	12596.76
493.54	12856.56
493.72	12617.83
493.90	12968.91
494.08	12872.95
494.25	13125.72
494.43	13128.06
494.61	13254.45
494.79	13207.64
494.96	13327.01
495.14	13341.05
495.32	13448.72
495.49	13504.89
495.67	13631.28
495.85	13820.86
496.02	13909.80
496.20	14075.98
496.38	13809.16
496.55	13996.40
496.73	14242.16
496.91	13916.83
497.09	14270.25
497.26	14394.29
497.44	14501.96
497.62	14471.53
497.79	14609.62
497.97	14499.62
498.14	14771.12
498.32	14560.47
498.50	14768.78
498.67	15056.67
498.85	14665.80
499.03	15101.14
499.20	15012.20
499.38	14951.34
499.56	15019.22
499.73	15082.41
499.91	15461.58
500.08	15304.76
500.26	15049.64
500.44	15192.42
500.61	15480.30
500.79	15562.22
500.97	15667.55
501.14	15625.42
501.32	15754.15
501.49	15616.05
501.67	16018.63
501.84	16030.33
502.02	15805.64
502.20	16084.16
502.37	16318.22
502.55	16140.33
502.72	16273.74
502.90	16154.38
503.07	15957.77
503.25	16334.60
503.43	16109.91
503.60	16472.69
503.78	16615.46
503.95	16453.97
504.13	16343.96
504.30	16753.55
504.48	16512.48
504.65	16556.95
504.83	16830.79
505.01	17050.80
505.18	17252.09
505.36	17053.14
505.53	16718.45
505.71	16896.33
505.88	17179.53
506.06	16912.71
506.23	17109.32
506.41	17135.06
506.58	17446.35
506.76	17165.49
506.93	17584.44
507.11	17418.27
507.28	17600.83
507.46	17345.71
507.63	17284.86
507.81	17631.26
507.98	17465.08
508.16	17685.09
508.33	17628.92
508.50	17659.34
508.68	17898.08
508.85	17844.24
509.03	17972.97
509.20	18127.45
509.38	18352.14
509.55	18408.31
509.73	18464.49
509.90	18286.61
510.08	18104.04
510.25	18317.03
510.42	18438.74
510.60	18544.06
510.77	18324.05
510.95	18759.39
511.12	18267.88
511.30	18583.85
511.47	18878.76
511.64	18719.60
511.82	18902.17
511.99	18918.55
512.17	19239.20
512.34	19377.30
512.51	19264.95
512.69	19176.01
512.86	19410.06
513.04	19510.71
513.21	19098.77
513.38	19491.98
513.56	19428.79
513.73	19468.58
513.90	19356.23
514.08	19442.83
514.25	19506.02
514.43	19693.27
514.60	19768.16
514.77	19417.08
514.95	19665.18
515.12	19814.98
515.29	19889.87
515.47	19899.23
515.64	20016.26
515.81	20023.28
515.99	20140.31
516.16	20283.08
516.33	20259.68
516.51	20311.17
516.68	20215.21
516.85	20126.27
517.03	20477.35
517.20	20673.95
517.37	20570.97
517.54	20311.17
517.72	20748.85
517.89	20325.21
518.06	20739.49
518.24	20563.95
518.41	20418.83
518.58	20833.11
518.75	20718.42
518.93	20851.83
519.10	20865.88
519.27	21128.02
519.45	20755.87
519.62	21057.80
519.79	20865.88
519.96	20650.55
520.14	21010.99
520.31	20863.54
520.48	21287.17
520.65	20842.47
520.83	21048.44
521.00	21252.06
521.17	21233.34
521.34	21425.26
521.52	21284.83
521.69	21549.31
521.86	21902.73
522.03	21853.58
522.20	21752.94
522.38	21673.36
522.55	21975.29
522.72	21783.37
522.89	21818.47
523.07	21961.25
523.24	22052.53
523.41	22132.11
523.58	21699.11
523.75	22162.53
523.92	22120.40
524.10	22174.24
524.27	22267.86
524.44	22272.54
524.61	22452.76
524.78	22228.07
524.96	22307.65
525.13	22396.59
525.30	22305.31
525.47	22427.01
525.64	22424.67
525.81	22654.05
525.98	22623.62
526.16	22871.72
526.33	22911.50
526.50	23131.51
526.67	22581.49
526.84	22541.70
527.01	22656.39
527.18	22958.31
527.36	22843.63
527.53	22946.61
527.70	23325.78
527.87	23323.44
528.04	23061.30
528.21	23250.88
528.38	22878.74
528.55	23281.31
528.72	23410.04
528.89	23407.70
529.07	23433.44
529.24	23091.73
529.41	23335.14
529.58	23164.28
529.75	23344.50
529.92	23611.32
530.09	23283.65
530.26	23452.17
530.43	23718.99
530.60	23356.21
530.77	23686.22
530.94	23571.54
531.11	23913.25
531.28	23573.88
531.46	23524.72
531.63	23754.10
531.80	23463.87
531.97	23995.17
532.14	23866.44
532.31	23836.02
532.48	23833.68
532.65	24177.73
532.82	23892.19
532.99	24121.56
533.16	23775.16
533.33	24285.40
533.50	24479.66
533.67	24191.78
533.84	24072.41
534.01	24009.22
534.18	23861.76
534.35	24528.81
534.52	24362.64
534.69	24673.93
534.86	24582.65
535.03	24680.95
535.20	24676.27
535.37	24521.79
535.54	24664.57
535.71	24364.98
535.88	24556.90
536.05	24835.42
536.22	24893.94
536.38	25029.69
536.55	24755.85
536.72	24751.17
536.89	24922.02
537.06	24938.41
537.23	24498.39
537.40	24634.14
537.57	24966.49
537.74	24833.08
537.91	25240.34
538.08	25429.92
538.25	25104.59
538.42	24929.05
538.59	25125.65
538.75	25081.18
538.92	24954.79
539.09	25212.25
539.26	25378.43
539.43	25453.33
539.60	25221.61
539.77	25408.86
539.94	25586.74
540.11	25383.11
540.28	25785.68
540.44	25212.25
540.61	25490.77
540.78	25479.07
540.95	25518.86
541.12	25528.22
541.29	25818.45
541.46	25825.47
541.62	25469.71
541.79	25352.68
541.96	25238.00
542.13	25481.41
542.30	25851.22
542.47	25853.56
542.63	26218.68
542.80	26031.44
542.97	26445.71
543.14	26136.76
543.31	25827.81
543.48	25905.05
543.64	26429.33
543.81	26211.66
543.98	26422.31
544.15	26066.55
544.32	26663.38
544.48	26539.33
544.65	26424.65
544.82	26319.32
544.99	26366.13
545.16	26469.12
545.32	26277.19
545.49	26649.34
545.66	26775.73
545.83	26649.34
546.00	27070.64
546.16	26885.73
546.33	26059.52
546.50	26199.96
546.67	26541.68
546.83	26274.85
547.00	26733.60
547.17	26588.49
547.34	26764.03
547.50	27063.61
547.67	27243.84
547.84	26775.73
548.00	26948.93
548.17	26979.36
548.34	27087.02
548.51	27487.25
548.67	27192.34
548.84	27194.68
549.01	27110.43
549.18	26869.35
549.34	27190.00
549.51	27187.66
549.68	26850.63
549.84	27225.11
550.01	27168.94
550.18	27190.00
550.34	27042.55
550.51	27346.82
550.68	27138.51
550.84	27152.55
551.01	27501.29
551.18	27250.86
551.34	27358.52
551.51	27700.24
551.68	27384.27
551.84	27520.02
552.01	27351.50
552.18	27372.57
552.34	27482.57
552.51	27957.70
552.68	27508.32
552.84	27903.87
553.01	27843.01
553.18	27758.75
553.34	27672.15
553.51	27744.71
553.67	27775.14
553.84	27641.73
554.01	27716.62
554.17	27545.76
554.34	27852.38
554.51	28011.53
554.67	27601.94
554.84	27648.75
555.00	27955.36
555.17	28077.07
555.33	27889.82
555.50	28355.59
555.67	28016.21
555.83	27861.74
556.00	28067.70
556.16	28362.61
556.33	28025.57
556.50	28147.28
556.66	28203.46
556.83	28276.01
556.99	28444.53
557.16	28645.82
557.32	28376.66
557.49	28458.57
557.65	28067.70
557.82	28341.55
557.98	28339.21
558.15	28336.87
558.32	28198.77
558.48	28561.56
558.65	28088.77
558.81	28442.19
558.98	28107.49
559.14	28369.63
559.31	28299.42
559.47	28528.79
559.64	28467.94
559.80	28584.96
559.97	28814.34
560.13	28622.41
560.30	28746.46
560.46	28465.60
560.63	28772.21
560.79	28362.61
560.96	28570.92
561.12	28823.70
561.29	28278.35
561.45	28631.77
561.61	28821.36
561.78	28954.77
561.94	28599.01
562.11	28709.01
562.27	29069.45
562.44	28804.97
562.60	28634.11
562.77	28842.42
562.93	28760.50
563.10	28783.91
563.26	28933.70
563.42	28823.70
563.59	28973.49
563.75	28884.55
563.92	29149.03
564.08	28877.53
564.24	28797.95
564.41	28627.09
564.57	28318.14
564.74	28924.34
564.90	29488.41
565.07	28957.11
565.23	28830.72
565.39	28966.47
565.56	29275.42
565.72	28819.02
565.88	28952.43
566.05	29027.32
566.21	28849.44
566.38	28926.68
566.54	29137.33
566.70	28884.55
566.87	29439.26
567.03	29369.04
567.19	29495.43
567.36	29177.12
567.52	29130.31
567.68	29027.32
567.85	29303.51
568.01	29472.03
568.17	29280.10
568.34	29488.41
568.50	29350.32
568.66	29013.28
568.83	29603.10
568.99	29315.21
569.15	29179.46
569.32	29247.33
569.48	29081.16
569.64	29212.23
569.81	29156.05
569.97	29390.11
570.13	29109.24
570.30	29483.73
570.46	29312.87
570.62	29132.65
570.78	29275.42
570.95	28933.70
571.11	29235.63
571.27	29048.39
571.43	29230.95
571.60	29483.73
571.76	29399.47
571.92	29696.72
572.09	29312.87
572.25	29355.00
572.41	29242.65
572.57	29769.27
572.74	29460.32
572.90	29296.49
573.06	29120.95
573.22	29270.74
573.38	29146.69
573.55	29137.33
573.71	29823.11
573.87	29830.13
574.03	29668.63
574.20	29563.31
574.36	29242.65
574.52	29567.99
574.68	29287.12
574.84	29584.37
575.01	29481.39
575.17	29406.49
575.33	29249.67
575.49	29591.39
575.65	29357.34
575.82	29689.70
575.98	29656.93
576.14	29247.33
576.30	28975.83
576.46	29628.84
576.62	29465.00
576.79	29443.94
576.95	29626.50
577.11	29661.61
577.27	29432.24
577.43	29706.08
577.59	29556.28
577.75	29818.42
577.92	29415.85
578.08	29151.37
578.24	29603.10
578.40	29467.34
578.56	29589.05
578.72	29439.26
578.88	30003.33
579.04	29993.97
579.21	29586.71
579.37	29586.71
579.53	29893.32
579.69	29575.01
579.85	29654.59
580.01	29722.46
580.17	29244.99
580.33	29841.83
580.49	29364.36
580.65	29944.81
580.82	29790.34
580.98	29645.23
581.14	29867.58
581.30	30265.47
581.46	29809.06
581.62	29624.16
581.78	29319.89
581.94	29621.82
582.10	29589.05
582.26	29675.65
582.42	29446.28
582.58	29827.79
582.74	29872.26
582.90	29888.64
583.06	30087.59
583.22	29605.44
583.38	29724.80
583.54	29483.73
583.70	29984.60
583.86	29701.40
584.02	29516.50
584.18	30036.09
584.34	30031.41
584.50	29902.68
584.66	29797.36
584.82	29570.33
584.98	29507.13
585.14	29659.27
585.30	29715.44
585.46	30052.48
585.62	28996.90
585.78	29790.34
585.94	29476.71
586.10	29972.90
586.26	30101.63
586.42	30059.50
586.58	30164.82
586.74	29855.87
586.90	29415.85
587.06	29462.66
587.22	29757.57
587.38	29729.48
587.54	29830.13
587.70	30141.42
587.86	30005.67
588.02	30031.41
588.18	29673.31
588.34	29811.40
588.49	29666.29
588.65	29879.28
588.81	29949.50
588.97	29869.92
589.13	29614.80
589.29	29944.81
589.45	30008.01
589.61	30192.91
589.77	30073.54
589.93	30087.59
590.08	29984.60
590.24	30113.33
590.40	30216.32
590.56	30176.53
590.72	30017.37
590.88	29687.36
591.04	29738.85
591.20	30237.38
591.35	30209.29
591.51	30370.79
591.67	30122.69
591.83	30113.33
591.99	30026.73
