SpectraSuite Data File
++++++++++++++++++++++++++++++++++++
Date: Fri Oct 18 13:58:27 GMT-05:00 2013
User: bianchi
Dark Spectrum Present: No
Reference Spectrum Present: No
Number of Sampled Component Spectra: 1
Spectrometers: USB2+H05261
Integration Time (usec): 50000 (USB2+H05261)
Spectra Averaged: 1 (USB2+H05261)
Boxcar Smoothing: 0 (USB2+H05261)
Correct for Electrical Dark: No (USB2+H05261)
Strobe/Lamp Enabled: No (USB2+H05261)
Correct for Detector Non-linearity: No (USB2+H05261)
Correct for Stray Light: No (USB2+H05261)
Number of Pixels in Processed Spectrum: 2048
>>>>>Begin Processed Spectral Data<<<<<
365.73	0.00
365.92	0.00
366.12	0.00
366.32	0.00
366.52	0.00
366.72	0.00
366.91	0.00
367.11	0.00
367.31	0.00
367.51	0.00
367.70	0.00
367.90	0.00
368.10	0.00
368.30	0.00
368.49	0.00
368.69	0.00
368.89	0.00
369.09	0.00
369.28	0.00
369.48	0.00
369.68	0.00
369.87	0.00
370.07	0.00
370.27	0.00
370.47	0.00
370.66	58.51
370.86	81.92
371.06	58.51
371.25	156.82
371.45	65.54
371.65	147.45
371.84	203.63
372.04	163.84
372.24	163.84
372.44	140.43
372.63	175.54
372.83	182.56
373.03	231.71
373.22	210.65
373.42	128.73
373.62	145.11
373.81	145.11
374.01	205.97
374.21	276.18
374.40	236.39
374.60	269.16
374.79	292.57
374.99	231.71
375.19	212.99
375.38	283.20
375.58	208.31
375.78	299.59
375.97	243.42
376.17	243.42
376.37	217.67
376.56	255.12
376.76	276.18
376.95	264.48
377.15	241.08
377.35	287.89
377.54	273.84
377.74	266.82
377.93	283.20
378.13	245.76
378.33	386.19
378.52	306.61
378.72	269.16
378.91	264.48
379.11	255.12
379.31	245.76
379.50	257.46
379.70	287.89
379.89	327.68
380.09	311.29
380.28	278.52
380.48	278.52
380.68	271.50
380.87	337.04
381.07	379.17
381.26	318.31
381.46	334.70
381.65	278.52
381.85	292.57
382.04	311.29
382.24	358.10
382.43	400.23
382.63	395.55
382.83	341.72
383.02	341.72
383.22	421.30
383.41	402.57
383.61	346.40
383.80	428.32
384.00	367.46
384.19	360.44
384.39	304.27
384.58	395.55
384.78	388.53
384.97	409.59
385.17	386.19
385.36	337.04
385.56	400.23
385.75	344.06
385.95	386.19
386.14	388.53
386.34	381.51
386.53	320.65
386.72	327.68
386.92	395.55
387.11	458.74
387.31	454.06
387.50	428.32
387.70	451.72
387.89	423.64
388.09	454.06
388.28	468.11
388.48	402.57
388.67	404.91
388.86	454.06
389.06	428.32
389.25	461.09
389.45	479.81
389.64	442.36
389.84	468.11
390.03	493.85
390.22	444.70
390.42	449.38
390.61	517.26
390.81	514.92
391.00	386.19
391.19	500.87
391.39	447.04
391.58	533.64
391.78	517.26
391.97	547.69
392.16	465.77
392.36	526.62
392.55	543.00
392.75	550.03
392.94	566.41
393.13	587.47
393.33	498.53
393.52	603.86
393.71	564.07
393.91	578.11
394.10	606.20
394.29	620.24
394.49	566.41
394.68	503.22
394.88	660.03
395.07	608.54
395.26	578.11
395.46	641.31
395.65	615.56
395.84	620.24
396.04	629.60
396.23	631.94
396.42	645.99
396.62	627.26
396.81	730.25
397.00	657.69
397.19	645.99
397.39	704.50
397.58	685.78
397.77	662.37
397.97	543.00
398.16	706.84
398.35	816.85
398.55	692.80
398.74	608.54
398.93	634.29
399.12	732.59
399.32	737.27
399.51	737.27
399.70	763.01
399.90	688.12
400.09	765.36
400.28	793.44
400.47	767.70
400.67	720.88
400.86	777.06
401.05	772.38
401.24	828.55
401.44	788.76
401.63	800.46
401.82	821.53
402.01	781.74
402.21	802.80
402.40	812.17
402.59	760.67
402.78	833.23
402.97	795.78
403.17	877.70
403.36	896.43
403.55	849.61
403.74	863.66
403.93	910.47
404.13	957.28
404.32	917.49
404.51	936.21
404.70	882.38
404.89	1004.09
405.09	940.90
405.28	917.49
405.47	929.19
405.66	943.24
405.85	950.26
406.05	1053.24
406.24	1018.13
406.43	882.38
406.62	992.39
406.81	1062.60
407.00	1093.03
407.20	940.90
407.39	903.45
407.58	1088.35
407.77	1039.20
407.96	1001.75
408.15	1160.91
408.34	1015.79
408.54	1067.28
408.73	1048.56
408.92	1064.94
409.11	1116.44
409.30	1067.28
409.49	1125.80
409.68	1107.07
409.87	1123.46
410.07	1060.26
410.26	1074.31
410.45	1146.86
410.64	1151.54
410.83	1100.05
411.02	1207.72
411.21	1362.19
411.40	1287.29
411.59	1277.93
411.78	1210.06
411.98	1221.76
412.17	1259.21
412.36	1282.61
412.55	1310.70
412.74	1284.95
412.93	1343.47
413.12	1329.42
413.31	1423.05
413.50	1385.60
413.69	1387.94
413.88	1359.85
414.07	1371.55
414.26	1481.56
414.45	1462.83
414.64	1383.26
414.83	1549.43
415.02	1448.79
415.22	1467.52
415.41	1565.82
415.60	1516.67
415.79	1561.14
415.98	1488.58
416.17	1589.22
416.36	1558.80
416.55	1645.40
416.74	1638.38
416.93	1708.59
417.12	1689.87
417.31	1687.53
417.50	1741.36
417.69	1746.04
417.88	1692.21
418.07	1769.44
418.26	1816.26
418.45	1863.07
418.64	1823.28
418.83	1816.26
419.02	1778.81
419.21	1757.74
419.39	1739.02
419.58	1792.85
419.77	1809.23
419.96	1830.30
420.15	1959.03
420.34	1935.62
420.53	1912.22
420.72	1944.99
420.91	1839.66
421.10	1865.41
421.29	2008.18
421.48	1902.86
421.67	1949.67
421.86	1834.98
422.05	1881.79
422.24	1935.62
422.43	2001.16
422.61	2031.58
422.80	1987.11
422.99	2043.29
423.18	2026.90
423.37	1966.05
423.56	1954.35
423.75	2010.52
423.94	1954.35
424.13	1856.04
424.32	2073.71
424.50	2076.06
424.69	2019.88
424.88	1996.48
425.07	1952.01
425.26	1984.77
425.45	2078.40
425.64	2139.25
425.83	2097.12
426.01	2134.57
426.20	2087.76
426.39	2106.48
426.58	2010.52
426.77	2052.65
426.96	2094.78
427.15	2029.24
427.33	2080.74
427.52	2125.21
427.71	2155.63
427.90	2143.93
428.09	2169.68
428.28	2118.18
428.46	2139.25
428.65	2221.17
428.84	2282.02
429.03	2125.21
429.22	2111.16
429.40	2193.08
429.59	2282.02
429.78	2207.13
429.97	2150.95
430.16	2165.00
430.34	2321.81
430.53	2307.77
430.72	2347.56
430.91	2314.79
431.10	2214.15
431.28	2284.36
431.47	2387.35
431.66	2380.32
431.85	2307.77
432.03	2319.47
432.22	2445.86
432.41	2387.35
432.60	2448.20
432.79	2368.62
432.97	2420.11
433.16	2513.74
433.35	2459.90
433.54	2457.56
433.72	2539.48
433.91	2480.97
434.10	2534.80
434.28	2380.32
434.47	2544.16
434.66	2665.87
434.85	2541.82
435.03	2520.76
435.22	2457.56
435.41	2729.06
435.59	2602.68
435.78	2736.09
435.97	2717.36
436.16	2656.51
436.34	2689.28
436.53	2623.74
436.72	2724.38
436.90	2572.25
437.09	2722.04
437.28	2654.17
437.46	2717.36
437.65	2787.58
437.84	2717.36
438.02	2825.03
438.21	2724.38
438.40	2677.57
438.58	2869.50
438.77	2740.77
438.96	2806.30
439.14	3002.91
439.33	2862.48
439.52	2906.95
439.70	3070.78
439.89	2956.10
440.08	3019.29
440.26	2960.78
440.45	3049.72
440.63	3009.93
440.82	3091.85
441.01	3141.00
441.19	3068.44
441.38	3129.30
441.57	3178.45
441.75	3180.79
441.94	3302.50
442.12	3101.21
442.31	3304.84
442.50	3351.65
442.68	3412.50
442.87	3279.09
443.05	3337.60
443.24	3382.07
443.43	3276.75
443.61	3290.79
443.80	3496.76
443.98	3419.52
444.17	3337.60
444.35	3475.70
444.54	3548.25
444.73	3316.54
444.91	3332.92
445.10	3414.84
445.28	3328.24
445.47	3492.08
445.65	3403.14
445.84	3492.08
446.02	3478.04
446.21	3435.91
446.39	3426.54
446.58	3517.83
446.77	3515.48
446.95	3431.23
447.14	3449.95
447.32	3459.31
447.51	3428.88
447.69	3449.95
447.88	3585.70
448.06	3492.08
448.25	3630.17
448.43	3487.40
448.62	3529.53
448.80	3524.85
448.99	3578.68
449.17	3609.11
449.36	3515.48
449.54	3693.37
449.73	3742.52
449.91	3777.62
450.10	3688.68
450.28	3669.96
450.46	3595.06
450.65	3735.50
450.83	3882.95
451.02	3854.86
451.20	3707.41
451.39	3786.99
451.57	3644.21
451.76	3730.81
451.94	3772.94
452.13	3978.91
452.31	4028.06
452.49	3920.40
452.68	3803.37
452.86	3768.26
453.05	3845.50
453.23	3836.14
453.42	3740.18
453.60	3660.60
453.78	3822.09
453.97	3784.65
454.15	3775.28
454.34	3946.14
454.52	3894.65
454.70	4161.47
454.89	4072.53
455.07	3992.95
455.26	3974.23
455.44	4124.02
455.62	4046.79
455.81	4007.00
455.99	4124.02
456.17	4285.52
456.36	4163.81
456.54	4243.39
456.73	4070.19
456.91	4297.22
457.09	4304.25
457.28	4259.78
457.46	4196.58
457.64	4332.33
457.83	4329.99
458.01	4145.09
458.19	4519.57
458.38	4311.27
458.56	4432.97
458.74	4472.76
458.93	4367.44
459.11	4430.63
459.29	4463.40
459.48	4601.49
459.66	4484.47
459.84	4451.70
460.03	4533.62
460.21	4503.19
460.39	4393.19
460.57	4552.34
460.76	4535.96
460.94	4512.55
461.12	4624.90
461.31	4690.43
461.49	4645.96
461.67	4542.98
461.85	4716.18
462.04	4608.51
462.22	4716.18
462.40	4781.71
462.59	4713.84
462.77	4737.24
462.95	4753.63
463.13	4685.75
463.32	4746.61
463.50	4889.38
463.68	4863.63
463.86	4617.88
464.05	4732.56
464.23	4779.37
464.41	4760.65
464.59	4844.91
464.78	5067.26
464.96	4809.80
465.14	4830.87
465.32	5032.15
465.50	4966.62
465.69	5055.56
465.87	4917.47
466.05	4966.62
466.23	4929.17
466.41	5163.22
466.60	5188.97
466.78	4889.38
466.96	5018.11
467.14	5078.96
467.32	5111.73
467.51	5221.74
467.69	4931.51
467.87	5151.52
468.05	5071.94
468.23	5025.13
468.41	5116.41
468.60	5165.56
468.78	5273.23
468.96	4961.94
469.14	5296.63
469.32	5320.04
469.50	5107.05
469.69	5210.03
469.87	5345.78
470.05	5432.38
470.23	5364.51
470.41	5298.97
470.59	5383.23
470.77	5373.87
470.95	5451.11
471.14	5469.83
471.32	5275.57
471.50	5537.71
471.68	5540.05
471.86	5483.88
472.04	5671.12
472.22	5790.49
472.40	5696.86
472.58	5750.70
472.77	5577.50
472.95	5769.42
473.13	5867.72
473.31	5844.32
473.49	5970.71
473.67	6019.86
473.85	5860.70
474.03	5870.06
474.21	5884.11
474.39	5928.58
474.57	6193.06
474.75	6204.76
474.93	6221.14
475.12	6106.46
475.30	6223.48
475.48	6164.97
475.66	6340.51
475.84	6115.82
476.02	6324.13
476.20	6289.02
476.38	6462.22
476.56	6539.46
476.74	6635.42
476.92	6349.87
477.10	6548.82
477.28	6661.16
477.46	6562.86
477.64	6576.91
477.82	6780.53
478.00	7096.50
478.18	6855.43
478.36	6993.52
478.54	6960.75
478.72	6911.60
478.90	7105.87
479.08	7178.42
479.26	7253.32
479.44	7382.05
479.62	7421.84
479.80	7236.94
479.98	7229.91
480.16	7426.52
480.34	7461.63
480.52	7693.34
480.70	7669.94
480.88	7494.40
481.06	7637.17
481.24	7604.40
481.41	7882.92
481.59	7911.01
481.77	7955.48
481.95	8142.72
482.13	7999.95
482.31	8184.85
482.49	8285.50
482.67	8315.92
482.85	8482.10
483.03	8442.31
483.21	8519.55
483.39	8411.89
483.57	8610.83
483.74	8634.24
483.92	8840.20
484.10	8692.75
484.28	8704.45
484.46	9008.72
484.64	9163.20
484.82	9006.38
485.00	9008.72
485.18	9233.41
485.35	9392.57
485.53	9310.65
485.71	9458.10
485.89	9650.03
486.07	9376.19
486.25	9612.58
486.43	9462.79
486.61	9671.09
486.78	9820.89
486.96	9951.96
487.14	9870.04
487.32	10122.82
487.50	10045.58
487.68	10125.16
487.85	10303.04
488.03	10317.08
488.21	10668.16
488.39	10448.15
488.57	10689.23
488.75	10635.39
488.92	10766.46
489.10	10820.30
489.28	10913.92
489.46	11030.94
489.64	10930.30
489.81	11234.57
489.99	11094.14
490.17	11286.06
490.35	11365.64
490.53	11665.23
490.70	11564.59
490.88	11857.15
491.06	11737.79
491.24	11754.17
491.41	11918.01
491.59	11658.21
491.77	11847.79
491.95	12248.02
492.13	12081.85
492.30	12013.97
492.48	12077.16
492.66	12135.68
492.84	12119.29
493.01	12528.89
493.19	12468.03
493.37	12727.83
493.54	12774.64
493.72	12795.71
493.90	12755.92
494.08	12732.51
494.25	12683.36
494.43	13245.09
494.61	13202.96
494.79	13523.62
494.96	13142.11
495.14	13483.83
495.32	13327.01
495.49	13420.63
495.67	13420.63
495.85	13572.77
496.02	13898.10
496.20	14101.73
496.38	13710.86
496.55	13813.84
496.73	14230.46
496.91	14045.55
497.09	13949.59
497.26	14195.35
497.44	13973.00
497.62	14354.51
497.79	14675.16
497.97	14340.46
498.14	14562.81
498.32	14618.99
498.50	14745.38
498.67	14780.48
498.85	15007.52
499.03	15033.26
499.20	14895.17
499.38	15103.48
499.56	15302.42
499.73	15159.65
499.91	14850.70
500.08	15548.18
500.26	14944.32
500.44	15407.75
500.61	15215.82
500.79	15169.01
500.97	15255.61
501.14	15838.41
501.32	15658.18
501.49	15618.39
501.67	15470.94
501.84	15896.92
502.02	16077.14
502.20	15854.79
502.37	16011.60
502.55	15967.13
502.72	15873.51
502.90	16175.44
503.07	16081.82
503.25	16451.63
503.43	16290.13
503.60	16489.07
503.78	16587.38
503.95	16437.58
504.13	16620.14
504.30	16393.11
504.48	16580.36
504.65	16554.61
504.83	16847.18
505.01	16898.67
505.18	16985.27
505.36	17144.42
505.53	16854.20
505.71	16854.20
505.88	17163.15
506.06	17032.08
506.23	17135.06
506.41	17116.34
506.58	17261.45
506.76	17235.70
506.93	17298.90
507.11	17146.76
507.28	16943.14
507.46	17076.55
507.63	17376.14
507.81	17348.05
507.98	17554.02
508.16	17692.11
508.33	17717.86
508.50	17689.77
508.68	17525.93
508.85	18001.06
509.03	17827.86
509.20	18171.92
509.38	18307.67
509.55	18333.42
509.73	18335.76
509.90	18394.27
510.08	18113.41
510.25	18375.55
510.42	18464.49
510.60	18562.79
510.77	18403.63
510.95	18857.70
511.12	18698.54
511.30	18523.00
511.47	18841.31
511.64	18799.18
511.82	19007.49
511.99	18862.38
512.17	18860.04
512.34	18855.36
512.51	18862.38
512.69	19084.73
512.86	19435.81
513.04	19599.65
513.21	19424.11
513.38	19417.08
513.56	19538.79
513.73	19440.49
513.90	19264.95
514.08	19278.99
514.25	18965.36
514.43	19740.08
514.60	19517.73
514.77	19688.59
514.95	19805.61
515.12	19571.56
515.29	19768.16
515.47	19627.73
515.64	20231.59
515.81	19845.40
515.99	19950.73
516.16	20053.71
516.33	20119.24
516.51	20283.08
516.68	19894.55
516.85	20051.37
517.03	20123.93
517.20	20374.36
517.37	20512.46
517.54	20149.67
517.72	20477.35
517.89	20601.40
518.06	20683.31
518.24	20479.69
518.41	20762.89
518.58	20683.31
518.75	20954.82
518.93	20774.60
519.10	20877.58
519.27	20821.41
519.45	20788.64
519.62	20725.44
519.79	20912.69
519.96	20758.21
520.14	20982.90
520.31	21099.93
520.48	21249.72
520.65	21015.67
520.83	21326.96
521.00	21404.20
521.17	21284.83
521.34	21425.26
521.52	21671.02
521.69	21404.20
521.86	21298.88
522.03	21551.65
522.20	21710.81
522.38	21549.31
522.55	21706.13
522.72	21830.18
522.89	21561.02
523.07	21841.88
523.24	21689.74
523.41	22115.72
523.58	21731.87
523.75	22197.64
523.92	21844.22
524.10	22122.74
524.27	22073.59
524.44	22050.19
524.61	22085.30
524.78	22630.64
524.96	22340.41
525.13	22204.66
525.30	22525.32
525.47	22244.45
525.64	22143.81
525.81	22637.66
525.98	22963.00
526.16	22672.77
526.33	22565.10
526.50	22696.17
526.67	22658.73
526.84	22630.64
527.01	22752.35
527.18	22415.31
527.36	22597.87
527.53	22871.72
527.70	23274.29
527.87	23262.58
528.04	22981.72
528.21	23042.57
528.38	22813.20
528.55	23314.08
528.72	23356.21
528.89	23360.89
529.07	23110.45
529.24	23557.49
529.41	23367.91
529.58	23381.95
529.75	23477.91
529.92	23491.96
530.09	23449.83
530.26	23740.05
530.43	23536.43
530.60	23592.60
530.77	23517.70
530.94	23232.16
531.11	23379.61
531.28	23498.98
531.46	23564.51
531.63	23878.15
531.80	23793.89
531.97	24081.77
532.14	23805.59
532.31	23854.74
532.48	23950.70
532.65	24044.32
532.82	24070.07
532.99	24166.03
533.16	23751.76
533.33	24102.84
533.50	24381.36
533.67	24306.46
533.84	24360.30
534.01	24210.50
534.18	24140.29
534.35	24245.61
534.52	24528.81
534.69	24205.82
534.86	24231.57
535.03	24465.62
535.20	24306.46
535.37	24446.90
535.54	24687.97
535.71	24264.33
535.88	24669.25
536.05	24690.31
536.22	24737.12
536.38	25165.44
536.55	24795.64
536.72	24922.02
536.89	24706.70
537.06	24704.35
537.23	24891.60
537.40	24985.22
537.57	24694.99
537.74	24596.69
537.91	25228.63
538.08	25343.32
538.25	25340.98
538.42	24922.02
538.59	24884.58
538.75	24898.62
538.92	25071.82
539.09	25465.03
539.26	25338.64
539.43	25303.53
539.60	25280.13
539.77	25223.95
539.94	25343.32
540.11	25638.23
540.28	25504.82
540.44	25427.58
540.61	25486.09
540.78	25502.48
540.95	25678.02
541.12	25392.47
541.29	25741.21
541.46	25453.33
541.62	25563.33
541.79	25575.03
541.96	25394.81
542.13	25242.68
542.30	25841.85
542.47	25996.33
542.63	25694.40
542.80	25895.69
542.97	25961.22
543.14	25993.99
543.31	26120.38
543.48	25909.73
543.64	26384.86
543.81	26335.71
543.98	26548.70
544.15	26426.99
544.32	26485.50
544.48	26740.62
544.65	26338.05
544.82	26263.15
544.99	26118.04
545.16	26560.40
545.32	26267.83
545.49	26553.38
545.66	26422.31
545.83	26487.84
546.00	26717.22
546.16	26796.79
546.33	26359.11
546.50	26223.36
546.67	26501.89
546.83	25998.67
547.00	26506.57
547.17	26541.68
547.34	26593.17
547.50	26731.26
547.67	27044.89
547.84	27047.23
548.00	27089.36
548.17	26883.39
548.34	27058.93
548.51	27292.99
548.67	26902.12
548.84	27297.67
549.01	26836.58
549.18	26986.38
549.34	27194.68
549.51	26841.26
549.68	27063.61
549.84	27091.70
550.01	27089.36
550.18	26871.69
550.34	27337.46
550.51	27510.66
550.68	27042.55
550.84	26951.27
551.01	27236.81
551.18	27349.16
551.34	27150.21
551.51	27187.66
551.68	27583.21
551.84	27505.98
552.01	27440.44
552.18	27632.36
552.34	27379.59
552.51	27805.56
552.68	27536.40
552.84	27538.74
553.01	27077.66
553.18	27548.11
553.34	27447.46
553.51	27810.25
553.67	27878.12
553.84	28280.69
554.01	27505.98
554.17	27859.40
554.34	27679.18
554.51	27445.12
554.67	27824.29
554.84	27475.55
555.00	27508.32
555.17	27899.19
555.33	27826.63
555.50	27644.07
555.67	27964.72
555.83	27983.44
556.00	28203.46
556.16	27955.36
556.33	27824.29
556.50	27955.36
556.66	28364.95
556.83	28027.92
556.99	28379.00
557.16	28634.11
557.32	28276.01
557.49	28524.11
557.65	28229.20
557.82	27960.04
557.98	28072.39
558.15	28264.31
558.32	28367.29
558.48	28299.42
558.65	28631.77
558.81	28395.38
558.98	28769.86
559.14	28290.06
559.31	27852.38
559.47	28065.36
559.64	28561.56
559.80	28589.64
559.97	28835.40
560.13	28245.58
560.30	28811.99
560.46	28617.73
560.63	28547.51
560.79	28599.01
560.96	28882.21
561.12	28357.93
561.29	28615.39
561.45	28439.85
561.61	28732.42
561.78	28210.48
561.94	28570.92
562.11	28819.02
562.27	28720.71
562.44	28980.51
562.60	29074.13
562.77	28599.01
562.93	28203.46
563.10	28744.12
563.26	28732.42
563.42	28819.02
563.59	29013.28
563.75	28884.55
563.92	28959.45
564.08	28755.82
564.24	28772.21
564.41	28971.15
564.57	28357.93
564.74	29024.98
564.90	29149.03
565.07	28914.98
565.23	28807.31
565.39	28919.66
565.56	29366.70
565.72	29055.41
565.88	29235.63
566.05	28606.03
566.21	28844.76
566.38	28664.54
566.54	28966.47
566.70	29216.91
566.87	29469.69
567.03	29163.08
567.19	29479.05
567.36	29476.71
567.52	29106.90
567.68	29153.71
567.85	28907.96
568.01	29392.45
568.17	29303.51
568.34	29343.30
568.50	29008.60
568.66	29146.69
568.83	29205.20
568.99	29200.52
569.15	29387.77
569.32	29104.56
569.48	28987.53
569.64	28996.90
569.81	29366.70
569.97	28858.81
570.13	29266.06
570.30	29118.60
570.46	28945.41
570.62	29230.95
570.78	29235.63
570.95	29010.94
571.11	29053.07
571.27	29067.11
571.43	29308.19
571.60	29113.92
571.76	29076.48
571.92	29153.71
572.09	29275.42
572.25	29364.36
572.41	29261.38
572.57	29280.10
572.74	29521.18
572.90	29476.71
573.06	29394.79
573.22	29584.37
573.38	29249.67
573.55	29326.91
573.71	29706.08
573.87	29586.71
574.03	29027.32
574.20	29486.07
574.36	29462.66
574.52	29209.89
574.68	29399.47
574.84	29479.05
575.01	29233.29
575.17	29493.09
575.33	29015.62
575.49	29200.52
575.65	29528.20
575.82	29881.62
575.98	29572.67
576.14	29340.96
576.30	29319.89
576.46	29397.13
576.62	29507.13
576.79	29493.09
576.95	29289.46
577.11	29488.41
577.27	29446.28
577.43	29610.12
577.59	29322.23
577.75	29228.61
577.92	29289.46
578.08	29324.57
578.24	29603.10
578.40	29156.05
578.56	29411.17
578.72	29317.55
578.88	29462.66
579.04	29799.70
579.21	29654.59
579.37	29649.91
579.53	29649.91
579.69	29525.86
579.85	29193.50
580.01	29287.12
580.17	29163.08
580.33	29457.98
580.49	29324.57
580.65	30047.80
580.82	29572.67
580.98	29661.61
581.14	29366.70
581.30	29940.13
581.46	29151.37
581.62	29797.36
581.78	29167.76
581.94	29237.97
582.10	29502.45
582.26	29724.80
582.42	29743.53
582.58	29783.32
582.74	29689.70
582.90	29940.13
583.06	29603.10
583.22	29394.79
583.38	29933.11
583.54	29853.53
583.70	29535.22
583.86	29633.52
584.02	29591.39
584.18	29890.98
584.34	30169.51
584.50	29766.93
584.66	29895.66
584.82	29549.26
584.98	29708.42
585.14	29570.33
585.30	29198.18
585.46	29359.68
585.62	29394.79
585.78	29841.83
585.94	29427.56
586.10	29614.80
586.26	29736.51
586.42	29780.98
586.58	29481.39
586.74	29851.19
586.90	29392.45
587.06	29919.07
587.22	29617.14
587.38	29652.25
587.54	29968.22
587.70	30216.32
587.86	29722.46
588.02	29998.65
588.18	30080.56
588.34	29802.04
588.49	30237.38
588.65	29593.73
588.81	29652.25
588.97	29642.88
589.13	29827.79
589.29	29874.60
589.45	29958.86
589.61	29645.23
589.77	30209.29
589.93	30249.08
590.08	29954.18
590.24	30101.63
590.40	30099.29
590.56	30377.81
590.72	29670.97
590.88	29633.52
591.04	30228.02
591.20	30225.68
591.35	30057.16
591.51	30548.67
591.67	30132.06
591.83	30462.07
591.99	30291.21
