SpectraSuite Data File
++++++++++++++++++++++++++++++++++++
Date: Fri Oct 18 13:58:37 GMT-05:00 2013
User: bianchi
Dark Spectrum Present: No
Reference Spectrum Present: No
Number of Sampled Component Spectra: 1
Spectrometers: USB2+H05261
Integration Time (usec): 50000 (USB2+H05261)
Spectra Averaged: 1 (USB2+H05261)
Boxcar Smoothing: 0 (USB2+H05261)
Correct for Electrical Dark: No (USB2+H05261)
Strobe/Lamp Enabled: No (USB2+H05261)
Correct for Detector Non-linearity: No (USB2+H05261)
Correct for Stray Light: No (USB2+H05261)
Number of Pixels in Processed Spectrum: 2048
>>>>>Begin Processed Spectral Data<<<<<
365.73	0.00
365.92	0.00
366.12	0.00
366.32	0.00
366.52	0.00
366.72	0.00
366.91	0.00
367.11	0.00
367.31	0.00
367.51	0.00
367.70	0.00
367.90	0.00
368.10	0.00
368.30	0.00
368.49	0.00
368.69	0.00
368.89	0.00
369.09	0.00
369.28	0.00
369.48	0.00
369.68	0.00
369.87	0.00
370.07	0.00
370.27	0.00
370.47	0.00
370.66	58.51
370.86	65.54
371.06	126.39
371.25	133.41
371.45	110.01
371.65	224.69
371.84	100.64
372.04	124.05
372.24	131.07
372.44	163.84
372.63	124.05
372.83	152.13
373.03	215.33
373.22	208.31
373.42	283.20
373.62	175.54
373.81	290.23
374.01	215.33
374.21	245.76
374.40	266.82
374.60	257.46
374.79	156.82
374.99	215.33
375.19	306.61
375.38	243.42
375.58	210.65
375.78	292.57
375.97	315.97
376.17	287.89
376.37	248.10
376.56	198.95
376.76	292.57
376.95	203.63
377.15	360.44
377.35	227.03
377.54	297.25
377.74	299.59
377.93	257.46
378.13	290.23
378.33	278.52
378.52	243.42
378.72	273.84
378.91	325.33
379.11	227.03
379.31	325.33
379.50	292.57
379.70	245.76
379.89	325.33
380.09	257.46
380.28	250.44
380.48	297.25
380.68	280.86
380.87	372.15
381.07	393.21
381.26	269.16
381.46	337.04
381.65	330.02
381.85	325.33
382.04	362.78
382.24	348.74
382.43	341.72
382.63	369.80
382.83	283.20
383.02	386.19
383.22	437.68
383.41	320.65
383.61	397.89
383.80	447.04
384.00	397.89
384.19	241.08
384.39	376.83
384.58	322.99
384.78	484.49
384.97	365.12
385.17	346.40
385.36	437.68
385.56	390.87
385.75	411.93
385.95	395.55
386.14	351.08
386.34	388.53
386.53	383.85
386.72	402.57
386.92	465.77
387.11	454.06
387.31	451.72
387.50	365.12
387.70	397.89
387.89	526.62
388.09	461.09
388.28	479.81
388.48	437.68
388.67	393.21
388.86	383.85
389.06	421.30
389.25	430.66
389.45	496.19
389.64	369.80
389.84	472.79
390.03	477.47
390.22	557.05
390.42	451.72
390.61	458.74
390.81	528.96
391.00	535.98
391.19	592.16
391.39	447.04
391.58	500.87
391.78	526.62
391.97	512.58
392.16	528.96
392.36	517.26
392.55	528.96
392.75	517.26
392.94	599.18
393.13	477.47
393.33	566.41
393.52	528.96
393.71	582.79
393.91	622.58
394.10	650.67
394.29	585.13
394.49	582.79
394.68	550.03
394.88	575.77
395.07	571.09
395.26	587.47
395.46	653.01
395.65	765.36
395.84	648.33
396.04	622.58
396.23	645.99
396.42	723.23
396.62	685.78
396.81	676.41
397.00	690.46
397.19	683.44
397.39	606.20
397.58	702.16
397.77	589.82
397.97	662.37
398.16	627.26
398.35	664.71
398.55	695.14
398.74	697.48
398.93	748.97
399.12	791.10
399.32	711.52
399.51	711.52
399.70	688.12
399.90	751.31
400.09	767.70
400.28	788.76
400.47	802.80
400.67	791.10
400.86	685.78
401.05	697.48
401.24	739.61
401.44	798.12
401.63	830.89
401.82	802.80
402.01	805.14
402.21	887.06
402.40	788.76
402.59	861.32
402.78	727.91
402.97	849.61
403.17	903.45
403.36	858.98
403.55	915.15
403.74	770.04
403.93	903.45
404.13	957.28
404.32	924.51
404.51	938.55
404.70	933.87
404.89	936.21
405.09	943.24
405.28	992.39
405.47	964.30
405.66	894.08
405.85	978.34
406.05	1001.75
406.24	997.07
406.43	959.62
406.62	1046.22
406.81	1020.47
407.00	1022.81
407.20	954.94
407.39	952.60
407.58	1020.47
407.77	1022.81
407.96	1121.12
408.15	1060.26
408.34	1034.52
408.54	1149.20
408.73	1118.78
408.92	1174.95
409.11	1191.33
409.30	1167.93
409.49	1179.63
409.68	1116.44
409.87	1280.27
410.07	1200.69
410.26	1174.95
410.45	1109.41
410.64	1235.80
410.83	1172.61
411.02	1233.46
411.21	1221.76
411.40	1291.98
411.59	1259.21
411.78	1364.53
411.98	1259.21
412.17	1221.76
412.36	1196.01
412.55	1296.66
412.74	1289.64
412.93	1425.39
413.12	1378.58
413.31	1439.43
413.50	1366.87
413.69	1289.64
413.88	1472.20
414.07	1453.47
414.26	1511.99
414.45	1465.18
414.64	1500.28
414.83	1537.73
415.02	1509.65
415.22	1561.14
415.41	1579.86
415.60	1530.71
415.79	1682.85
415.98	1533.05
416.17	1586.88
416.36	1526.03
416.55	1617.31
416.74	1696.89
416.93	1572.84
417.12	1659.44
417.31	1645.40
417.50	1687.53
417.69	1785.83
417.88	1689.87
418.07	1820.94
418.26	1748.38
418.45	1713.27
418.64	1703.91
418.83	1802.21
419.02	1722.63
419.21	1748.38
419.39	1818.60
419.58	1881.79
419.77	1825.62
419.96	1898.17
420.15	1928.60
420.34	1849.02
420.53	1834.98
420.72	1966.05
420.91	1989.46
421.10	1987.11
421.29	2040.95
421.48	2059.67
421.67	1961.37
421.86	1952.01
422.05	1949.67
422.24	2045.63
422.43	1968.39
422.61	1996.48
422.80	1996.48
422.99	2003.50
423.18	2071.37
423.37	2078.40
423.56	1963.71
423.75	1919.24
423.94	1984.77
424.13	1837.32
424.32	1998.82
424.50	2045.63
424.69	2139.25
424.88	1989.46
425.07	2069.03
425.26	1975.41
425.45	2066.69
425.64	2062.01
425.83	2017.54
426.01	2108.82
426.20	2059.67
426.39	2078.40
426.58	2050.31
426.77	2038.61
426.96	2139.25
427.15	2153.29
427.33	2242.23
427.52	2157.97
427.71	2090.10
427.90	2172.02
428.09	2249.25
428.28	2148.61
428.46	2193.08
428.65	2174.36
428.84	2169.68
429.03	2282.02
429.22	2228.19
429.40	2239.89
429.59	2324.15
429.78	2083.08
429.97	2134.57
430.16	2207.13
430.34	2324.15
430.53	2314.79
430.72	2380.32
430.91	2387.35
431.10	2373.30
431.28	2361.60
431.47	2387.35
431.66	2473.95
431.85	2375.64
432.03	2352.24
432.22	2476.29
432.41	2562.89
432.60	2480.97
432.79	2480.97
432.97	2427.14
433.16	2635.44
433.35	2487.99
433.54	2504.37
433.72	2541.82
433.91	2633.10
434.10	2581.61
434.28	2499.69
434.47	2656.51
434.66	2647.15
434.85	2569.91
435.03	2757.15
435.22	2600.34
435.41	2782.90
435.59	2623.74
435.78	2499.69
435.97	2525.44
436.16	2670.55
436.34	2785.24
436.53	2684.59
436.72	2675.23
436.90	2700.98
437.09	2651.83
437.28	2691.62
437.46	2700.98
437.65	2693.96
437.84	2827.37
438.02	2768.85
438.21	2801.62
438.40	2794.60
438.58	2832.05
438.77	2939.71
438.96	2937.37
439.14	2906.95
439.33	3012.27
439.52	2916.31
439.70	3038.02
439.89	3080.14
440.08	3045.04
440.26	3059.08
440.45	3152.70
440.63	3056.74
440.82	3077.80
441.01	3131.64
441.19	3187.81
441.38	3227.60
441.57	3269.73
441.75	3297.81
441.94	3396.12
442.12	3386.76
442.31	3349.31
442.50	3433.57
442.68	3375.05
442.87	3307.18
443.05	3258.03
443.24	3449.95
443.43	3412.50
443.61	3342.28
443.80	3562.30
443.98	3419.52
444.17	3267.39
444.35	3405.48
444.54	3438.25
444.73	3555.27
444.91	3524.85
445.10	3454.63
445.28	3480.38
445.47	3475.70
445.65	3435.91
445.84	3449.95
446.02	3466.33
446.21	3609.11
446.39	3520.17
446.58	3510.80
446.77	3564.64
446.95	3454.63
447.14	3449.95
447.32	3653.58
447.51	3578.68
447.69	3590.38
447.88	3602.08
448.06	3552.93
448.25	3529.53
448.43	3611.45
448.62	3562.30
448.80	3471.01
448.99	3684.00
449.17	3686.34
449.36	3478.04
449.54	3599.74
449.73	3665.28
449.91	3737.84
450.10	3763.58
450.28	3723.79
450.46	3712.09
450.65	3815.07
450.83	3789.33
451.02	3758.90
451.20	3716.77
451.39	3864.22
451.57	3744.86
451.76	3730.81
451.94	3740.18
452.13	4058.49
452.31	3939.12
452.49	3894.65
452.68	3803.37
452.86	3857.20
453.05	3885.29
453.23	3936.78
453.42	3934.44
453.60	3981.25
453.78	4021.04
453.97	3974.23
454.15	3976.57
454.34	3918.06
454.52	4025.72
454.70	3988.27
454.89	4023.38
455.07	4018.70
455.26	4138.07
455.44	4170.83
455.62	4149.77
455.81	4142.75
455.99	4142.75
456.17	4262.12
456.36	4074.87
456.54	4280.84
456.73	4241.05
456.91	4442.34
457.09	4269.14
457.28	4337.01
457.46	4212.96
457.64	4367.44
457.83	4358.08
458.01	4294.88
458.19	4472.76
458.38	4360.42
458.56	4358.08
458.74	4533.62
458.93	4397.87
459.11	4423.61
459.29	4512.55
459.48	4573.41
459.66	4566.39
459.84	4456.38
460.03	4425.95
460.21	4557.02
460.39	4624.90
460.57	4622.56
460.76	4746.61
460.94	4662.35
461.12	4638.94
461.31	4582.77
461.49	4615.54
461.67	4535.96
461.85	4800.44
462.04	4723.20
462.22	4873.00
462.40	4833.21
462.59	4641.28
462.77	4758.31
462.95	4833.21
463.13	4685.75
463.32	4816.82
463.50	4786.40
463.68	4905.76
463.86	4816.82
464.05	4702.14
464.23	4851.93
464.41	4936.19
464.59	4873.00
464.78	4985.34
464.96	4999.38
465.14	4919.81
465.32	5039.17
465.50	5022.79
465.69	5078.96
465.87	4987.68
466.05	4833.21
466.23	5043.85
466.41	4987.68
466.60	5210.03
466.78	5137.48
466.96	5064.92
467.14	5069.60
467.32	5125.77
467.51	5146.84
467.69	5081.30
467.87	5177.26
468.05	5193.65
468.23	5153.86
468.41	5163.22
468.60	5238.12
468.78	5383.23
468.96	5177.26
469.14	5195.99
469.32	5509.62
469.50	5210.03
469.69	5474.51
469.87	5488.56
470.05	5355.15
470.23	5413.66
470.41	5533.03
470.59	5528.35
470.77	5502.60
470.95	5511.96
471.14	5687.50
471.32	5493.24
471.50	5717.93
471.68	5664.10
471.86	5596.22
472.04	5743.67
472.22	5771.76
472.40	5668.78
472.58	5844.32
472.77	5638.35
472.95	5767.08
473.13	5912.19
473.31	5818.57
473.49	5832.62
473.67	5888.79
473.85	5860.70
474.03	5937.94
474.21	5902.83
474.39	5954.32
474.57	6099.44
474.75	6237.53
474.93	6176.67
475.12	6153.27
475.30	6104.12
475.48	6279.66
475.66	6312.42
475.84	6050.28
476.02	6312.42
476.20	6366.26
476.38	6443.49
476.56	6586.27
476.74	6736.06
476.92	6576.91
477.10	6604.99
477.28	6574.56
477.46	6766.49
477.64	6801.60
477.82	6876.49
478.00	7173.74
478.18	6920.96
478.36	6906.92
478.54	7108.21
478.72	7143.32
478.90	7180.76
479.08	7096.50
479.26	7304.81
479.44	7335.24
479.62	7288.43
479.80	7417.16
479.98	7609.08
480.16	7889.95
480.34	7295.45
480.52	7854.84
480.70	7761.22
480.88	7641.85
481.06	7639.51
481.24	7707.38
481.41	7754.19
481.59	8016.33
481.77	8016.33
481.95	8100.59
482.13	8046.76
482.31	8035.06
482.49	8149.75
482.67	8243.37
482.85	8514.87
483.03	8540.61
483.21	8718.50
483.39	8667.00
483.57	8678.71
483.74	8685.73
483.92	8652.96
484.10	8709.13
484.28	8858.93
484.46	9102.34
484.64	9308.31
484.82	9029.79
485.00	9224.05
485.18	9509.60
485.35	9394.91
485.53	9310.65
485.71	9476.83
485.89	9743.65
486.07	9533.00
486.25	9605.56
486.43	9792.80
486.61	9551.73
486.78	9790.46
486.96	10012.81
487.14	10050.26
487.32	9973.02
487.50	10207.08
487.68	10256.23
487.85	10686.89
488.03	10520.71
488.21	10719.65
488.39	10588.58
488.57	10743.06
488.75	10668.16
488.92	11030.94
489.10	10909.24
489.28	11117.54
489.46	11208.83
489.64	11138.61
489.81	11330.53
489.99	11311.81
490.17	11477.99
490.35	11609.06
490.53	11485.01
490.70	11587.99
490.88	11630.12
491.06	11829.07
491.24	11850.13
491.41	11971.84
491.59	12133.34
491.77	12079.50
491.95	11960.14
492.13	12386.12
492.30	12421.22
492.48	12191.85
492.66	12245.68
492.84	12224.62
493.01	12496.12
493.19	12699.75
493.37	12706.77
493.54	12741.88
493.72	12868.27
493.90	13092.96
494.08	13099.98
494.25	13212.32
494.43	12985.29
494.61	13610.22
494.79	13315.31
494.96	13212.32
495.14	13762.35
495.32	13437.02
495.49	13350.42
495.67	13893.42
495.85	13748.31
496.02	13844.27
496.20	14073.64
496.38	14045.55
496.55	13998.74
496.73	14256.20
496.91	14326.42
497.09	14216.41
497.26	14345.14
497.44	14363.87
497.62	14537.07
497.79	14602.60
497.97	14691.54
498.14	14740.69
498.32	14960.70
498.50	15105.82
498.67	14981.77
498.85	15077.73
499.03	15197.10
499.20	14972.41
499.38	14970.07
499.56	15232.21
499.73	15489.67
499.91	15513.07
500.08	15339.87
500.26	15304.76
500.44	15241.57
500.61	15712.02
500.79	15702.65
500.97	15716.70
501.14	16006.92
501.32	16051.39
501.49	15969.48
501.67	16088.84
501.84	16046.71
502.02	16011.60
502.20	16027.99
502.37	16439.92
502.55	16273.74
502.72	16538.23
502.90	16084.16
503.07	16170.76
503.25	16435.24
503.43	16514.82
503.60	16613.12
503.78	16720.79
503.95	16451.63
504.13	16484.39
504.30	16938.46
504.48	16451.63
504.65	16783.98
504.83	17202.94
505.01	17341.03
505.18	17195.92
505.36	17233.36
505.53	17027.40
505.71	17099.95
505.88	17523.59
506.06	17259.11
506.23	17680.41
506.41	17352.73
506.58	17350.39
506.76	17467.42
506.93	17624.23
507.11	17593.81
507.28	17706.15
507.46	17804.46
507.63	17832.54
507.81	17860.63
507.98	17790.41
508.16	17722.54
508.33	17884.03
508.50	18031.49
508.68	18019.78
508.85	18214.05
509.03	18204.69
509.20	18396.61
509.38	18361.50
509.55	18181.28
509.73	18661.09
509.90	18588.53
510.08	18284.26
510.25	18703.22
510.42	18558.11
510.60	18625.98
510.77	18635.35
510.95	18892.80
511.12	18796.84
511.30	18888.12
511.47	18878.76
511.64	18946.64
511.82	19150.26
511.99	19101.11
512.17	19344.53
512.34	18916.21
512.51	19459.21
512.69	19630.07
512.86	19445.17
513.04	19639.44
513.21	19618.37
513.38	19545.81
513.56	19534.11
513.73	19632.41
513.90	19695.61
514.08	19494.32
514.25	19695.61
514.43	19641.78
514.60	19822.00
514.77	20039.67
514.95	19775.19
515.12	19737.74
515.29	20009.24
515.47	20236.27
515.64	20140.31
515.81	20081.80
515.99	20580.33
516.16	20187.12
516.33	20533.52
516.51	20329.89
516.68	20388.41
516.85	20475.01
517.03	20201.16
517.20	20390.75
517.37	20517.14
517.54	20954.82
517.72	20746.51
517.89	20535.86
518.06	20964.18
518.24	20718.42
518.41	21069.50
518.58	20982.90
518.75	20968.86
518.93	21029.71
519.10	21008.65
519.27	21359.73
519.45	21046.10
519.62	21179.51
519.79	21090.57
519.96	20863.54
520.14	21589.10
520.31	21500.16
520.48	21497.82
520.65	21593.78
520.83	21577.40
521.00	21628.89
521.17	21495.48
521.34	21685.06
521.52	21509.52
521.69	21708.47
521.86	21848.90
522.03	21935.50
522.20	21919.12
522.38	22232.75
522.55	21975.29
522.72	22003.38
522.89	21881.67
523.07	22335.73
523.24	22260.84
523.41	21972.95
523.58	22181.26
523.75	22155.51
523.92	22218.71
524.10	22295.94
524.27	22228.07
524.44	22476.16
524.61	22520.63
524.78	22506.59
524.96	22099.34
525.13	22249.13
525.30	22663.41
525.47	22417.65
525.64	22625.96
525.81	23070.66
525.98	23133.86
526.16	23098.75
526.33	22845.97
526.50	23168.96
526.67	22808.52
526.84	23349.18
527.01	23211.09
527.18	23051.94
527.36	23335.14
527.53	23023.85
527.70	23545.79
527.87	23442.81
528.04	23330.46
528.21	23367.91
528.38	23407.70
528.55	23433.44
528.72	23384.29
528.89	23372.59
529.07	23325.78
529.24	23580.90
529.41	23606.64
529.58	23585.58
529.75	23475.57
529.92	23529.41
530.09	23653.45
530.26	23513.02
530.43	24219.86
530.60	23679.20
530.77	23843.04
530.94	23833.68
531.11	23892.19
531.28	23868.78
531.46	23770.48
531.63	24254.97
531.80	24114.54
531.97	24201.14
532.14	24318.17
532.31	24070.07
532.48	24184.76
532.65	24283.06
532.82	23943.68
532.99	24224.54
533.16	24362.64
533.33	24547.54
533.50	24313.48
533.67	24655.20
533.84	24308.80
534.01	24332.21
534.18	24271.36
534.35	24814.36
534.52	24758.19
534.69	24924.36
534.86	25015.65
535.03	24648.18
535.20	24879.89
535.37	25006.28
535.54	24762.87
535.71	25027.35
535.88	25060.12
536.05	25151.40
536.22	24828.40
536.38	25067.14
536.55	24840.11
536.72	25411.20
536.89	24702.01
537.06	25043.73
537.23	24938.41
537.40	25106.93
537.57	25235.66
537.74	25188.85
537.91	25223.95
538.08	25706.10
538.25	25172.46
538.42	25525.88
538.59	25532.90
538.75	25448.64
538.92	25514.18
539.09	25912.07
539.26	25474.39
539.43	25556.31
539.60	25408.86
539.77	25600.78
539.94	25766.96
540.11	26022.08
540.28	25579.71
540.44	25689.72
540.61	25642.91
540.78	25706.10
540.95	26127.40
541.12	25879.30
541.29	25743.55
541.46	25905.05
541.62	25773.98
541.79	26040.80
541.96	25640.57
542.13	25919.09
542.30	26354.43
542.47	26108.68
542.63	26050.16
542.80	26260.81
542.97	26525.29
543.14	26642.32
543.31	26391.88
543.48	26529.97
543.64	26529.97
543.81	26693.81
543.98	26724.24
544.15	26785.09
544.32	26930.20
544.48	26642.32
544.65	26782.75
544.82	26668.06
544.99	26529.97
545.16	26632.96
545.32	26834.24
545.49	27157.24
545.66	26960.63
545.83	26916.16
546.00	27192.34
546.16	26836.58
546.33	26852.97
546.50	26955.95
546.67	27274.26
546.83	26796.79
547.00	26948.93
547.17	26941.91
547.34	27428.74
547.50	27363.20
547.67	27424.06
547.84	27267.24
548.00	27412.35
548.17	27473.21
548.34	27489.59
548.51	27796.20
548.67	27576.19
548.84	27353.84
549.01	27281.28
549.18	27047.23
549.34	27288.31
549.51	27255.54
549.68	27466.19
549.84	27227.45
550.01	27667.47
550.18	27740.03
550.34	27517.68
550.51	27817.27
550.68	27697.90
550.84	27517.68
551.01	27606.62
551.18	27363.20
551.34	27538.74
551.51	27714.28
551.68	27901.53
551.84	27742.37
552.01	27791.52
552.18	28238.56
552.34	27978.76
552.51	27566.83
552.68	27943.66
552.84	27826.63
553.01	28407.08
553.18	27938.97
553.34	28297.08
553.51	28112.17
553.67	28261.97
553.84	28271.33
554.01	28556.88
554.17	28587.30
554.34	28556.88
554.51	28105.15
554.67	28147.28
554.84	28201.11
555.00	28212.82
555.17	28156.64
555.33	28261.97
555.50	27931.95
555.67	28180.05
555.83	28212.82
556.00	28095.79
556.16	28376.66
556.33	28531.13
556.50	28594.32
556.66	28599.01
556.83	28371.97
556.99	28914.98
557.16	28699.65
557.32	28650.50
557.49	28603.69
557.65	28552.20
557.82	28201.11
557.98	28610.71
558.15	28491.34
558.32	28624.75
558.48	28694.97
558.65	28737.10
558.81	28594.32
558.98	28570.92
559.14	28786.25
559.31	28573.26
559.47	28622.41
559.64	28795.61
559.80	29053.07
559.97	29383.09
560.13	28634.11
560.30	28898.59
560.46	28978.17
560.63	28727.74
560.79	29212.23
560.96	29062.43
561.12	28924.34
561.29	29055.41
561.45	29123.29
561.61	29039.03
561.78	28769.86
561.94	29371.38
562.11	29071.79
562.27	28886.89
562.44	29125.63
562.60	28975.83
562.77	29457.98
562.93	29216.91
563.10	29479.05
563.26	28638.80
563.42	29453.30
563.59	29130.31
563.75	29553.94
563.92	29462.66
564.08	29322.23
564.24	29462.66
564.41	29525.86
564.57	29481.39
564.74	29303.51
564.90	29399.47
565.07	29610.12
565.23	29429.90
565.39	29469.69
565.56	29439.26
565.72	29076.48
565.88	29717.78
566.05	29282.44
566.21	29455.64
566.38	29420.53
566.54	29244.99
566.70	29511.81
566.87	29694.38
567.03	29626.50
567.19	29977.58
567.36	29556.28
567.52	29766.93
567.68	29621.82
567.85	29596.07
568.01	29357.34
568.17	29483.73
568.34	29539.90
568.50	29642.88
568.66	29600.76
568.83	30057.16
568.99	29551.60
569.15	29514.16
569.32	29759.91
569.48	29364.36
569.64	30066.52
569.81	29443.94
569.97	29521.18
570.13	29462.66
570.30	29769.27
570.46	30082.91
570.62	29677.99
570.78	29544.58
570.95	29500.11
571.11	29322.23
571.27	29127.97
571.43	29577.35
571.60	29640.54
571.76	29680.33
571.92	29773.95
572.09	29867.58
572.25	29708.42
572.41	30015.03
572.57	29734.17
572.74	29890.98
572.90	29727.14
573.06	29673.31
573.22	29867.58
573.38	29851.19
573.55	29446.28
573.71	29940.13
573.87	29666.29
574.03	29905.02
574.20	29642.88
574.36	29682.67
574.52	29996.31
574.68	29516.50
574.84	29692.04
575.01	29851.19
575.17	29858.21
575.33	29869.92
575.49	29792.68
575.65	29755.23
575.82	30005.67
575.98	29813.74
576.14	29970.56
576.30	29591.39
576.46	29703.74
576.62	29888.64
576.79	29663.95
576.95	29696.72
577.11	29919.07
577.27	29879.28
577.43	30071.20
577.59	30054.82
577.75	29886.30
577.92	30087.59
578.08	29530.54
578.24	29624.16
578.40	29921.41
578.56	30096.95
578.72	30129.72
578.88	30286.53
579.04	30267.81
579.21	29809.06
579.37	30017.37
579.53	29975.24
579.69	29792.68
579.85	29795.02
580.01	30244.40
580.17	29804.38
580.33	29656.93
580.49	29928.43
580.65	30272.49
580.82	30167.16
580.98	30389.52
581.14	30181.21
581.30	29876.94
581.46	29979.92
581.62	30000.99
581.78	30110.99
581.94	30054.82
582.10	29883.96
582.26	30171.85
582.42	30169.51
582.58	29930.77
582.74	30188.23
582.90	30127.38
583.06	30225.68
583.22	30206.95
583.38	30012.69
583.54	30057.16
583.70	30195.25
583.86	30204.61
584.02	30017.37
584.18	30412.92
584.34	30237.38
584.50	30536.97
584.66	30284.19
584.82	30010.35
584.98	30422.28
585.14	30232.70
585.30	29902.68
585.46	30000.99
585.62	30122.69
585.78	30251.42
585.94	30054.82
586.10	30228.02
586.26	29876.94
586.42	30576.76
586.58	30532.29
586.74	30061.84
586.90	29757.57
587.06	29963.54
587.22	30611.87
587.38	30188.23
587.54	30698.47
587.70	30190.57
587.86	30309.94
588.02	30672.72
588.18	30773.36
588.34	30419.94
588.49	30167.16
588.65	30054.82
588.81	30005.67
588.97	30448.03
589.13	30019.71
589.29	30300.58
589.45	30417.60
589.61	30532.29
589.77	30644.63
589.93	30733.57
590.08	30658.68
590.24	30756.98
590.40	30354.41
590.56	30258.45
590.72	30707.83
590.88	30565.06
591.04	30794.43
591.20	30504.20
591.35	30890.39
591.51	30857.62
591.67	30497.18
591.83	30885.71
591.99	30441.01
