SpectraSuite Data File
++++++++++++++++++++++++++++++++++++
Date: Fri Oct 18 13:58:35 GMT-05:00 2013
User: bianchi
Dark Spectrum Present: No
Reference Spectrum Present: No
Number of Sampled Component Spectra: 1
Spectrometers: USB2+H05261
Integration Time (usec): 50000 (USB2+H05261)
Spectra Averaged: 1 (USB2+H05261)
Boxcar Smoothing: 0 (USB2+H05261)
Correct for Electrical Dark: No (USB2+H05261)
Strobe/Lamp Enabled: No (USB2+H05261)
Correct for Detector Non-linearity: No (USB2+H05261)
Correct for Stray Light: No (USB2+H05261)
Number of Pixels in Processed Spectrum: 2048
>>>>>Begin Processed Spectral Data<<<<<
365.73	0.00
365.92	0.00
366.12	0.00
366.32	0.00
366.52	0.00
366.72	0.00
366.91	0.00
367.11	0.00
367.31	0.00
367.51	0.00
367.70	0.00
367.90	0.00
368.10	0.00
368.30	0.00
368.49	0.00
368.69	0.00
368.89	0.00
369.09	0.00
369.28	0.00
369.48	0.00
369.68	0.00
369.87	0.00
370.07	0.00
370.27	0.00
370.47	0.00
370.66	100.64
370.86	60.85
371.06	128.73
371.25	124.05
371.45	95.96
371.65	201.29
371.84	191.92
372.04	140.43
372.24	198.95
372.44	135.75
372.63	269.16
372.83	325.33
373.03	248.10
373.22	161.50
373.42	236.39
373.62	177.88
373.81	227.03
374.01	224.69
374.21	276.18
374.40	212.99
374.60	315.97
374.79	227.03
374.99	203.63
375.19	255.12
375.38	294.91
375.58	227.03
375.78	229.37
375.97	266.82
376.17	238.73
376.37	208.31
376.56	308.95
376.76	236.39
376.95	241.08
377.15	266.82
377.35	236.39
377.54	269.16
377.74	290.23
377.93	245.76
378.13	250.44
378.33	308.95
378.52	252.78
378.72	280.86
378.91	299.59
379.11	252.78
379.31	248.10
379.50	201.29
379.70	257.46
379.89	369.80
380.09	339.38
380.28	315.97
380.48	346.40
380.68	292.57
380.87	330.02
381.07	332.36
381.26	322.99
381.46	205.97
381.65	287.89
381.85	299.59
382.04	360.44
382.24	290.23
382.43	360.44
382.63	365.12
382.83	381.51
383.02	362.78
383.22	334.70
383.41	297.25
383.61	315.97
383.80	346.40
384.00	402.57
384.19	390.87
384.39	386.19
384.58	334.70
384.78	369.80
384.97	454.06
385.17	440.02
385.36	463.43
385.56	358.10
385.75	369.80
385.95	433.00
386.14	461.09
386.34	386.19
386.53	468.11
386.72	447.04
386.92	472.79
387.11	348.74
387.31	423.64
387.50	435.34
387.70	365.12
387.89	418.96
388.09	435.34
388.28	470.45
388.48	400.23
388.67	533.64
388.86	430.66
389.06	433.00
389.25	461.09
389.45	433.00
389.64	381.51
389.84	491.51
390.03	484.49
390.22	461.09
390.42	519.60
390.61	451.72
390.81	458.74
391.00	454.06
391.19	578.11
391.39	470.45
391.58	526.62
391.78	503.22
391.97	526.62
392.16	449.38
392.36	575.77
392.55	603.86
392.75	489.17
392.94	589.82
393.13	613.22
393.33	468.11
393.52	573.43
393.71	526.62
393.91	475.13
394.10	540.66
394.29	550.03
394.49	547.69
394.68	578.11
394.88	653.01
395.07	615.56
395.26	592.16
395.46	603.86
395.65	608.54
395.84	638.97
396.04	709.18
396.23	627.26
396.42	685.78
396.62	624.92
396.81	709.18
397.00	606.20
397.19	669.39
397.39	554.71
397.58	655.35
397.77	648.33
397.97	706.84
398.16	739.61
398.35	688.12
398.55	664.71
398.74	713.86
398.93	662.37
399.12	674.07
399.32	784.08
399.51	716.20
399.70	676.41
399.90	741.95
400.09	772.38
400.28	805.14
400.47	835.57
400.67	795.78
400.86	791.10
401.05	748.97
401.24	802.80
401.44	774.72
401.63	854.30
401.82	737.27
402.01	730.25
402.21	823.87
402.40	828.55
402.59	854.30
402.78	905.79
402.97	786.42
403.17	905.79
403.36	795.78
403.55	842.59
403.74	856.64
403.93	903.45
404.13	875.36
404.32	957.28
404.51	985.37
404.70	938.55
404.89	936.21
405.09	938.55
405.28	990.05
405.47	992.39
405.66	976.00
405.85	1011.11
406.05	952.60
406.24	994.73
406.43	926.85
406.62	994.73
406.81	1057.92
407.00	997.07
407.20	1018.13
407.39	1057.92
407.58	1137.50
407.77	1069.62
407.96	1076.65
408.15	1086.01
408.34	1055.58
408.54	1041.54
408.73	1146.86
408.92	1123.46
409.11	1093.03
409.30	1261.55
409.49	1123.46
409.68	1142.18
409.87	1137.50
410.07	1153.88
410.26	1233.46
410.45	1203.04
410.64	1137.50
410.83	1188.99
411.02	1242.82
411.21	1247.51
411.40	1252.19
411.59	1261.55
411.78	1301.34
411.98	1406.66
412.17	1268.57
412.36	1247.51
412.55	1320.06
412.74	1299.00
412.93	1369.21
413.12	1310.70
413.31	1390.28
413.50	1322.40
413.69	1350.49
413.88	1451.13
414.07	1423.05
414.26	1322.40
414.45	1500.28
414.64	1502.62
414.83	1455.81
415.02	1556.46
415.22	1451.13
415.41	1652.42
415.60	1523.69
415.79	1647.74
415.98	1696.89
416.17	1647.74
416.36	1612.63
416.55	1561.14
416.74	1598.59
416.93	1671.14
417.12	1650.08
417.31	1661.78
417.50	1689.87
417.69	1834.98
417.88	1680.50
418.07	1685.19
418.26	1671.14
418.45	1739.02
418.64	1771.79
418.83	1687.53
419.02	1769.44
419.21	1870.09
419.39	1825.62
419.58	1788.17
419.77	1863.07
419.96	1830.30
420.15	1832.64
420.34	1881.79
420.53	1820.94
420.72	1991.80
420.91	1837.32
421.10	2012.86
421.29	2054.99
421.48	1898.17
421.67	2003.50
421.86	1921.58
422.05	1982.43
422.24	1982.43
422.43	2059.67
422.61	2047.97
422.80	1959.03
422.99	1893.49
423.18	2026.90
423.37	2127.55
423.56	2083.08
423.75	2024.56
423.94	1898.17
424.13	1886.47
424.32	1900.52
424.50	2064.35
424.69	2104.14
424.88	2073.71
425.07	2036.27
425.26	1966.05
425.45	1926.26
425.64	2071.37
425.83	1947.33
426.01	2069.03
426.20	2071.37
426.39	1952.01
426.58	2022.22
426.77	2146.27
426.96	2080.74
427.15	2012.86
427.33	2186.06
427.52	2085.42
427.71	2207.13
427.90	2045.63
428.09	2146.27
428.28	2113.50
428.46	2225.85
428.65	2211.81
428.84	2228.19
429.03	2335.85
429.22	2265.64
429.40	2230.53
429.59	2338.20
429.78	2204.78
429.97	2097.12
430.16	2214.15
430.34	2317.13
430.53	2214.15
430.72	2338.20
430.91	2333.51
431.10	2284.36
431.28	2361.60
431.47	2427.14
431.66	2445.86
431.85	2394.37
432.03	2403.73
432.22	2527.78
432.41	2443.52
432.60	2267.98
432.79	2448.20
432.97	2509.05
433.16	2546.50
433.35	2462.24
433.54	2497.35
433.72	2565.23
433.91	2670.55
434.10	2476.29
434.28	2511.39
434.47	2572.25
434.66	2579.27
434.85	2619.06
435.03	2506.71
435.22	2583.95
435.41	2733.75
435.59	2736.09
435.78	2541.82
435.97	2710.34
436.16	2619.06
436.34	2715.02
436.53	2794.60
436.72	2775.88
436.90	2759.49
437.09	2705.66
437.28	2705.66
437.46	2738.43
437.65	2715.02
437.84	2862.48
438.02	2759.49
438.21	2869.50
438.40	2862.48
438.58	2979.50
438.77	2862.48
438.96	2951.42
439.14	2944.39
439.33	3000.57
439.52	2895.24
439.70	2895.24
439.89	3054.40
440.08	2911.63
440.26	3105.89
440.45	3073.12
440.63	3157.38
440.82	3164.40
441.01	3159.72
441.19	3279.09
441.38	3236.96
441.57	3110.57
441.75	3122.27
441.94	3300.16
442.12	3211.22
442.31	3229.94
442.50	3346.97
442.68	3337.60
442.87	3232.28
443.05	3384.41
443.24	3332.92
443.43	3440.59
443.61	3361.01
443.80	3524.85
443.98	3288.45
444.17	3302.50
444.35	3442.93
444.54	3410.16
444.73	3405.48
444.91	3335.26
445.10	3353.99
445.28	3382.07
445.47	3510.80
445.65	3447.61
445.84	3471.01
446.02	3529.53
446.21	3482.72
446.39	3438.25
446.58	3595.06
446.77	3513.14
446.95	3400.80
447.14	3517.83
447.32	3438.25
447.51	3562.30
447.69	3468.67
447.88	3461.65
448.06	3412.50
448.25	3384.41
448.43	3520.17
448.62	3639.53
448.80	3485.06
448.99	3552.93
449.17	3613.79
449.36	3520.17
449.54	3618.47
449.73	3665.28
449.91	3686.34
450.10	3740.18
450.28	3758.90
450.46	3728.47
450.65	3712.09
450.83	3805.71
451.02	3805.71
451.20	3786.99
451.39	3801.03
451.57	3854.86
451.76	3751.88
451.94	3705.07
452.13	3967.21
452.31	3836.14
452.49	3679.32
452.68	3726.13
452.86	3819.75
453.05	3943.80
453.23	3906.35
453.42	3861.88
453.60	3896.99
453.78	3969.55
453.97	3864.22
454.15	3871.25
454.34	3969.55
454.52	4056.15
454.70	4070.19
454.89	4126.36
455.07	4109.98
455.26	4028.06
455.44	4119.34
455.62	3948.48
455.81	4018.70
455.99	4149.77
456.17	4053.81
456.36	4081.89
456.54	4285.52
456.73	4271.48
456.91	4472.76
457.09	4327.65
457.28	4386.16
457.46	4187.22
457.64	4238.71
457.83	4428.29
458.01	4292.54
458.19	4248.07
458.38	4418.93
458.56	4395.53
458.74	4479.79
458.93	4344.03
459.11	4580.43
459.29	4432.97
459.48	4482.13
459.66	4512.55
459.84	4603.83
460.03	4660.01
460.21	4592.13
460.39	4414.25
460.57	4601.49
460.76	4545.32
460.94	4540.64
461.12	4650.64
461.31	4711.50
461.49	4578.09
461.67	4505.53
461.85	4725.54
462.04	4643.62
462.22	4704.48
462.40	4762.99
462.59	4861.29
462.77	4720.86
462.95	4798.10
463.13	4802.78
463.32	4858.95
463.50	4835.55
463.68	4833.21
463.86	4774.69
464.05	4739.58
464.23	5036.83
464.41	4917.47
464.59	4929.17
464.78	4992.36
464.96	4922.15
465.14	4800.44
465.32	4987.68
465.50	5088.32
465.69	5020.45
465.87	4990.02
466.05	5039.17
466.23	4966.62
466.41	5060.24
466.60	5301.31
466.78	5172.58
466.96	5020.45
467.14	5083.64
467.32	5231.10
467.51	5221.74
467.69	5156.20
467.87	5137.48
468.05	5256.84
468.23	5011.09
468.41	5139.82
468.60	5348.12
468.78	5142.16
468.96	5195.99
469.14	5308.34
469.32	5425.36
469.50	5310.68
469.69	5327.06
469.87	5341.10
470.05	5324.72
470.23	5399.62
470.41	5437.06
470.59	5441.75
470.77	5439.40
470.95	5603.24
471.14	5474.51
471.32	5626.65
471.50	5547.07
471.68	5659.42
471.86	5717.93
472.04	5577.50
472.22	5935.60
472.40	5666.44
472.58	5694.52
472.77	5874.74
472.95	5926.24
473.13	6069.01
473.31	5907.51
473.49	5767.08
473.67	5811.55
473.85	5806.87
474.03	6076.03
474.21	5914.53
474.39	6031.56
474.57	5975.39
474.75	6076.03
474.93	6359.24
475.12	6209.44
475.30	6174.33
475.48	6143.91
475.66	6363.92
475.84	6277.32
476.02	6244.55
476.20	6431.79
476.38	6485.62
476.56	6560.52
476.74	6792.23
476.92	6635.42
477.10	6541.80
477.28	6810.96
477.46	6651.80
477.64	6792.23
477.82	6932.67
478.00	7117.57
478.18	7002.88
478.36	7171.40
478.54	7379.71
478.72	6967.77
478.90	7140.97
479.08	7360.98
479.26	7171.40
479.44	7332.90
479.62	7377.37
479.80	7442.90
479.98	7581.00
480.16	7632.49
480.34	7557.59
480.52	7473.33
480.70	7688.66
480.88	7506.10
481.06	7709.72
481.24	7609.08
481.41	7859.52
481.59	7934.42
481.77	7894.63
481.95	8086.55
482.13	8105.28
482.31	8049.10
482.49	8395.50
482.67	8430.61
482.85	8320.60
483.03	8528.91
483.21	8610.83
483.39	8603.81
483.57	8798.07
483.74	8753.60
483.92	8622.53
484.10	8599.13
484.28	8954.89
484.46	8940.85
484.64	9006.38
484.82	8992.34
485.00	9191.28
485.18	9453.42
485.35	9544.70
485.53	9366.82
485.71	9458.10
485.89	9549.39
486.07	9708.54
486.25	9493.21
486.43	9530.66
486.61	9795.14
486.78	9916.85
486.96	10043.24
487.14	10127.50
487.32	10080.69
487.50	10141.54
487.68	10249.21
487.85	10263.25
488.03	10534.75
488.21	10693.91
488.39	10450.49
488.57	10824.98
488.75	10619.01
488.92	10932.64
489.10	10892.85
489.28	11208.83
489.46	11073.07
489.64	11101.16
489.81	11414.79
489.99	11255.64
490.17	11257.98
490.35	11421.81
490.53	11520.12
490.70	11805.66
490.88	11829.07
491.06	11840.77
491.24	11786.94
491.41	11800.98
491.59	11824.39
491.77	11906.31
491.95	12156.74
492.13	12210.57
492.30	12355.69
492.48	12348.67
492.66	12276.11
492.84	12418.88
493.01	12505.48
493.19	12489.10
493.37	12819.11
493.54	12816.77
493.72	12657.62
493.90	12943.16
494.08	12933.80
494.25	13193.60
494.43	13181.90
494.61	13359.78
494.79	13556.38
494.96	13348.08
495.14	13446.38
495.32	13607.87
495.49	13818.52
495.67	13769.37
495.85	13621.92
496.02	14061.94
496.20	13830.23
496.38	13884.06
496.55	13998.74
496.73	14155.56
496.91	14071.30
497.09	14270.25
497.26	14305.35
497.44	14459.83
497.62	14359.19
497.79	14532.39
497.97	14637.71
498.14	14960.70
498.32	14806.23
498.50	14750.06
498.67	14984.11
498.85	14897.51
499.03	15047.30
499.20	14958.36
499.38	15089.43
499.56	15222.84
499.73	15253.27
499.91	15227.53
500.08	15545.84
500.26	15255.61
500.44	15646.48
500.61	15557.54
500.79	15676.91
500.97	15517.75
501.14	15943.73
501.32	15857.13
501.49	15555.20
501.67	15683.93
501.84	15833.72
502.02	15981.18
502.20	16098.20
502.37	16362.69
502.55	16339.28
502.72	16343.96
502.90	15962.45
503.07	16409.50
503.25	16393.11
503.43	16116.93
503.60	16365.03
503.78	16924.41
503.95	16428.22
504.13	16575.67
504.30	16709.08
504.48	16673.98
504.65	16744.19
504.83	17041.44
505.01	16868.24
505.18	17364.43
505.36	17167.83
505.53	17039.10
505.71	16936.12
505.88	17221.66
506.06	17041.44
506.23	17507.21
506.41	17467.42
506.58	17542.32
506.76	17336.35
506.93	17558.70
507.11	17565.72
507.28	17647.64
507.46	17891.06
507.63	17626.57
507.81	17972.97
507.98	17781.05
508.16	17888.71
508.33	17666.36
508.50	18263.20
508.68	18040.85
508.85	17991.70
509.03	17930.84
509.20	18288.95
509.38	18368.52
509.55	18375.55
509.73	18464.49
509.90	18420.02
510.08	18384.91
510.25	18628.32
510.42	18689.18
510.60	18597.90
510.77	18853.02
510.95	18829.61
511.12	18860.04
511.30	18668.11
511.47	19187.71
511.64	18956.00
511.82	18841.31
511.99	19124.52
512.17	19133.88
512.34	19213.46
512.51	19550.49
512.69	19386.66
512.86	19419.42
513.04	19496.66
513.21	19501.34
513.38	19386.66
513.56	19494.32
513.73	19637.09
513.90	19573.90
514.08	19899.23
514.25	19995.20
514.43	19896.89
514.60	19908.60
514.77	19812.63
514.95	19924.98
515.12	20042.01
515.29	19927.32
515.47	20009.24
515.64	19962.43
515.81	20224.57
515.99	20290.10
516.16	20264.36
516.33	20372.02
516.51	20507.77
516.68	20503.09
516.85	20266.70
517.03	20386.07
517.20	20620.12
517.37	20634.16
517.54	20711.40
517.72	20570.97
517.89	20816.72
518.06	20519.48
518.24	20498.41
518.41	20765.23
518.58	21099.93
518.75	20936.09
518.93	20954.82
519.10	20795.66
519.27	21177.17
519.45	21137.38
519.62	20882.26
519.79	20837.79
519.96	21060.14
520.14	21378.45
520.31	21074.18
520.48	21544.63
520.65	21397.18
520.83	21425.26
521.00	21481.44
521.17	21530.59
521.34	21516.54
521.52	21397.18
521.69	21802.09
521.86	21624.21
522.03	21979.97
522.20	22066.57
522.38	21785.71
522.55	22033.80
522.72	22097.00
522.89	22059.55
523.07	22033.80
523.24	22263.18
523.41	22469.14
523.58	22195.30
523.75	22415.31
523.92	22052.53
524.10	22036.14
524.27	22403.61
524.44	22635.32
524.61	22265.52
524.78	22560.42
524.96	22462.12
525.13	22506.59
525.30	22473.82
525.47	22452.76
525.64	22654.05
525.81	23058.96
525.98	22932.57
526.16	23080.02
526.33	22834.27
526.50	23049.60
526.67	22548.72
526.84	23051.94
527.01	22836.61
527.18	23084.70
527.36	23381.95
527.53	23351.52
527.70	23353.87
527.87	23367.91
528.04	23424.08
528.21	23236.84
528.38	23470.89
528.55	23190.03
528.72	23253.22
528.89	23091.73
529.07	23594.94
529.24	23288.33
529.41	23550.47
529.58	23206.41
529.75	23452.17
529.92	23644.09
530.09	23796.23
530.26	23997.51
530.43	23674.52
530.60	23608.98
530.77	23648.77
530.94	24126.24
531.11	23716.65
531.28	23772.82
531.46	24168.37
531.63	23910.91
531.80	23913.25
531.97	24261.99
532.14	24329.87
532.31	24175.39
532.48	24222.20
532.65	24367.32
532.82	24025.60
532.99	24446.90
533.16	24458.60
533.33	24383.70
533.50	24765.21
533.67	24411.79
533.84	23908.57
534.01	24692.65
534.18	24676.27
534.35	24959.47
534.52	24308.80
534.69	24634.14
534.86	24659.88
535.03	24746.48
535.20	24362.64
535.37	24783.93
535.54	24758.19
535.71	24788.61
535.88	24716.06
536.05	24849.47
536.22	24634.14
536.38	25095.22
536.55	25074.16
536.72	24444.56
536.89	24856.49
537.06	25062.46
537.23	25076.50
537.40	25109.27
537.57	25071.82
537.74	25291.83
537.91	25626.53
538.08	25425.24
538.25	25387.79
538.42	25378.43
538.59	25570.35
538.75	25139.69
538.92	25462.69
539.09	25254.38
539.26	25582.06
539.43	25663.97
539.60	25759.94
539.77	25497.80
539.94	25413.54
540.11	25668.66
540.28	25326.94
540.44	25535.24
540.61	25654.61
540.78	25544.61
540.95	25724.83
541.12	25759.94
541.29	25701.42
541.46	25502.48
541.62	25858.24
541.79	25766.96
541.96	25565.67
542.13	25961.22
542.30	25757.60
542.47	26263.15
542.63	26181.23
542.80	26377.84
542.97	26029.10
543.14	26562.74
543.31	26171.87
543.48	26188.25
543.64	26441.03
543.81	26398.90
543.98	26752.32
544.15	26726.58
544.32	26621.25
544.48	26775.73
544.65	26373.16
544.82	26780.41
544.99	26319.32
545.16	26806.16
545.32	26806.16
545.49	26745.30
545.66	26988.72
545.83	26735.94
546.00	27012.12
546.16	26892.76
546.33	26773.39
546.50	26752.32
546.67	26668.06
546.83	26560.40
547.00	26838.92
547.17	26909.14
547.34	27204.05
547.50	27044.89
547.67	27129.15
547.84	27110.43
548.00	27522.36
548.17	26808.50
548.34	27051.91
548.51	27615.98
548.67	27260.22
548.84	27297.67
549.01	27552.79
549.18	27311.71
549.34	27154.90
549.51	27152.55
549.68	27342.14
549.84	27456.82
550.01	27758.75
550.18	27136.17
550.34	27737.69
550.51	27754.07
550.68	27543.42
550.84	27410.01
551.01	27791.52
551.18	27283.62
551.34	27379.59
551.51	27550.45
551.68	27555.13
551.84	27559.81
552.01	27615.98
552.18	27573.85
552.34	27491.93
552.51	28004.51
552.68	27826.63
552.84	27831.31
553.01	27653.43
553.18	27672.15
553.34	28222.18
553.51	27585.55
553.67	28170.69
553.84	28187.07
554.01	27929.61
554.17	28374.31
554.34	28247.93
554.51	28077.07
554.67	28383.68
554.84	28439.85
555.00	28163.67
555.17	28137.92
555.33	28388.36
555.50	28453.89
555.67	28013.87
555.83	28067.70
556.00	28137.92
556.16	28187.07
556.33	28163.67
556.50	28325.16
556.66	28397.72
556.83	28521.77
556.99	28833.06
557.16	28685.61
557.32	28388.36
557.49	28826.04
557.65	28531.13
557.82	28416.44
557.98	28278.35
558.15	28350.91
558.32	28865.83
558.48	28617.73
558.65	28830.72
558.81	29003.92
558.98	28938.38
559.14	28636.45
559.31	28453.89
559.47	28741.78
559.64	28252.61
559.80	29008.60
559.97	28898.59
560.13	28594.32
560.30	28828.38
560.46	28865.83
560.63	28882.21
560.79	28767.52
560.96	29043.71
561.12	28709.01
561.29	28730.08
561.45	28760.50
561.61	29032.00
561.78	28900.94
561.94	29064.77
562.11	28896.25
562.27	29090.52
562.44	28975.83
562.60	29188.82
562.77	28889.23
562.93	28917.32
563.10	28816.68
563.26	28854.12
563.42	29144.35
563.59	28961.79
563.75	29013.28
563.92	28917.32
564.08	29113.92
564.24	28779.23
564.41	28966.47
564.57	28919.66
564.74	28912.64
564.90	29233.29
565.07	29244.99
565.23	29266.06
565.39	29057.75
565.56	29193.50
565.72	29020.30
565.88	29259.04
566.05	29039.03
566.21	29418.19
566.38	29172.44
566.54	29689.70
566.70	29855.87
566.87	29694.38
567.03	29404.15
567.19	29460.32
567.36	29399.47
567.52	29724.80
567.68	29369.04
567.85	29184.14
568.01	29462.66
568.17	29387.77
568.34	29764.59
568.50	29303.51
568.66	29579.69
568.83	29610.12
568.99	29383.09
569.15	29233.29
569.32	29235.63
569.48	29621.82
569.64	29455.64
569.81	29207.55
569.97	29429.90
570.13	29654.59
570.30	29535.22
570.46	29502.45
570.62	29331.59
570.78	29385.43
570.95	29308.19
571.11	29619.48
571.27	29347.98
571.43	29387.77
571.60	29654.59
571.76	29652.25
571.92	29596.07
572.09	29771.61
572.25	30305.26
572.41	29537.56
572.57	29722.46
572.74	29949.50
572.90	29668.63
573.06	29687.36
573.22	29687.36
573.38	29659.27
573.55	29724.80
573.71	30064.18
573.87	29949.50
574.03	29621.82
574.20	29575.01
574.36	29708.42
574.52	29731.83
574.68	29699.06
574.84	29993.97
575.01	30143.76
575.17	29825.45
575.33	29535.22
575.49	29542.24
575.65	29961.20
575.82	30087.59
575.98	29905.02
576.14	30176.53
576.30	30075.88
576.46	29710.76
576.62	29537.56
576.79	29759.91
576.95	29408.83
577.11	30169.51
577.27	29949.50
577.43	29769.27
577.59	30045.46
577.75	29949.50
577.92	29773.95
578.08	29825.45
578.24	29675.65
578.40	29804.38
578.56	29825.45
578.72	29713.10
578.88	30239.72
579.04	29834.81
579.21	30096.95
579.37	29743.53
579.53	30087.59
579.69	29661.61
579.85	29734.17
580.01	30185.89
580.17	29500.11
580.33	29773.95
580.49	29893.32
580.65	29825.45
580.82	30295.89
580.98	30038.44
581.14	29673.31
581.30	29736.51
581.46	30080.56
581.62	29876.94
581.78	30010.35
581.94	29841.83
582.10	29907.37
582.26	29893.32
582.42	30110.99
582.58	30153.12
582.74	30167.16
582.90	29928.43
583.06	30024.39
583.22	30029.07
583.38	29766.93
583.54	29930.77
583.70	29778.64
583.86	29586.71
584.02	29752.89
584.18	30340.36
584.34	30150.78
584.50	30480.80
584.66	30345.05
584.82	29949.50
584.98	29823.11
585.14	30272.49
585.30	29544.58
585.46	30141.42
585.62	30106.31
585.78	29799.70
585.94	29734.17
586.10	30052.48
586.26	30122.69
586.42	30160.14
586.58	30300.58
586.74	30038.44
586.90	29991.62
587.06	30059.50
587.22	30398.88
587.38	29865.24
587.54	30331.00
587.70	30520.59
587.86	30178.87
588.02	30546.33
588.18	30480.80
588.34	30335.68
588.49	30761.66
588.65	30073.54
588.81	30010.35
588.97	30396.54
589.13	30122.69
589.29	29916.73
589.45	30202.27
589.61	30253.76
589.77	30323.98
589.93	30476.12
590.08	30118.01
590.24	30338.02
590.40	30497.18
590.56	30405.90
590.72	30452.71
590.88	29961.20
591.04	30316.96
591.20	30562.72
591.35	30267.81
591.51	30455.05
591.67	30363.77
591.83	30782.73
591.99	30122.69
