SpectraSuite Data File
++++++++++++++++++++++++++++++++++++
Date: Fri Oct 18 13:58:04 GMT-05:00 2013
User: bianchi
Dark Spectrum Present: No
Reference Spectrum Present: No
Number of Sampled Component Spectra: 1
Spectrometers: USB2+H05261
Integration Time (usec): 50000 (USB2+H05261)
Spectra Averaged: 1 (USB2+H05261)
Boxcar Smoothing: 0 (USB2+H05261)
Correct for Electrical Dark: No (USB2+H05261)
Strobe/Lamp Enabled: No (USB2+H05261)
Correct for Detector Non-linearity: No (USB2+H05261)
Correct for Stray Light: No (USB2+H05261)
Number of Pixels in Processed Spectrum: 2048
>>>>>Begin Processed Spectral Data<<<<<
365.73	0.00
365.92	0.00
366.12	0.00
366.32	0.00
366.52	0.00
366.72	0.00
366.91	0.00
367.11	0.00
367.31	0.00
367.51	0.00
367.70	0.00
367.90	0.00
368.10	0.00
368.30	0.00
368.49	0.00
368.69	0.00
368.89	0.00
369.09	0.00
369.28	0.00
369.48	0.00
369.68	0.00
369.87	0.00
370.07	0.00
370.27	0.00
370.47	0.00
370.66	95.96
370.86	91.28
371.06	88.94
371.25	166.18
371.45	182.56
371.65	121.71
371.84	161.50
372.04	259.80
372.24	182.56
372.44	166.18
372.63	175.54
372.83	241.08
373.03	201.29
373.22	222.35
373.42	243.42
373.62	149.79
373.81	217.67
374.01	285.55
374.21	299.59
374.40	283.20
374.60	205.97
374.79	170.86
374.99	243.42
375.19	203.63
375.38	273.84
375.58	220.01
375.78	262.14
375.97	299.59
376.17	313.63
376.37	198.95
376.56	266.82
376.76	297.25
376.95	182.56
377.15	257.46
377.35	255.12
377.54	280.86
377.74	297.25
377.93	304.27
378.13	255.12
378.33	245.76
378.52	294.91
378.72	346.40
378.91	269.16
379.11	280.86
379.31	341.72
379.50	280.86
379.70	337.04
379.89	337.04
380.09	262.14
380.28	245.76
380.48	220.01
380.68	241.08
380.87	351.08
381.07	287.89
381.26	351.08
381.46	299.59
381.65	299.59
381.85	285.55
382.04	348.74
382.24	404.91
382.43	339.38
382.63	388.53
382.83	383.85
383.02	416.62
383.22	337.04
383.41	311.29
383.61	341.72
383.80	435.34
384.00	358.10
384.19	369.80
384.39	308.95
384.58	358.10
384.78	386.19
384.97	484.49
385.17	393.21
385.36	414.27
385.56	397.89
385.75	407.25
385.95	358.10
386.14	411.93
386.34	451.72
386.53	468.11
386.72	376.83
386.92	435.34
387.11	346.40
387.31	423.64
387.50	437.68
387.70	360.44
387.89	470.45
388.09	430.66
388.28	425.98
388.48	440.02
388.67	493.85
388.86	404.91
389.06	440.02
389.25	470.45
389.45	533.64
389.64	472.79
389.84	547.69
390.03	505.56
390.22	526.62
390.42	491.51
390.61	442.36
390.81	603.86
391.00	479.81
391.19	435.34
391.39	496.19
391.58	552.37
391.78	489.17
391.97	629.60
392.16	528.96
392.36	540.66
392.55	540.66
392.75	512.58
392.94	531.30
393.13	592.16
393.33	634.29
393.52	491.51
393.71	634.29
393.91	606.20
394.10	510.24
394.29	564.07
394.49	557.05
394.68	631.94
394.88	606.20
395.07	603.86
395.26	594.50
395.46	650.67
395.65	695.14
395.84	655.35
396.04	674.07
396.23	702.16
396.42	566.41
396.62	606.20
396.81	599.18
397.00	723.23
397.19	657.69
397.39	667.05
397.58	627.26
397.77	617.90
397.97	753.65
398.16	648.33
398.35	746.63
398.55	653.01
398.74	683.44
398.93	699.82
399.12	681.10
399.32	674.07
399.51	660.03
399.70	748.97
399.90	748.97
400.09	739.61
400.28	814.51
400.47	765.36
400.67	823.87
400.86	730.25
401.05	800.46
401.24	798.12
401.44	753.65
401.63	781.74
401.82	828.55
402.01	777.06
402.21	861.32
402.40	917.49
402.59	758.33
402.78	870.68
402.97	940.90
403.17	952.60
403.36	924.51
403.55	898.77
403.74	807.48
403.93	976.00
404.13	898.77
404.32	896.43
404.51	847.27
404.70	968.98
404.89	957.28
405.09	1015.79
405.28	910.47
405.47	931.53
405.66	978.34
405.85	1011.11
406.05	1039.20
406.24	933.87
406.43	1027.50
406.62	1071.97
406.81	1078.99
407.00	1093.03
407.20	964.30
407.39	994.73
407.58	1043.88
407.77	1034.52
407.96	1093.03
408.15	1142.18
408.34	1102.39
408.54	1088.35
408.73	1027.50
408.92	1036.86
409.11	1135.16
409.30	1245.16
409.49	1193.67
409.68	1111.75
409.87	1181.97
410.07	1259.21
410.26	1090.69
410.45	1270.91
410.64	1177.29
410.83	1203.04
411.02	1224.10
411.21	1191.33
411.40	1263.89
411.59	1287.29
411.78	1280.27
411.98	1228.78
412.17	1287.29
412.36	1238.14
412.55	1338.79
412.74	1401.98
412.93	1376.24
413.12	1277.93
413.31	1462.83
413.50	1425.39
413.69	1416.02
413.88	1493.26
414.07	1455.81
414.26	1430.07
414.45	1551.78
414.64	1516.67
414.83	1495.60
415.02	1640.72
415.22	1554.12
415.41	1533.05
415.60	1629.01
415.79	1509.65
415.98	1631.35
416.17	1558.80
416.36	1600.93
416.55	1612.63
416.74	1678.16
416.93	1603.27
417.12	1570.50
417.31	1699.23
417.50	1734.34
417.69	1699.23
417.88	1727.32
418.07	1844.34
418.26	1891.15
418.45	1771.79
418.64	1811.57
418.83	1797.53
419.02	1767.10
419.21	1739.02
419.39	1888.81
419.58	1902.86
419.77	1902.86
419.96	1830.30
420.15	1891.15
420.34	1898.17
420.53	1956.69
420.72	1921.58
420.91	1968.39
421.10	1886.47
421.29	2015.20
421.48	1966.05
421.67	1996.48
421.86	1860.73
422.05	1961.37
422.24	1973.07
422.43	2029.24
422.61	2033.93
422.80	2085.42
422.99	2001.16
423.18	2052.65
423.37	2087.76
423.56	2078.40
423.75	1973.07
423.94	2031.58
424.13	1947.33
424.32	1963.71
424.50	2106.48
424.69	2045.63
424.88	2125.21
425.07	1975.41
425.26	1937.96
425.45	2118.18
425.64	2038.61
425.83	2052.65
426.01	2141.59
426.20	2045.63
426.39	2113.50
426.58	2169.68
426.77	2038.61
426.96	2062.01
427.15	2143.93
427.33	2073.71
427.52	2181.38
427.71	2286.70
427.90	2139.25
428.09	2270.32
428.28	2260.96
428.46	2239.89
428.65	2232.87
428.84	2326.49
429.03	2408.41
429.22	2258.62
429.40	2256.28
429.59	2361.60
429.78	2228.19
429.97	2239.89
430.16	2291.38
430.34	2305.43
430.53	2319.47
430.72	2370.96
430.91	2338.20
431.10	2272.66
431.28	2387.35
431.47	2349.90
431.66	2483.31
431.85	2377.98
432.03	2569.91
432.22	2567.57
432.41	2532.46
432.60	2406.07
432.79	2429.48
432.97	2469.27
433.16	2633.10
433.35	2504.37
433.54	2389.69
433.72	2593.31
433.91	2541.82
434.10	2513.74
434.28	2434.16
434.47	2609.70
434.66	2693.96
434.85	2729.06
435.03	2679.91
435.22	2642.46
435.41	2787.58
435.59	2635.44
435.78	2759.49
435.97	2729.06
436.16	2722.04
436.34	2698.64
436.53	2668.21
436.72	2918.65
436.90	2745.45
437.09	2789.92
437.28	2705.66
437.46	2789.92
437.65	2738.43
437.84	2864.82
438.02	2787.58
438.21	2825.03
438.40	2855.45
438.58	2864.82
438.77	2899.92
438.96	2995.89
439.14	3030.99
439.33	2974.82
439.52	3103.55
439.70	3002.91
439.89	3073.12
440.08	3080.14
440.26	3019.29
440.45	3049.72
440.63	3096.53
440.82	3138.66
441.01	3103.55
441.19	3183.13
441.38	3258.03
441.57	3239.30
441.75	3166.74
441.94	3325.90
442.12	3290.79
442.31	3365.69
442.50	3349.31
442.68	3332.92
442.87	3276.75
443.05	3323.56
443.24	3468.67
443.43	3417.18
443.61	3361.01
443.80	3377.39
443.98	3265.05
444.17	3204.19
444.35	3398.46
444.54	3414.84
444.73	3473.36
444.91	3473.36
445.10	3510.80
445.28	3421.86
445.47	3375.05
445.65	3489.74
445.84	3431.23
446.02	3550.59
446.21	3515.48
446.39	3311.86
446.58	3393.78
446.77	3522.51
446.95	3449.95
447.14	3559.95
447.32	3583.36
447.51	3492.08
447.69	3534.21
447.88	3543.57
448.06	3496.76
448.25	3522.51
448.43	3517.83
448.62	3667.62
448.80	3564.64
448.99	3658.26
449.17	3550.59
449.36	3581.02
449.54	3770.60
449.73	3754.22
449.91	3707.41
450.10	3777.62
450.28	3695.71
450.46	3740.18
450.65	3829.12
450.83	3873.59
451.02	3707.41
451.20	3981.25
451.39	3756.56
451.57	3768.26
451.76	3744.86
451.94	3852.52
452.13	3920.40
452.31	3971.89
452.49	3836.14
452.68	3913.38
452.86	3850.18
453.05	4011.68
453.23	3913.38
453.42	3981.25
453.60	3882.95
453.78	4037.42
453.97	3868.91
454.15	3836.14
454.34	4109.98
454.52	4187.22
454.70	4025.72
454.89	4046.79
455.07	4170.83
455.26	4124.02
455.44	4177.86
455.62	4049.13
455.81	4166.15
455.99	4271.48
456.17	4315.95
456.36	4114.66
456.54	4205.94
456.73	4255.09
456.91	4404.89
457.09	4348.72
457.28	4454.04
457.46	4301.90
457.64	4430.63
457.83	4374.46
458.01	4437.66
458.19	4477.44
458.38	4390.84
458.56	4641.28
458.74	4517.23
458.93	4355.74
459.11	4678.73
459.29	4339.35
459.48	4517.23
459.66	4407.23
459.84	4493.83
460.03	4540.64
460.21	4554.68
460.39	4493.83
460.57	4617.88
460.76	4678.73
460.94	4748.95
461.12	4723.20
461.31	4791.08
461.49	4610.86
461.67	4561.70
461.85	4875.34
462.04	4884.70
462.22	4980.66
462.40	4800.44
462.59	4772.35
462.77	4851.93
462.95	4968.96
463.13	4762.99
463.32	4760.65
463.50	4968.96
463.68	4828.53
463.86	4873.00
464.05	4772.35
464.23	4723.20
464.41	4830.87
464.59	4873.00
464.78	5074.28
464.96	5125.77
465.14	4922.15
465.32	5050.88
465.50	5071.94
465.69	4966.62
465.87	5046.20
466.05	5074.28
466.23	5081.30
466.41	5282.59
466.60	5345.78
466.78	5160.88
466.96	5085.98
467.14	5233.44
467.32	5170.24
467.51	5212.37
467.69	5123.43
467.87	5242.80
468.05	5291.95
468.23	5172.58
468.41	5123.43
468.60	5242.80
468.78	5364.51
468.96	5266.21
469.14	5357.49
469.32	5467.49
469.50	5348.12
469.69	5451.11
469.87	5413.66
470.05	5500.26
470.23	5614.95
470.41	5434.72
470.59	5504.94
470.77	5425.36
470.95	5448.77
471.14	5689.84
471.32	5509.62
471.50	5802.19
471.68	5781.12
471.86	5682.82
472.04	5860.70
472.22	5837.30
472.40	5734.31
472.58	5738.99
472.77	5804.53
472.95	5907.51
473.13	6031.56
473.31	5898.15
473.49	6132.20
473.67	5984.75
473.85	5849.00
474.03	6204.76
474.21	6111.14
474.39	5994.11
474.57	6286.68
474.75	6244.55
474.93	6317.11
475.12	6179.01
475.30	6232.85
475.48	6260.93
475.66	6319.45
475.84	6403.71
476.02	6513.71
476.20	6473.92
476.38	6621.38
476.56	6675.21
476.74	6754.79
476.92	6642.44
477.10	6579.25
477.28	6817.98
477.46	6579.25
477.64	6806.28
477.82	6813.30
478.00	7096.50
478.18	7054.37
478.36	7084.80
478.54	7138.63
478.72	7311.83
478.90	7335.24
479.08	7162.04
479.26	7321.20
479.44	7307.15
479.62	7501.42
479.80	7412.48
479.98	7676.96
480.16	7714.41
480.34	7747.17
480.52	7719.09
480.70	7786.96
480.88	7705.04
481.06	7714.41
481.24	7964.84
481.41	7899.31
481.59	7915.69
481.77	8107.62
481.95	8109.96
482.13	8470.40
482.31	8262.09
482.49	8549.98
482.67	8505.51
482.85	8346.35
483.03	8718.50
483.21	8819.14
483.39	8795.73
483.57	8603.81
483.74	8816.80
483.92	8987.66
484.10	8833.18
484.28	9062.55
484.46	9092.98
484.64	9537.68
484.82	9074.26
485.00	9195.96
485.18	9406.61
485.35	9451.08
485.53	9549.39
485.71	9579.81
485.89	9570.45
486.07	9753.01
486.25	9958.98
486.43	9687.48
486.61	9851.31
486.78	9989.41
486.96	9947.28
487.14	10230.48
487.32	10279.63
487.50	10394.32
487.68	10281.97
487.85	10483.26
488.03	10530.07
488.21	10714.97
488.39	10731.36
488.57	10820.30
488.75	10712.63
488.92	10949.03
489.10	10967.75
489.28	11215.85
489.46	11154.99
489.64	11529.48
489.81	11461.60
489.99	11365.64
490.17	11426.50
490.35	11477.99
490.53	11824.39
490.70	11817.36
490.88	11758.85
491.06	11857.15
491.24	11906.31
491.41	11847.79
491.59	12301.86
491.77	12159.08
491.95	12444.63
492.13	12278.45
492.30	12650.60
492.48	12367.39
492.66	12535.91
492.84	12383.77
493.01	12744.22
493.19	12690.38
493.37	12929.12
493.54	12774.64
493.72	13123.38
493.90	13186.58
494.08	13195.94
494.25	13352.76
494.43	13329.35
494.61	13249.77
494.79	13893.42
494.96	13635.96
495.14	13514.25
495.32	13895.76
495.49	13963.64
495.67	13865.33
495.85	13802.14
496.02	14139.18
496.20	14183.65
496.38	14106.41
496.55	14162.58
496.73	14436.42
496.91	14436.42
497.09	14583.88
497.26	14728.99
497.44	14450.47
497.62	14569.83
497.79	14850.70
497.97	15021.56
498.14	14745.38
498.32	15096.46
498.50	15236.89
498.67	15276.68
498.85	15185.40
499.03	15281.36
499.20	15463.92
499.38	15187.74
499.56	15658.18
499.73	15403.07
499.91	15468.60
500.08	15529.45
500.26	15644.14
500.44	15662.86
500.61	15932.03
500.79	15770.53
500.97	16112.25
501.14	16105.23
501.32	16170.76
501.49	16119.27
501.67	16252.68
501.84	15873.51
502.02	16032.67
502.20	16365.03
502.37	16524.18
502.55	16283.11
502.72	16631.85
502.90	16638.87
503.07	16477.37
503.25	16503.12
503.43	16353.32
503.60	16809.73
503.78	17034.42
503.95	16587.38
504.13	16905.69
504.30	16945.48
504.48	17039.10
504.65	17027.40
504.83	17315.28
505.01	17231.02
505.18	17254.43
505.36	17687.43
505.53	17200.60
505.71	17591.47
505.88	17493.16
506.06	17425.29
506.23	17565.72
506.41	17364.43
506.58	17769.35
506.76	17818.50
506.93	17596.15
507.11	17877.01
507.28	17872.33
507.46	17837.22
507.63	18104.04
507.81	18312.35
507.98	18200.01
508.16	18094.68
508.33	18132.13
508.50	18420.02
508.68	18504.28
508.85	18478.53
509.03	18382.57
509.20	18520.66
509.38	18698.54
509.55	18614.28
509.73	18607.26
509.90	18824.93
510.08	18827.27
510.25	18370.86
510.42	18885.78
510.60	19164.31
510.77	19061.32
510.95	18948.98
511.12	18857.70
511.30	19468.58
511.47	19166.65
511.64	18876.42
511.82	19236.86
511.99	19269.63
512.17	19506.02
512.34	19321.12
512.51	19796.25
512.69	19468.58
512.86	19601.99
513.04	19789.23
513.21	19646.46
513.38	19939.02
513.56	19929.66
513.73	19882.85
513.90	19772.85
514.08	19847.74
514.25	20184.78
514.43	20257.34
514.60	20208.19
514.77	20217.55
514.95	20184.78
515.12	20184.78
515.29	20065.41
515.47	20727.78
515.64	20365.00
515.81	20643.52
515.99	20685.65
516.16	20889.28
516.33	20451.60
516.51	20673.95
516.68	20910.35
516.85	20519.48
517.03	20706.72
517.20	20870.56
517.37	20809.70
517.54	20641.18
517.72	20891.62
517.89	21043.76
518.06	20879.92
518.24	20917.37
518.41	20931.41
518.58	21104.61
518.75	21039.08
518.93	21415.90
519.10	21385.47
519.27	21539.95
519.45	21268.45
519.62	21359.73
519.79	21507.18
519.96	21532.93
520.14	21408.88
520.31	21586.76
520.48	21706.13
520.65	21432.29
520.83	22061.89
521.00	21715.49
521.17	21818.47
521.34	21769.32
521.52	22045.51
521.69	21853.58
521.86	21982.31
522.03	22155.51
522.20	22078.27
522.38	22305.31
522.55	22328.71
522.72	22235.09
522.89	22382.54
523.07	22771.07
523.24	22277.22
523.41	22480.85
523.58	22370.84
523.75	22827.24
523.92	22459.78
524.10	22614.26
524.27	22829.59
524.44	22869.37
524.61	22878.74
524.78	22883.42
524.96	22754.69
525.13	22728.94
525.30	22595.53
525.47	22883.42
525.64	22892.78
525.81	22897.46
525.98	23068.32
526.16	23262.58
526.33	23323.44
526.50	23496.64
526.67	23122.15
526.84	23044.91
527.01	23335.14
527.18	23318.76
527.36	23655.79
527.53	23552.81
527.70	24013.90
527.87	23470.89
528.04	23957.72
528.21	23749.42
528.38	23648.77
528.55	24004.53
528.72	23564.51
528.89	24147.31
529.07	23803.25
529.24	23498.98
529.41	23868.78
529.58	24004.53
529.75	23702.61
529.92	24100.50
530.09	24039.64
530.26	24329.87
530.43	24357.96
530.60	23931.98
530.77	23988.15
530.94	24191.78
531.11	24156.67
531.28	23840.70
531.46	23948.36
531.63	24269.01
531.80	24699.67
531.97	24350.93
532.14	24636.48
532.31	24643.50
532.48	24559.24
532.65	24313.48
532.82	24329.87
532.99	24692.65
533.16	24858.83
533.33	24961.81
533.50	25048.41
533.67	24943.09
533.84	24645.84
534.01	24755.85
534.18	24720.74
534.35	24992.24
534.52	24669.25
534.69	25032.03
534.86	25209.91
535.03	24758.19
535.20	24945.43
535.37	25153.74
535.54	25525.88
535.71	24800.32
535.88	24774.57
536.05	25333.96
536.22	25469.71
536.38	25462.69
536.55	25411.20
536.72	25167.78
536.89	25167.78
537.06	25350.34
537.23	25331.62
537.40	25631.21
537.57	25488.43
537.74	25560.99
537.91	26043.14
538.08	26300.60
538.25	25537.59
538.42	25949.52
538.59	25818.45
538.75	25549.29
538.92	25867.60
539.09	26057.18
539.26	25979.95
539.43	26092.29
539.60	26178.89
539.77	26115.70
539.94	25678.02
540.11	26150.81
540.28	25984.63
540.44	26005.69
540.61	25968.24
540.78	26176.55
540.95	25975.27
541.12	26181.23
541.29	26096.97
541.46	26225.70
541.62	26036.12
541.79	26476.14
541.96	26160.17
542.13	26092.29
542.30	26225.70
542.47	26490.18
542.63	26607.21
542.80	26614.23
542.97	26803.82
543.14	26876.37
543.31	26801.47
543.48	27033.19
543.64	26881.05
543.81	27028.51
543.98	26817.86
544.15	27023.83
544.32	27365.54
544.48	26630.62
544.65	26925.52
544.82	27075.32
544.99	26698.49
545.16	27150.21
545.32	27016.80
545.49	27344.48
545.66	27147.87
545.83	27302.35
546.00	27161.92
546.16	26977.01
546.33	27372.57
546.50	26768.71
546.67	27569.17
546.83	26700.83
547.00	27337.46
547.17	27908.55
547.34	27534.06
547.50	27700.24
547.67	27562.15
547.84	27688.54
548.00	27501.29
548.17	27784.50
548.34	27587.89
548.51	27828.97
548.67	27608.96
548.84	27981.10
549.01	27630.02
549.18	27695.56
549.34	27704.92
549.51	27826.63
549.68	27693.22
549.84	27728.33
550.01	28088.77
550.18	27793.86
550.34	28100.47
550.51	28423.47
550.68	28343.89
550.84	27356.18
551.01	28409.42
551.18	28128.56
551.34	27697.90
551.51	28018.55
551.68	27903.87
551.84	28252.61
552.01	28107.49
552.18	28243.24
552.34	28034.94
552.51	28313.46
552.68	28591.98
552.84	28357.93
553.01	28645.82
553.18	28254.95
553.34	28086.43
553.51	28493.68
553.67	28692.63
553.84	28779.23
554.01	28652.84
554.17	28474.96
554.34	28662.20
554.51	28325.16
554.67	28685.61
554.84	28283.03
555.00	28386.02
555.17	28512.41
555.33	28828.38
555.50	28811.99
555.67	28687.95
555.83	28701.99
556.00	28779.23
556.16	29050.73
556.33	28767.52
556.50	28875.19
556.66	28870.51
556.83	28737.10
556.99	29455.64
557.16	29111.58
557.32	28950.09
557.49	29329.25
557.65	29010.94
557.82	28950.09
557.98	29191.16
558.15	28772.21
558.32	29415.85
558.48	29280.10
558.65	29329.25
558.81	29254.36
558.98	29523.52
559.14	29415.85
559.31	28975.83
559.47	29256.70
559.64	28975.83
559.80	29219.25
559.97	29551.60
560.13	29500.11
560.30	29469.69
560.46	29125.63
560.63	29474.37
560.79	29493.09
560.96	29708.42
561.12	29333.93
561.29	29214.57
561.45	29748.21
561.61	29631.18
561.78	29165.42
561.94	29612.46
562.11	29837.15
562.27	29626.50
562.44	29137.33
562.60	29219.25
562.77	28975.83
562.93	29373.72
563.10	30150.78
563.26	29537.56
563.42	29514.16
563.59	29647.57
563.75	29586.71
563.92	29790.34
564.08	29411.17
564.24	29369.04
564.41	29582.03
564.57	29287.12
564.74	29584.37
564.90	29993.97
565.07	29865.24
565.23	29776.30
565.39	29567.99
565.56	29982.26
565.72	29628.84
565.88	29467.34
566.05	29465.00
566.21	29558.63
566.38	30012.69
566.54	29788.00
566.70	29780.98
566.87	30302.92
567.03	30082.91
567.19	30096.95
567.36	29998.65
567.52	29979.92
567.68	30033.75
567.85	29940.13
568.01	29893.32
568.17	29551.60
568.34	30033.75
568.50	29977.58
568.66	29993.97
568.83	30171.85
568.99	30272.49
569.15	30078.22
569.32	29565.65
569.48	29839.49
569.64	29741.19
569.81	30242.06
569.97	29963.54
570.13	30221.00
570.30	29874.60
570.46	30270.15
570.62	30277.17
570.78	30033.75
570.95	30082.91
571.11	30073.54
571.27	29811.40
571.43	30221.00
571.60	30195.25
571.76	30443.35
571.92	30195.25
572.09	30022.05
572.25	30284.19
572.41	30263.13
572.57	30286.53
572.74	30541.65
572.90	29750.55
573.06	30092.27
573.22	29954.18
573.38	30087.59
573.55	30431.65
573.71	30520.59
573.87	30125.04
574.03	29921.41
574.20	30024.39
574.36	30340.36
574.52	30328.66
574.68	30110.99
574.84	30508.88
575.01	30281.85
575.17	30256.11
575.33	30218.66
575.49	30279.51
575.65	30314.62
575.82	30380.15
575.98	30071.20
576.14	30068.86
576.30	30361.43
576.46	30536.97
576.62	30223.34
576.79	30225.68
576.95	30384.83
577.11	30642.29
577.27	30574.42
577.43	30555.69
577.59	30768.68
577.75	30485.48
577.92	30342.70
578.08	29975.24
578.24	30197.59
578.40	30202.27
578.56	30321.64
578.72	30534.63
578.88	30712.51
579.04	30703.15
579.21	30106.31
579.37	30548.67
579.53	30295.89
579.69	29942.47
579.85	30174.19
580.01	30375.47
580.17	30293.55
580.33	30614.21
580.49	30555.69
580.65	30352.07
580.82	30536.97
580.98	30579.10
581.14	30588.46
581.30	30609.53
581.46	30417.60
581.62	29954.18
581.78	30483.14
581.94	30211.64
582.10	30433.99
582.26	29923.75
582.42	30218.66
582.58	30962.95
582.74	30579.10
582.90	30565.06
583.06	30740.60
583.22	30047.80
583.38	30672.72
583.54	30185.89
583.70	30396.54
583.86	30850.60
584.02	30691.44
584.18	30787.41
584.34	30815.49
584.50	30925.50
584.66	30347.39
584.82	30377.81
584.98	30279.51
585.14	30836.56
585.30	30852.94
585.46	30258.45
585.62	30448.03
585.78	30391.86
585.94	30380.15
586.10	30813.15
586.26	30450.37
586.42	31168.91
586.58	30740.60
586.74	30735.92
586.90	30721.87
587.06	30462.07
587.22	30654.00
587.38	30347.39
587.54	31058.91
587.70	30953.58
587.86	30817.83
588.02	30836.56
588.18	30705.49
588.34	30714.85
588.49	30876.35
588.65	30522.93
588.81	30534.63
588.97	30745.28
589.13	30696.13
589.29	30871.67
589.45	30625.91
589.61	30932.52
589.77	30874.01
589.93	30642.29
590.08	31274.24
590.24	30778.04
590.40	30897.41
590.56	30766.34
590.72	30986.35
590.88	31056.57
591.04	30937.20
591.20	30843.58
591.35	31281.26
591.51	31105.72
591.67	31299.98
591.83	31461.48
591.99	30773.36
