SpectraSuite Data File
++++++++++++++++++++++++++++++++++++
Date: Fri Oct 18 13:58:32 GMT-05:00 2013
User: bianchi
Dark Spectrum Present: No
Reference Spectrum Present: No
Number of Sampled Component Spectra: 1
Spectrometers: USB2+H05261
Integration Time (usec): 50000 (USB2+H05261)
Spectra Averaged: 1 (USB2+H05261)
Boxcar Smoothing: 0 (USB2+H05261)
Correct for Electrical Dark: No (USB2+H05261)
Strobe/Lamp Enabled: No (USB2+H05261)
Correct for Detector Non-linearity: No (USB2+H05261)
Correct for Stray Light: No (USB2+H05261)
Number of Pixels in Processed Spectrum: 2048
>>>>>Begin Processed Spectral Data<<<<<
365.73	0.00
365.92	0.00
366.12	0.00
366.32	0.00
366.52	0.00
366.72	0.00
366.91	0.00
367.11	0.00
367.31	0.00
367.51	0.00
367.70	0.00
367.90	0.00
368.10	0.00
368.30	0.00
368.49	0.00
368.69	0.00
368.89	0.00
369.09	0.00
369.28	0.00
369.48	0.00
369.68	0.00
369.87	0.00
370.07	0.00
370.27	2.34
370.47	0.00
370.66	131.07
370.86	126.39
371.06	170.86
371.25	154.48
371.45	51.49
371.65	147.45
371.84	91.28
372.04	145.11
372.24	147.45
372.44	161.50
372.63	234.05
372.83	191.92
373.03	210.65
373.22	299.59
373.42	189.58
373.62	201.29
373.81	217.67
374.01	196.60
374.21	222.35
374.40	301.93
374.60	217.67
374.79	264.48
374.99	198.95
375.19	269.16
375.38	198.95
375.58	234.05
375.78	273.84
375.97	278.52
376.17	313.63
376.37	173.20
376.56	234.05
376.76	198.95
376.95	287.89
377.15	290.23
377.35	313.63
377.54	337.04
377.74	308.95
377.93	220.01
378.13	217.67
378.33	313.63
378.52	269.16
378.72	210.65
378.91	215.33
379.11	238.73
379.31	299.59
379.50	360.44
379.70	311.29
379.89	182.56
380.09	283.20
380.28	271.50
380.48	320.65
380.68	276.18
380.87	273.84
381.07	294.91
381.26	280.86
381.46	346.40
381.65	290.23
381.85	376.83
382.04	318.31
382.24	346.40
382.43	325.33
382.63	332.36
382.83	283.20
383.02	322.99
383.22	369.80
383.41	355.76
383.61	330.02
383.80	395.55
384.00	325.33
384.19	318.31
384.39	437.68
384.58	360.44
384.78	313.63
384.97	409.59
385.17	367.46
385.36	456.40
385.56	369.80
385.75	379.17
385.95	425.98
386.14	444.70
386.34	341.72
386.53	444.70
386.72	447.04
386.92	395.55
387.11	409.59
387.31	351.08
387.50	388.53
387.70	433.00
387.89	482.15
388.09	444.70
388.28	390.87
388.48	437.68
388.67	395.55
388.86	451.72
389.06	433.00
389.25	437.68
389.45	477.47
389.64	428.32
389.84	500.87
390.03	477.47
390.22	418.96
390.42	465.77
390.61	386.19
390.81	458.74
391.00	425.98
391.19	423.64
391.39	528.96
391.58	458.74
391.78	517.26
391.97	456.40
392.16	528.96
392.36	512.58
392.55	491.51
392.75	472.79
392.94	592.16
393.13	512.58
393.33	564.07
393.52	559.39
393.71	545.34
393.91	519.60
394.10	573.43
394.29	622.58
394.49	608.54
394.68	601.52
394.88	550.03
395.07	603.86
395.26	627.26
395.46	615.56
395.65	688.12
395.84	624.92
396.04	730.25
396.23	615.56
396.42	603.86
396.62	688.12
396.81	620.24
397.00	671.73
397.19	599.18
397.39	585.13
397.58	648.33
397.77	695.14
397.97	688.12
398.16	648.33
398.35	697.48
398.55	763.01
398.74	671.73
398.93	702.16
399.12	655.35
399.32	695.14
399.51	697.48
399.70	711.52
399.90	678.76
400.09	720.88
400.28	793.44
400.47	720.88
400.67	812.17
400.86	746.63
401.05	767.70
401.24	739.61
401.44	791.10
401.63	805.14
401.82	784.08
402.01	866.00
402.21	823.87
402.40	833.23
402.59	884.72
402.78	851.96
402.97	807.48
403.17	849.61
403.36	772.38
403.55	919.83
403.74	844.93
403.93	917.49
404.13	835.57
404.32	908.13
404.51	908.13
404.70	945.58
404.89	908.13
405.09	929.19
405.28	945.58
405.47	936.21
405.66	940.90
405.85	978.34
406.05	926.85
406.24	994.73
406.43	922.17
406.62	1029.84
406.81	978.34
407.00	990.05
407.20	945.58
407.39	987.71
407.58	1039.20
407.77	1090.69
407.96	1116.44
408.15	1074.31
408.34	1013.45
408.54	1109.41
408.73	1001.75
408.92	966.64
409.11	1015.79
409.30	1121.12
409.49	1053.24
409.68	1069.62
409.87	1076.65
410.07	1139.84
410.26	1137.50
410.45	1177.29
410.64	1217.08
410.83	1228.78
411.02	1289.64
411.21	1329.42
411.40	1249.85
411.59	1240.48
411.78	1247.51
411.98	1259.21
412.17	1266.23
412.36	1247.51
412.55	1306.02
412.74	1350.49
412.93	1240.48
413.12	1334.11
413.31	1465.18
413.50	1404.32
413.69	1413.68
413.88	1423.05
414.07	1404.32
414.26	1446.45
414.45	1451.13
414.64	1495.60
414.83	1472.20
415.02	1500.28
415.22	1490.92
415.41	1540.07
415.60	1526.03
415.79	1556.46
415.98	1558.80
416.17	1638.38
416.36	1570.50
416.55	1577.52
416.74	1575.18
416.93	1563.48
417.12	1561.14
417.31	1626.67
417.50	1673.48
417.69	1706.25
417.88	1748.38
418.07	1629.01
418.26	1661.78
418.45	1783.49
418.64	1729.66
418.83	1788.17
419.02	1694.55
419.21	1830.30
419.39	1856.04
419.58	1771.79
419.77	1797.53
419.96	1865.41
420.15	1867.75
420.34	1806.89
420.53	1874.77
420.72	1930.94
420.91	1907.54
421.10	1741.36
421.29	1858.39
421.48	1902.86
421.67	2043.29
421.86	1881.79
422.05	1921.58
422.24	2024.56
422.43	1809.23
422.61	1912.22
422.80	2001.16
422.99	2038.61
423.18	2017.54
423.37	1975.41
423.56	2073.71
423.75	2092.44
423.94	1930.94
424.13	1949.67
424.32	1961.37
424.50	1940.30
424.69	2064.35
424.88	1998.82
425.07	2008.18
425.26	1968.39
425.45	2069.03
425.64	1991.80
425.83	1984.77
426.01	2038.61
426.20	1963.71
426.39	2111.16
426.58	2078.40
426.77	1966.05
426.96	2008.18
427.15	2129.89
427.33	2153.29
427.52	2101.80
427.71	2132.23
427.90	2183.72
428.09	2193.08
428.28	2221.17
428.46	2242.23
428.65	2143.93
428.84	2314.79
429.03	2211.81
429.22	2005.84
429.40	2218.83
429.59	2286.70
429.78	2282.02
429.97	2104.14
430.16	2214.15
430.34	2230.53
430.53	2249.25
430.72	2260.96
430.91	2298.41
431.10	2251.60
431.28	2321.81
431.47	2340.54
431.66	2443.52
431.85	2228.19
432.03	2363.94
432.22	2443.52
432.41	2459.90
432.60	2387.35
432.79	2450.54
432.97	2340.54
433.16	2438.84
433.35	2382.67
433.54	2438.84
433.72	2518.42
433.91	2457.56
434.10	2530.12
434.28	2567.57
434.47	2473.95
434.66	2569.91
434.85	2628.42
435.03	2469.27
435.22	2656.51
435.41	2768.85
435.59	2593.31
435.78	2614.38
435.97	2626.08
436.16	2623.74
436.34	2567.57
436.53	2691.62
436.72	2715.02
436.90	2672.89
437.09	2628.42
437.28	2656.51
437.46	2637.78
437.65	2761.83
437.84	2771.19
438.02	2766.51
438.21	2747.79
438.40	2682.25
438.58	2867.16
438.77	2773.53
438.96	2848.43
439.14	2843.75
439.33	2977.16
439.52	2937.37
439.70	2878.86
439.89	2939.71
440.08	2899.92
440.26	3045.04
440.45	3005.25
440.63	3056.74
440.82	3096.53
441.01	3033.33
441.19	3084.83
441.38	3206.53
441.57	3248.66
441.75	3159.72
441.94	3295.47
442.12	3157.38
442.31	3246.32
442.50	3349.31
442.68	3199.51
442.87	3187.81
443.05	3314.20
443.24	3361.01
443.43	3400.80
443.61	3471.01
443.80	3375.05
443.98	3363.35
444.17	3159.72
444.35	3304.84
444.54	3447.61
444.73	3611.45
444.91	3487.40
445.10	3485.06
445.28	3400.80
445.47	3318.88
445.65	3466.33
445.84	3473.36
446.02	3435.91
446.21	3435.91
446.39	3473.36
446.58	3428.88
446.77	3487.40
446.95	3515.48
447.14	3332.92
447.32	3585.70
447.51	3419.52
447.69	3506.12
447.88	3527.19
448.06	3583.36
448.25	3527.19
448.43	3442.93
448.62	3433.57
448.80	3534.21
448.99	3501.44
449.17	3524.85
449.36	3382.07
449.54	3588.04
449.73	3620.81
449.91	3609.11
450.10	3712.09
450.28	3728.47
450.46	3894.65
450.65	3784.65
450.83	3602.08
451.02	3833.80
451.20	3775.28
451.39	3751.88
451.57	3604.42
451.76	3595.06
451.94	3726.13
452.13	3758.90
452.31	3794.01
452.49	3611.45
452.68	3854.86
452.86	3768.26
453.05	3824.44
453.23	4025.72
453.42	3742.52
453.60	3728.47
453.78	3686.34
453.97	3763.58
454.15	3943.80
454.34	3904.01
454.52	3969.55
454.70	3957.85
454.89	3971.89
455.07	4114.66
455.26	3948.48
455.44	4046.79
455.62	3974.23
455.81	3995.29
455.99	4014.02
456.17	4095.94
456.36	4149.77
456.54	4086.58
456.73	4191.90
456.91	4194.24
457.09	4283.18
457.28	4215.30
457.46	4278.50
457.64	4292.54
457.83	4311.27
458.01	4224.67
458.19	4407.23
458.38	4318.29
458.56	4402.55
458.74	4376.80
458.93	4381.48
459.11	4285.52
459.29	4463.40
459.48	4381.48
459.66	4346.37
459.84	4461.06
460.03	4496.17
460.21	4641.28
460.39	4416.59
460.57	4582.77
460.76	4550.00
460.94	4491.49
461.12	4723.20
461.31	4571.07
461.49	4531.28
461.67	4706.82
461.85	4683.41
462.04	4655.33
462.22	4760.65
462.40	4716.18
462.59	4674.05
462.77	4688.09
462.95	4770.01
463.13	4730.22
463.32	4706.82
463.50	4732.56
463.68	4748.95
463.86	4805.12
464.05	4786.40
464.23	4690.43
464.41	4744.27
464.59	4734.90
464.78	4762.99
464.96	4748.95
465.14	4849.59
465.32	4793.42
465.50	4896.40
465.69	4910.44
465.87	4889.38
466.05	4905.76
466.23	4975.98
466.41	5046.20
466.60	5172.58
466.78	5085.98
466.96	4957.25
467.14	4968.96
467.32	4980.66
467.51	4997.04
467.69	5004.07
467.87	4952.57
468.05	5156.20
468.23	5043.85
468.41	5062.58
468.60	5076.62
468.78	5284.93
468.96	5139.82
469.14	5207.69
469.32	5394.93
469.50	5191.31
469.69	5453.45
469.87	5411.32
470.05	5437.06
470.23	5359.83
470.41	5270.89
470.59	5322.38
470.77	5439.40
470.95	5444.09
471.14	5455.79
471.32	5259.18
471.50	5584.52
471.68	5373.87
471.86	5533.03
472.04	5631.33
472.22	5703.89
472.40	5568.13
472.58	5863.04
472.77	5673.46
472.95	5834.96
473.13	5998.79
473.31	5820.91
473.49	5650.05
473.67	5664.10
473.85	5781.12
474.03	5870.06
474.21	5916.87
474.39	5937.94
474.57	6073.69
474.75	6232.85
474.93	6083.05
475.12	6080.71
475.30	6115.82
475.48	6183.70
475.66	6218.80
475.84	6204.76
476.02	6200.08
476.20	6146.25
476.38	6331.15
476.56	6466.90
476.74	6497.33
476.92	6258.59
477.10	6434.13
477.28	6590.95
477.46	6630.74
477.64	6499.67
477.82	6513.71
478.00	6829.68
478.18	6853.09
478.36	6867.13
478.54	6906.92
478.72	6977.14
478.90	6956.07
479.08	7192.47
479.26	7215.87
479.44	7122.25
479.62	7157.36
479.80	7197.15
479.98	7393.75
480.16	7382.05
480.34	7358.64
480.52	7389.07
480.70	7658.23
480.88	7473.33
481.06	7499.08
481.24	7653.55
481.41	7840.79
481.59	7854.84
481.77	7927.39
481.95	7962.50
482.13	8060.80
482.31	7962.50
482.49	8126.34
482.67	8177.83
482.85	8131.02
483.03	8376.78
483.21	8421.25
483.39	8580.40
483.57	8432.95
483.74	8638.92
483.92	8697.43
484.10	8582.74
484.28	8840.20
484.46	9090.64
484.64	9142.13
484.82	8788.71
485.00	8821.48
485.18	9184.26
485.35	9280.22
485.53	9287.25
485.71	9170.22
485.89	9521.30
486.07	9373.85
486.25	9654.71
486.43	9504.92
486.61	9724.93
486.78	9825.57
486.96	9813.87
487.14	9975.36
487.32	9975.36
487.50	10050.26
487.68	10125.16
487.85	10209.42
488.03	10214.10
488.21	10471.56
488.39	10429.43
488.57	10684.55
488.75	10487.94
488.92	10895.19
489.10	10637.73
489.28	10651.78
489.46	10860.09
489.64	10785.19
489.81	11075.42
489.99	11117.54
490.17	11187.76
490.35	11377.34
490.53	11267.34
490.70	11356.28
490.88	11440.54
491.06	11468.62
491.24	11501.39
491.41	11698.00
491.59	11698.00
491.77	11796.30
491.95	12135.68
492.13	11859.49
492.30	12067.80
492.48	12042.06
492.66	12159.08
492.84	12383.77
493.01	12381.43
493.19	12421.22
493.37	12666.98
493.54	12456.33
493.72	12549.95
493.90	12842.52
494.08	12786.35
494.25	13167.85
494.43	12982.95
494.61	13205.30
494.79	12968.91
494.96	13172.54
495.14	13151.47
495.32	13408.93
495.49	13266.16
495.67	13642.98
495.85	13577.45
496.02	13516.59
496.20	13886.40
496.38	13769.37
496.55	13715.54
496.73	14167.26
496.91	14019.81
497.09	14164.92
497.26	14267.91
497.44	13963.64
497.62	14019.81
497.79	14396.64
497.97	14373.23
498.14	14555.79
498.32	14913.89
498.50	14876.44
498.67	14773.46
498.85	14647.07
499.03	14789.85
499.20	14785.16
499.38	14913.89
499.56	15124.54
499.73	15222.84
499.91	15272.00
500.08	15225.18
500.26	14977.09
500.44	14984.11
500.61	15269.66
500.79	15229.87
500.97	15459.24
501.14	15592.65
501.32	15836.06
501.49	15693.29
501.67	15527.11
501.84	15676.91
502.02	15723.72
502.20	15896.92
502.37	16051.39
502.55	16002.24
502.72	16093.52
502.90	15922.66
503.07	15836.06
503.25	15988.20
503.43	15840.75
503.60	16418.86
503.78	16194.17
503.95	16037.35
504.13	16271.40
504.30	16496.10
504.48	16631.85
504.65	16460.99
504.83	16613.12
505.01	16849.52
505.18	16697.38
505.36	16746.53
505.53	16751.21
505.71	16762.92
505.88	16657.59
506.06	16688.02
506.23	16910.37
506.41	17076.55
506.58	17238.05
506.76	17415.93
506.93	17326.99
507.11	17195.92
507.28	17408.90
507.46	17481.46
507.63	17394.86
507.81	17528.27
507.98	17600.83
508.16	17785.73
508.33	17530.61
508.50	17467.42
508.68	17933.18
508.85	17968.29
509.03	17912.12
509.20	17888.71
509.38	18092.34
509.55	18120.43
509.73	18164.90
509.90	18080.64
510.08	18082.98
510.25	18195.32
510.42	18501.93
510.60	18391.93
510.77	18242.14
510.95	18239.79
511.12	18260.86
511.30	18537.04
511.47	18267.88
511.64	18565.13
511.82	18902.17
511.99	18902.17
512.17	18899.83
512.34	18897.49
512.51	19037.92
512.69	18923.23
512.86	18806.20
513.04	19068.34
513.21	18841.31
513.38	19243.88
513.56	19393.68
513.73	18984.09
513.90	19524.75
514.08	19573.90
514.25	19124.52
514.43	19286.01
514.60	19506.02
514.77	19452.19
514.95	19716.67
515.12	19630.07
515.29	19658.16
515.47	19756.46
515.64	19894.55
515.81	19978.81
515.99	20116.90
516.16	20210.53
516.33	20201.16
516.51	20187.12
516.68	20077.12
516.85	20257.34
517.03	20367.34
517.20	20329.89
517.37	20194.14
517.54	20168.40
517.72	20507.77
517.89	20156.69
518.06	20400.11
518.24	20568.63
518.41	20395.43
518.58	20676.29
518.75	20390.75
518.93	21041.42
519.10	20695.02
519.27	21200.57
519.45	20889.28
519.62	20566.29
519.79	20938.43
519.96	21034.39
520.14	20982.90
520.31	21319.94
520.48	21191.21
520.65	20954.82
520.83	21153.76
521.00	21247.38
521.17	20741.83
521.34	21266.11
521.52	21252.06
521.69	21216.96
521.86	21425.26
522.03	21425.26
522.20	21518.89
522.38	21610.17
522.55	21563.36
522.72	21502.50
522.89	21699.11
523.07	21549.31
523.24	21687.40
523.41	22094.66
523.58	21568.04
523.75	22036.14
523.92	21862.94
524.10	21771.66
524.27	21759.96
524.44	22258.49
524.61	22153.17
524.78	22148.49
524.96	21916.78
525.13	22244.45
525.30	22106.36
525.47	22452.76
525.64	22150.83
525.81	22843.63
525.98	22384.88
526.16	22705.54
526.33	22649.36
526.50	22735.96
526.67	22422.33
526.84	22504.25
527.01	22490.21
527.18	22689.15
527.36	23117.47
527.53	22787.46
527.70	22930.23
527.87	22918.53
528.04	22745.33
528.21	23047.26
528.38	22689.15
528.55	23330.46
528.72	22998.10
528.89	23051.94
529.07	23040.23
529.24	22742.99
529.41	23321.10
529.58	23388.97
529.75	23119.81
529.92	23105.77
530.09	23112.79
530.26	23295.35
530.43	23300.03
530.60	23047.26
530.77	23524.72
530.94	23491.96
531.11	23428.76
531.28	23498.98
531.46	23594.94
531.63	23421.74
531.80	23866.44
531.97	23931.98
532.14	23749.42
532.31	23552.81
532.48	23934.32
532.65	23976.45
532.82	23555.15
532.99	24147.31
533.16	23594.94
533.33	24133.26
533.50	24109.86
533.67	24215.18
533.84	24037.30
534.01	23662.82
534.18	24093.47
534.35	24357.96
534.52	24147.31
534.69	24229.23
534.86	24430.51
535.03	24177.73
535.20	24620.10
535.37	24449.24
535.54	24313.48
535.71	24224.54
535.88	24306.46
536.05	24360.30
536.22	24444.56
536.38	24730.10
536.55	24790.95
536.72	24606.05
536.89	24521.79
537.06	24690.31
537.23	25153.74
537.40	24496.05
537.57	24727.76
537.74	24858.83
537.91	25245.02
538.08	24882.24
538.25	24868.19
538.42	24746.48
538.59	24961.81
538.75	24816.70
538.92	24959.47
539.09	24943.09
539.26	25216.93
539.43	25343.32
539.60	25308.21
539.77	25020.33
539.94	25137.35
540.11	25366.73
540.28	24989.90
540.44	25003.94
540.61	25240.34
540.78	25348.00
540.95	25170.12
541.12	25071.82
541.29	25249.70
541.46	25303.53
541.62	25605.46
541.79	25680.36
541.96	25319.92
542.13	25366.73
542.30	25577.37
542.47	25874.62
542.63	25799.73
542.80	25671.00
542.97	26022.08
543.14	25860.58
543.31	25853.56
543.48	26045.48
543.64	26129.74
543.81	26085.27
543.98	26162.51
544.15	26008.03
544.32	26263.15
544.48	26321.66
544.65	25982.29
544.82	26141.44
544.99	25961.22
545.16	26300.60
545.32	26066.55
545.49	26647.00
545.66	26642.32
545.83	26494.86
546.00	26431.67
546.16	26368.48
546.33	26242.09
546.50	26122.72
546.67	26178.89
546.83	25993.99
547.00	26162.51
547.17	26536.99
547.34	26522.95
547.50	27056.59
547.67	26771.05
547.84	27103.40
548.00	26923.18
548.17	27063.61
548.34	26555.72
548.51	26822.54
548.67	27096.38
548.84	26843.60
549.01	26869.35
549.18	26843.60
549.34	26857.65
549.51	26469.12
549.68	26953.61
549.84	26611.89
550.01	26876.37
550.18	26838.92
550.34	27077.66
550.51	27042.55
550.68	26838.92
550.84	26920.84
551.01	27356.18
551.18	26986.38
551.34	26906.80
551.51	27140.85
551.68	27489.59
551.84	27297.67
552.01	26958.29
552.18	27424.06
552.34	27147.87
552.51	27173.62
552.68	26937.23
552.84	27498.95
553.01	27475.55
553.18	27470.87
553.34	27510.66
553.51	27454.48
553.67	27861.74
553.84	27765.78
554.01	27639.39
554.17	27711.94
554.34	27494.27
554.51	27786.84
554.67	27737.69
554.84	27697.90
555.00	28070.04
555.17	27672.15
555.33	27716.62
555.50	27777.48
555.67	27824.29
555.83	27686.20
556.00	27868.76
556.16	27955.36
556.33	27882.80
556.50	27503.64
556.66	27899.19
556.83	27964.72
556.99	27915.57
557.16	28048.98
557.32	27981.10
557.49	28205.80
557.65	27747.05
557.82	28034.94
557.98	27819.61
558.15	27927.27
558.32	28123.88
558.48	28006.85
558.65	28301.76
558.81	27826.63
558.98	28056.00
559.14	28135.58
559.31	28135.58
559.47	28088.77
559.64	28474.96
559.80	28496.02
559.97	28341.55
560.13	28151.96
560.30	28177.71
560.46	28407.08
560.63	28353.25
560.79	27988.13
560.96	28261.97
561.12	28386.02
561.29	28273.67
561.45	28638.80
561.61	28439.85
561.78	28793.27
561.94	28390.70
562.11	28772.21
562.27	28545.17
562.44	28318.14
562.60	28400.06
562.77	28683.27
562.93	28657.52
563.10	28739.44
563.26	28449.21
563.42	28800.29
563.59	28765.18
563.75	28634.11
563.92	28723.05
564.08	28336.87
564.24	28776.89
564.41	28664.54
564.57	28809.65
564.74	28606.03
564.90	28931.36
565.07	29071.79
565.23	28889.23
565.39	28423.47
565.56	28678.58
565.72	28584.96
565.88	28893.91
566.05	28786.25
566.21	28704.33
566.38	28816.68
566.54	28926.68
566.70	29106.90
566.87	29104.56
567.03	28807.31
567.19	29130.31
567.36	28959.45
567.52	28685.61
567.68	28833.06
567.85	28716.03
568.01	28893.91
568.17	28727.74
568.34	28786.25
568.50	29160.73
568.66	29029.66
568.83	29259.04
568.99	29041.37
569.15	28797.95
569.32	28746.46
569.48	28753.48
569.64	28851.78
569.81	28914.98
569.97	29305.85
570.13	29032.00
570.30	29109.24
570.46	29308.19
570.62	29074.13
570.78	29120.95
570.95	29095.20
571.11	29158.39
571.27	28940.72
571.43	29256.70
571.60	28875.19
571.76	29165.42
571.92	28936.04
572.09	29106.90
572.25	29336.27
572.41	29193.50
572.57	29064.77
572.74	29153.71
572.90	29010.94
573.06	29434.58
573.22	28931.36
573.38	29174.78
573.55	28961.79
573.71	29645.23
573.87	29106.90
574.03	29144.35
574.20	29153.71
574.36	29151.37
574.52	29191.16
574.68	29305.85
574.84	29610.12
575.01	29120.95
575.17	29041.37
575.33	29172.44
575.49	29013.28
575.65	29254.36
575.82	28971.15
575.98	29378.40
576.14	28987.53
576.30	29043.71
576.46	29008.60
576.62	29343.30
576.79	29434.58
576.95	29420.53
577.11	29277.76
577.27	29095.20
577.43	29612.46
577.59	29411.17
577.75	29244.99
577.92	29181.80
578.08	28950.09
578.24	29170.10
578.40	29137.33
578.56	29237.97
578.72	29336.27
578.88	29771.61
579.04	29729.48
579.21	29144.35
579.37	29502.45
579.53	29404.15
579.69	29474.37
579.85	29322.23
580.01	29102.22
580.17	29200.52
580.33	29106.90
580.49	29607.78
580.65	29214.57
580.82	29457.98
580.98	29343.30
581.14	29663.95
581.30	29610.12
581.46	29532.88
581.62	29743.53
581.78	29174.78
581.94	29376.06
582.10	29230.95
582.26	29287.12
582.42	29603.10
582.58	29750.55
582.74	29685.01
582.90	29617.14
583.06	29322.23
583.22	29546.92
583.38	29399.47
583.54	29542.24
583.70	29624.16
583.86	29364.36
584.02	29287.12
584.18	29460.32
584.34	29724.80
584.50	29614.80
584.66	29373.72
584.82	29378.40
584.98	29766.93
585.14	29802.04
585.30	29380.74
585.46	29692.04
585.62	29202.86
585.78	29399.47
585.94	29394.79
586.10	29186.48
586.26	29263.72
586.42	29441.60
586.58	29921.41
586.74	29642.88
586.90	29142.01
587.06	29137.33
587.22	29502.45
587.38	29359.68
587.54	29834.81
587.70	29493.09
587.86	29879.28
588.02	29743.53
588.18	29612.46
588.34	29319.89
588.49	29582.03
588.65	29521.18
588.81	29708.42
588.97	29317.55
589.13	29663.95
589.29	29291.80
589.45	29647.57
589.61	29317.55
589.77	29989.28
589.93	29720.12
590.08	29834.81
590.24	30052.48
590.40	29682.67
590.56	30005.67
590.72	29998.65
590.88	29689.70
591.04	29893.32
591.20	29947.15
591.35	29853.53
591.51	30375.47
591.67	29912.05
591.83	30092.27
591.99	29979.92
