SpectraSuite Data File
++++++++++++++++++++++++++++++++++++
Date: Fri Oct 18 13:58:32 GMT-05:00 2013
User: bianchi
Dark Spectrum Present: No
Reference Spectrum Present: No
Number of Sampled Component Spectra: 1
Spectrometers: USB2+H05261
Integration Time (usec): 50000 (USB2+H05261)
Spectra Averaged: 1 (USB2+H05261)
Boxcar Smoothing: 0 (USB2+H05261)
Correct for Electrical Dark: No (USB2+H05261)
Strobe/Lamp Enabled: No (USB2+H05261)
Correct for Detector Non-linearity: No (USB2+H05261)
Correct for Stray Light: No (USB2+H05261)
Number of Pixels in Processed Spectrum: 2048
>>>>>Begin Processed Spectral Data<<<<<
365.73	0.00
365.92	0.00
366.12	0.00
366.32	0.00
366.52	0.00
366.72	0.00
366.91	0.00
367.11	0.00
367.31	0.00
367.51	0.00
367.70	0.00
367.90	0.00
368.10	0.00
368.30	0.00
368.49	0.00
368.69	0.00
368.89	0.00
369.09	0.00
369.28	0.00
369.48	0.00
369.68	0.00
369.87	0.00
370.07	0.00
370.27	0.00
370.47	0.00
370.66	58.51
370.86	11.70
371.06	88.94
371.25	131.07
371.45	112.35
371.65	203.63
371.84	198.95
372.04	159.16
372.24	215.33
372.44	152.13
372.63	231.71
372.83	187.24
373.03	243.42
373.22	196.60
373.42	297.25
373.62	152.13
373.81	306.61
374.01	238.73
374.21	234.05
374.40	229.37
374.60	227.03
374.79	287.89
374.99	224.69
375.19	250.44
375.38	184.90
375.58	238.73
375.78	243.42
375.97	285.55
376.17	175.54
376.37	341.72
376.56	236.39
376.76	255.12
376.95	252.78
377.15	320.65
377.35	217.67
377.54	311.29
377.74	198.95
377.93	248.10
378.13	231.71
378.33	245.76
378.52	255.12
378.72	273.84
378.91	231.71
379.11	271.50
379.31	297.25
379.50	318.31
379.70	341.72
379.89	346.40
380.09	320.65
380.28	353.42
380.48	304.27
380.68	243.42
380.87	224.69
381.07	290.23
381.26	280.86
381.46	358.10
381.65	327.68
381.85	229.37
382.04	287.89
382.24	346.40
382.43	294.91
382.63	330.02
382.83	402.57
383.02	374.49
383.22	360.44
383.41	341.72
383.61	325.33
383.80	383.85
384.00	374.49
384.19	383.85
384.39	383.85
384.58	346.40
384.78	411.93
384.97	358.10
385.17	414.27
385.36	381.51
385.56	365.12
385.75	397.89
385.95	369.80
386.14	421.30
386.34	330.02
386.53	395.55
386.72	372.15
386.92	407.25
387.11	332.36
387.31	440.02
387.50	421.30
387.70	437.68
387.89	362.78
388.09	358.10
388.28	374.49
388.48	388.53
388.67	484.49
388.86	381.51
389.06	437.68
389.25	482.15
389.45	477.47
389.64	433.00
389.84	468.11
390.03	430.66
390.22	482.15
390.42	383.85
390.61	454.06
390.81	425.98
391.00	416.62
391.19	428.32
391.39	477.47
391.58	482.15
391.78	521.94
391.97	468.11
392.16	524.28
392.36	503.22
392.55	550.03
392.75	498.53
392.94	547.69
393.13	557.05
393.33	456.40
393.52	528.96
393.71	580.45
393.91	645.99
394.10	547.69
394.29	552.37
394.49	528.96
394.68	557.05
394.88	624.92
395.07	578.11
395.26	638.97
395.46	615.56
395.65	624.92
395.84	580.45
396.04	620.24
396.23	634.29
396.42	664.71
396.62	667.05
396.81	615.56
397.00	692.80
397.19	601.52
397.39	620.24
397.58	636.63
397.77	585.13
397.97	697.48
398.16	674.07
398.35	664.71
398.55	674.07
398.74	662.37
398.93	706.84
399.12	671.73
399.32	589.82
399.51	650.67
399.70	770.04
399.90	706.84
400.09	746.63
400.28	753.65
400.47	723.23
400.67	805.14
400.86	650.67
401.05	784.08
401.24	828.55
401.44	802.80
401.63	753.65
401.82	751.31
402.01	777.06
402.21	896.43
402.40	798.12
402.59	861.32
402.78	830.89
402.97	805.14
403.17	880.04
403.36	802.80
403.55	940.90
403.74	835.57
403.93	844.93
404.13	896.43
404.32	880.04
404.51	898.77
404.70	980.68
404.89	828.55
405.09	880.04
405.28	835.57
405.47	954.94
405.66	990.05
405.85	887.06
406.05	915.15
406.24	1055.58
406.43	987.71
406.62	1013.45
406.81	1025.15
407.00	947.92
407.20	966.64
407.39	983.02
407.58	1050.90
407.77	997.07
407.96	999.41
408.15	1029.84
408.34	978.34
408.54	1048.56
408.73	1111.75
408.92	1184.31
409.11	1097.71
409.30	1097.71
409.49	1107.07
409.68	1139.84
409.87	1116.44
410.07	1130.48
410.26	1219.42
410.45	1107.07
410.64	1270.91
410.83	1174.95
411.02	1203.04
411.21	1226.44
411.40	1273.25
411.59	1219.42
411.78	1196.01
411.98	1200.69
412.17	1289.64
412.36	1259.21
412.55	1387.94
412.74	1324.74
412.93	1355.17
413.12	1301.34
413.31	1416.02
413.50	1401.98
413.69	1392.62
413.88	1350.49
414.07	1376.24
414.26	1458.15
414.45	1474.54
414.64	1441.77
414.83	1458.15
415.02	1537.73
415.22	1430.07
415.41	1526.03
415.60	1563.48
415.79	1528.37
415.98	1547.09
416.17	1582.20
416.36	1612.63
416.55	1647.74
416.74	1692.21
416.93	1556.46
417.12	1629.01
417.31	1661.78
417.50	1647.74
417.69	1703.91
417.88	1701.57
418.07	1657.10
418.26	1689.87
418.45	1708.59
418.64	1846.68
418.83	1748.38
419.02	1778.81
419.21	1816.26
419.39	1802.21
419.58	1799.87
419.77	1732.00
419.96	1732.00
420.15	1872.43
420.34	1795.19
420.53	1820.94
420.72	1895.83
420.91	1926.26
421.10	1940.30
421.29	1959.03
421.48	1874.77
421.67	1930.94
421.86	1928.60
422.05	2083.08
422.24	1923.92
422.43	1966.05
422.61	1952.01
422.80	1928.60
422.99	2024.56
423.18	2059.67
423.37	1987.11
423.56	1886.47
423.75	1989.46
423.94	1863.07
424.13	1912.22
424.32	1767.10
424.50	2069.03
424.69	1989.46
424.88	2062.01
425.07	1970.73
425.26	2001.16
425.45	1989.46
425.64	1928.60
425.83	2003.50
426.01	1998.82
426.20	1888.81
426.39	1928.60
426.58	2097.12
426.77	2054.99
426.96	2064.35
427.15	2078.40
427.33	2080.74
427.52	2134.57
427.71	2200.10
427.90	2104.14
428.09	2174.36
428.28	2127.55
428.46	2172.02
428.65	2167.34
428.84	2225.85
429.03	2218.83
429.22	2071.37
429.40	2321.81
429.59	2242.23
429.78	2122.87
429.97	2242.23
430.16	2064.35
430.34	2249.25
430.53	2338.20
430.72	2420.11
430.91	2221.17
431.10	2310.11
431.28	2328.83
431.47	2375.64
431.66	2466.92
431.85	2417.77
432.03	2452.88
432.22	2455.22
432.41	2401.39
432.60	2408.41
432.79	2438.84
432.97	2530.12
433.16	2387.35
433.35	2445.86
433.54	2497.35
433.72	2401.39
433.91	2389.69
434.10	2434.16
434.28	2438.84
434.47	2450.54
434.66	2567.57
434.85	2595.65
435.03	2495.01
435.22	2544.16
435.41	2567.57
435.59	2576.93
435.78	2548.84
435.97	2637.78
436.16	2626.08
436.34	2698.64
436.53	2612.04
436.72	2635.44
436.90	2733.75
437.09	2715.02
437.28	2651.83
437.46	2799.28
437.65	2703.32
437.84	2693.96
438.02	2609.70
438.21	2813.32
438.40	2743.11
438.58	2902.26
438.77	2836.73
438.96	2820.35
439.14	2878.86
439.33	2895.24
439.52	3009.93
439.70	2916.31
439.89	2899.92
440.08	3002.91
440.26	3117.59
440.45	2995.89
440.63	3082.49
440.82	3030.99
441.01	3194.83
441.19	3187.81
441.38	3143.34
441.57	3225.26
441.75	3162.06
441.94	3192.49
442.12	3178.45
442.31	3197.17
442.50	3239.30
442.68	3251.00
442.87	3206.53
443.05	3403.14
443.24	3302.50
443.43	3382.07
443.61	3440.59
443.80	3421.86
443.98	3318.88
444.17	3222.92
444.35	3417.18
444.54	3363.35
444.73	3297.81
444.91	3307.18
445.10	3407.82
445.28	3461.65
445.47	3335.26
445.65	3396.12
445.84	3541.23
446.02	3358.67
446.21	3475.70
446.39	3578.68
446.58	3599.74
446.77	3377.39
446.95	3435.91
447.14	3541.23
447.32	3520.17
447.51	3368.03
447.69	3478.04
447.88	3459.31
448.06	3445.27
448.25	3520.17
448.43	3442.93
448.62	3365.69
448.80	3463.99
448.99	3557.61
449.17	3581.02
449.36	3520.17
449.54	3667.62
449.73	3653.58
449.91	3702.73
450.10	3564.64
450.28	3665.28
450.46	3641.87
450.65	3534.21
450.83	3770.60
451.02	3611.45
451.20	3590.38
451.39	3728.47
451.57	3712.09
451.76	3662.94
451.94	3794.01
452.13	3871.25
452.31	3756.56
452.49	3845.50
452.68	3791.67
452.86	3838.48
453.05	3864.22
453.23	3901.67
453.42	3854.86
453.60	3786.99
453.78	3922.74
453.97	3845.50
454.15	3878.27
454.34	3997.64
454.52	4077.21
454.70	4025.72
454.89	3901.67
455.07	3932.10
455.26	4025.72
455.44	4138.07
455.62	4079.55
455.81	4117.00
455.99	4098.28
456.17	4100.62
456.36	4147.43
456.54	4217.65
456.73	4142.75
456.91	4299.56
457.09	4353.40
457.28	4334.67
457.46	4194.24
457.64	4337.01
457.83	4273.82
458.01	4294.88
458.19	4493.83
458.38	4248.07
458.56	4365.10
458.74	4369.78
458.93	4255.09
459.11	4386.16
459.29	4400.21
459.48	4486.81
459.66	4519.57
459.84	4535.96
460.03	4444.68
460.21	4587.45
460.39	4358.08
460.57	4393.19
460.76	4545.32
460.94	4643.62
461.12	4528.94
461.31	4491.49
461.49	4512.55
461.67	4503.19
461.85	4720.86
462.04	4652.98
462.22	4779.37
462.40	4645.96
462.59	4755.97
462.77	4638.94
462.95	4685.75
463.13	4662.35
463.32	4657.67
463.50	4858.95
463.68	4774.69
463.86	4779.37
464.05	4741.93
464.23	4753.63
464.41	4983.00
464.59	4723.20
464.78	4903.42
464.96	4868.31
465.14	4875.34
465.32	4889.38
465.50	5029.81
465.69	4978.32
465.87	4987.68
466.05	4861.29
466.23	4968.96
466.41	4954.91
466.60	5200.67
466.78	4968.96
466.96	4873.00
467.14	5046.20
467.32	5062.58
467.51	5158.54
467.69	4950.23
467.87	5032.15
468.05	5114.07
468.23	5050.88
468.41	5165.56
468.60	5130.45
468.78	5153.86
468.96	5055.56
469.14	5184.29
469.32	5247.48
469.50	5095.35
469.69	5238.12
469.87	5462.81
470.05	5305.99
470.23	5385.57
470.41	5327.06
470.59	5533.03
470.77	5362.17
470.95	5537.71
471.14	5350.46
471.32	5317.70
471.50	5689.84
471.68	5486.22
471.86	5500.26
472.04	5671.12
472.22	5703.89
472.40	5640.69
472.58	5736.65
472.77	5593.88
472.95	5661.76
473.13	5944.96
473.31	5769.42
473.49	5809.21
473.67	5760.06
473.85	5832.62
474.03	5827.93
474.21	5912.19
474.39	5926.24
474.57	5982.41
474.75	6193.06
474.93	6115.82
475.12	6057.31
475.30	6033.90
475.48	6073.69
475.66	6221.14
475.84	6356.90
476.02	6244.55
476.20	6274.98
476.38	6408.39
476.56	6590.95
476.74	6307.74
476.92	6354.55
477.10	6520.73
477.28	6574.56
477.46	6656.48
477.64	6600.31
477.82	6771.17
478.00	6832.02
478.18	6897.56
478.36	6806.28
478.54	6932.67
478.72	7016.93
478.90	7042.67
479.08	7007.56
479.26	7131.61
479.44	7066.08
479.62	7183.10
479.80	7349.28
479.98	7246.30
480.16	7419.50
480.34	7442.90
480.52	7576.31
480.70	7534.18
480.88	7234.60
481.06	7449.93
481.24	7733.13
481.41	7709.72
481.59	7770.58
481.77	7878.24
481.95	8084.21
482.13	7864.20
482.31	8060.80
482.49	8077.19
482.67	8325.29
482.85	8327.63
483.03	8149.75
483.21	8449.33
483.39	8573.38
483.57	8451.67
483.74	8655.30
483.92	8702.11
484.10	8486.78
484.28	8762.97
484.46	8819.14
484.64	8924.46
484.82	8997.02
485.00	8910.42
485.18	9090.64
485.35	9427.68
485.53	9242.78
485.71	9245.12
485.89	9565.77
486.07	9179.58
486.25	9518.96
486.43	9420.66
486.61	9624.28
486.78	9680.46
486.96	9715.56
487.14	10005.79
487.32	9935.57
487.50	9928.55
487.68	10054.94
487.85	10171.97
488.03	10548.79
488.21	10384.96
488.39	10668.16
488.57	10630.71
488.75	10860.09
488.92	10654.12
489.10	10822.64
489.28	10651.78
489.46	11201.80
489.64	10787.53
489.81	11190.10
489.99	10991.16
490.17	11389.05
490.35	11398.41
490.53	11246.27
490.70	11541.18
490.88	11499.05
491.06	11646.51
491.24	11557.57
491.41	11716.72
491.59	11812.68
491.77	11737.79
491.95	11887.58
492.13	11974.18
492.30	12121.63
492.48	12231.64
492.66	11950.78
492.84	12123.98
493.01	12439.95
493.19	12535.91
493.37	12615.49
493.54	12704.43
493.72	12744.22
493.90	12638.89
494.08	12650.60
494.25	12849.54
494.43	12961.89
494.61	13228.71
494.79	13111.68
494.96	13277.86
495.14	13394.89
495.32	13277.86
495.49	13448.72
495.67	13514.25
495.85	13572.77
496.02	13514.25
496.20	13905.12
496.38	13703.84
496.55	13858.31
496.73	14260.88
496.91	13834.91
497.09	14017.47
497.26	14185.99
497.44	14019.81
497.62	14239.82
497.79	14576.86
497.97	14197.69
498.14	14789.85
498.32	14736.01
498.50	14700.90
498.67	14721.97
498.85	14590.90
499.03	14757.08
499.20	14754.74
499.38	14885.81
499.56	14850.70
499.73	15176.03
499.91	15211.14
500.08	15218.16
500.26	14949.00
500.44	15192.42
500.61	15250.93
500.79	15445.20
500.97	15541.16
501.14	15681.59
501.32	15386.68
501.49	15456.90
501.67	15246.25
501.84	15896.92
502.02	15730.74
502.20	15697.97
502.37	16060.76
502.55	16053.73
502.72	16020.97
502.90	16112.25
503.07	16065.44
503.25	16042.03
503.43	16037.35
503.60	16130.97
503.78	16418.86
503.95	16620.14
504.13	16292.47
504.30	16463.33
504.48	16236.30
504.65	16510.14
504.83	16741.85
505.01	16805.05
505.18	16940.80
505.36	16709.08
505.53	17053.14
505.71	16947.82
505.88	16952.50
506.06	16681.00
506.23	17233.36
506.41	16912.71
506.58	16982.93
506.76	16915.05
506.93	17226.34
507.11	17221.66
507.28	17284.86
507.46	17462.74
507.63	17369.12
507.81	17781.05
507.98	17415.93
508.16	17429.97
508.33	17607.85
508.50	17458.06
508.68	17713.17
508.85	17811.48
509.03	17905.10
509.20	18050.21
509.38	18068.94
509.55	18003.40
509.73	18068.94
509.90	18038.51
510.08	18235.11
510.25	18078.30
510.42	18272.56
510.60	18368.52
510.77	18525.34
510.95	18398.95
511.12	18171.92
511.30	18459.81
511.47	18906.85
511.64	18663.43
511.82	18941.96
511.99	18607.26
512.17	18995.79
512.34	18913.87
512.51	19033.24
512.69	18871.74
512.86	18838.97
513.04	19021.53
513.21	19103.45
513.38	19295.38
513.56	19358.57
513.73	19290.70
513.90	19433.47
514.08	19131.54
514.25	19468.58
514.43	19360.91
514.60	19667.52
514.77	19611.35
514.95	19632.41
515.12	19576.24
515.29	19487.30
515.47	19800.93
515.64	19829.02
515.81	20009.24
515.99	20128.61
516.16	19864.13
516.33	20067.75
516.51	20180.10
516.68	20023.28
516.85	20077.12
517.03	20135.63
517.20	20173.08
517.37	20301.81
517.54	20088.82
517.72	20271.38
517.89	20367.34
518.06	20379.04
518.24	20505.43
518.41	20395.43
518.58	20517.14
518.75	20556.93
518.93	20664.59
519.10	20606.08
519.27	20744.17
519.45	20622.46
519.62	20741.83
519.79	20854.17
519.96	20657.57
520.14	20985.24
520.31	20610.76
520.48	20938.43
520.65	21142.06
520.83	20835.45
521.00	21174.83
521.17	21355.05
521.34	21158.44
521.52	21390.16
521.69	21163.12
521.86	21724.85
522.03	21542.29
522.20	21603.14
522.38	21530.59
522.55	21551.65
522.72	21738.90
522.89	21692.08
523.07	21647.61
523.24	21783.37
523.41	21898.05
523.58	21422.92
523.75	21614.85
523.92	21741.24
524.10	21928.48
524.27	22115.72
524.44	21865.28
524.61	22239.77
524.78	22101.68
524.96	22085.30
525.13	22218.71
525.30	22307.65
525.47	22537.02
525.64	22398.93
525.81	22356.80
525.98	22583.83
526.16	22265.52
526.33	22522.98
526.50	22630.64
526.67	22368.50
526.84	22649.36
527.01	22686.81
527.18	22700.86
527.36	22967.68
527.53	22785.12
527.70	22970.02
527.87	22735.96
528.04	22934.91
528.21	22738.30
528.38	22911.50
528.55	23405.36
528.72	22937.25
528.89	22923.21
529.07	23260.24
529.24	23098.75
529.41	22939.59
529.58	22951.29
529.75	23061.30
529.92	23248.54
530.09	23161.94
530.26	23206.41
530.43	23290.67
530.60	23484.94
530.77	23225.14
530.94	23613.66
531.11	23407.70
531.28	23084.70
531.46	23187.69
531.63	23665.16
531.80	23466.21
531.97	23800.91
532.14	23761.12
532.31	23793.89
532.48	23852.40
532.65	23651.11
532.82	23536.43
532.99	23707.29
533.16	23929.64
533.33	24219.86
533.50	24264.33
533.67	24325.19
533.84	23941.34
534.01	23981.13
534.18	24018.58
534.35	24034.96
534.52	24088.79
534.69	24418.81
534.86	24411.79
535.03	24034.96
535.20	24175.39
535.37	24702.01
535.54	24238.59
535.71	24428.17
535.88	24355.61
536.05	24269.01
536.22	24484.34
536.38	24685.63
536.55	24676.27
536.72	24732.44
536.89	24610.73
537.06	24631.80
537.23	24496.05
537.40	24573.28
537.57	24727.76
537.74	24945.43
537.91	25230.98
538.08	25039.05
538.25	24711.38
538.42	24896.28
538.59	24996.92
538.75	24805.00
538.92	24802.66
539.09	25256.72
539.26	24823.72
539.43	25048.41
539.60	25261.40
539.77	25301.19
539.94	25811.43
540.11	25142.03
540.28	25151.40
540.44	25380.77
540.61	25216.93
540.78	25158.42
540.95	25207.57
541.12	25450.99
541.29	25338.64
541.46	25560.99
541.62	25256.72
541.79	25308.21
541.96	25069.48
542.13	25497.80
542.30	25549.29
542.47	25453.33
542.63	25766.96
542.80	25785.68
542.97	26185.91
543.14	25834.83
543.31	25825.47
543.48	25518.86
543.64	26359.11
543.81	26218.68
543.98	26328.69
544.15	26192.94
544.32	26370.82
544.48	26373.16
544.65	26354.43
544.82	26284.22
544.99	25879.30
545.16	26001.01
545.32	26129.74
545.49	26352.09
545.66	26632.96
545.83	26452.73
546.00	26525.29
546.16	26185.91
546.33	26359.11
546.50	26157.83
546.67	26157.83
546.83	26244.43
547.00	26143.78
547.17	26462.10
547.34	26469.12
547.50	26682.11
547.67	26438.69
547.84	26480.82
548.00	26450.39
548.17	27173.62
548.34	26705.51
548.51	27058.93
548.67	27056.59
548.84	26813.18
549.01	26895.10
549.18	26710.19
549.34	26946.59
549.51	26787.43
549.68	26888.07
549.84	26850.63
550.01	27105.74
550.18	26670.40
550.34	26642.32
550.51	27147.87
550.68	27054.25
550.84	26686.79
551.01	27019.14
551.18	26871.69
551.34	26962.97
551.51	27239.15
551.68	27108.08
551.84	27520.02
552.01	27047.23
552.18	27496.61
552.34	27145.53
552.51	27281.28
552.68	27487.25
552.84	27239.15
553.01	27264.90
553.18	27253.20
553.34	27623.00
553.51	27576.19
553.67	27611.30
553.84	27807.90
554.01	27669.81
554.17	27545.76
554.34	27339.80
554.51	27550.45
554.67	27693.22
554.84	27688.54
555.00	27459.16
555.17	27672.15
555.33	27910.89
555.50	27452.14
555.67	27669.81
555.83	27784.50
556.00	27658.11
556.16	27999.83
556.33	27370.22
556.50	28091.11
556.66	28053.66
556.83	27903.87
556.99	27931.95
557.16	28397.72
557.32	28362.61
557.49	28336.87
557.65	27805.56
557.82	27573.85
557.98	28009.19
558.15	28435.17
558.32	28414.10
558.48	27974.08
558.65	28252.61
558.81	28121.54
558.98	28100.47
559.14	27962.38
559.31	28133.24
559.47	28084.09
559.64	28222.18
559.80	28390.70
559.97	28364.95
560.13	28084.09
560.30	28189.41
560.46	28587.30
560.63	28453.89
560.79	28329.84
560.96	28386.02
561.12	28474.96
561.29	28119.20
561.45	28407.08
561.61	28343.89
561.78	28463.25
561.94	28453.89
562.11	28498.36
562.27	28348.57
562.44	28210.48
562.60	28531.13
562.77	28484.32
562.93	28325.16
563.10	28584.96
563.26	28517.09
563.42	28989.88
563.59	28769.86
563.75	28498.36
563.92	28608.37
564.08	28390.70
564.24	27934.29
564.41	28395.38
564.57	28505.38
564.74	28559.22
564.90	28491.34
565.07	28673.90
565.23	28753.48
565.39	28692.63
565.56	28613.05
565.72	28732.42
565.88	28737.10
566.05	28687.95
566.21	28624.75
566.38	28751.14
566.54	28790.93
566.70	29090.52
566.87	29160.73
567.03	28765.18
567.19	29153.71
567.36	28882.21
567.52	28926.68
567.68	28706.67
567.85	28732.42
568.01	29088.18
568.17	28687.95
568.34	29060.09
568.50	28980.51
568.66	28936.04
568.83	28823.70
568.99	28898.59
569.15	28760.50
569.32	28804.97
569.48	28898.59
569.64	29015.62
569.81	29120.95
569.97	28596.67
570.13	29062.43
570.30	28987.53
570.46	29053.07
570.62	29240.31
570.78	28992.22
570.95	28713.69
571.11	28800.29
571.27	29013.28
571.43	28793.27
571.60	28840.08
571.76	29064.77
571.92	29048.39
572.09	29235.63
572.25	29156.05
572.41	29099.88
572.57	29090.52
572.74	29280.10
572.90	28837.74
573.06	28980.51
573.22	29340.96
573.38	29369.04
573.55	29450.96
573.71	29359.68
573.87	29457.98
574.03	29488.41
574.20	29352.66
574.36	28893.91
574.52	29069.45
574.68	29219.25
574.84	29411.17
575.01	29392.45
575.17	29139.67
575.33	28945.41
575.49	29165.42
575.65	29401.81
575.82	29359.68
575.98	29252.02
576.14	29287.12
576.30	28989.88
576.46	29443.94
576.62	29200.52
576.79	29343.30
576.95	29212.23
577.11	29277.76
577.27	29521.18
577.43	29373.72
577.59	29483.73
577.75	29350.32
577.92	29397.13
578.08	29057.75
578.24	29221.59
578.40	29579.69
578.56	29343.30
578.72	29563.31
578.88	29392.45
579.04	29535.22
579.21	29413.51
579.37	29350.32
579.53	29532.88
579.69	29242.65
579.85	29228.61
580.01	29214.57
580.17	29390.11
580.33	29041.37
580.49	29273.08
580.65	29336.27
580.82	29343.30
580.98	29301.17
581.14	29483.73
581.30	29504.79
581.46	29319.89
581.62	29177.12
581.78	29139.67
581.94	29621.82
582.10	29240.31
582.26	29282.44
582.42	29289.46
582.58	29593.73
582.74	29773.95
582.90	29511.81
583.06	29546.92
583.22	29338.62
583.38	29467.34
583.54	29237.97
583.70	29460.32
583.86	29193.50
584.02	29558.63
584.18	29378.40
584.34	29610.12
584.50	29724.80
584.66	29263.72
584.82	29347.98
584.98	29893.32
585.14	29455.64
585.30	29202.86
585.46	29366.70
585.62	28971.15
585.78	28900.94
585.94	29649.91
586.10	29738.85
586.26	29465.00
586.42	29860.55
586.58	29682.67
586.74	29446.28
586.90	29247.33
587.06	29137.33
587.22	29261.38
587.38	29263.72
587.54	29907.37
587.70	29572.67
587.86	29427.56
588.02	29972.90
588.18	29820.77
588.34	29511.81
588.49	29750.55
588.65	29392.45
588.81	29387.77
588.97	29535.22
589.13	29589.05
589.29	29661.61
589.45	29692.04
589.61	29921.41
589.77	29624.16
589.93	29858.21
590.08	30089.93
590.24	29387.77
590.40	29940.13
590.56	29675.65
590.72	29656.93
590.88	29661.61
591.04	29556.28
591.20	29844.17
591.35	30251.42
591.51	29930.77
591.67	29853.53
591.83	29830.13
591.99	29773.95
