SpectraSuite Data File
++++++++++++++++++++++++++++++++++++
Date: Fri Oct 18 13:58:17 GMT-05:00 2013
User: bianchi
Dark Spectrum Present: No
Reference Spectrum Present: No
Number of Sampled Component Spectra: 1
Spectrometers: USB2+H05261
Integration Time (usec): 50000 (USB2+H05261)
Spectra Averaged: 1 (USB2+H05261)
Boxcar Smoothing: 0 (USB2+H05261)
Correct for Electrical Dark: No (USB2+H05261)
Strobe/Lamp Enabled: No (USB2+H05261)
Correct for Detector Non-linearity: No (USB2+H05261)
Correct for Stray Light: No (USB2+H05261)
Number of Pixels in Processed Spectrum: 2048
>>>>>Begin Processed Spectral Data<<<<<
365.73	0.00
365.92	0.00
366.12	0.00
366.32	0.00
366.52	0.00
366.72	0.00
366.91	0.00
367.11	0.00
367.31	0.00
367.51	0.00
367.70	0.00
367.90	0.00
368.10	0.00
368.30	0.00
368.49	0.00
368.69	0.00
368.89	0.00
369.09	0.00
369.28	0.00
369.48	0.00
369.68	0.00
369.87	0.00
370.07	0.00
370.27	0.00
370.47	39.79
370.66	110.01
370.86	77.24
371.06	35.11
371.25	42.13
371.45	126.39
371.65	166.18
371.84	159.16
372.04	107.66
372.24	159.16
372.44	205.97
372.63	222.35
372.83	273.84
373.03	191.92
373.22	201.29
373.42	152.13
373.62	177.88
373.81	217.67
374.01	215.33
374.21	248.10
374.40	250.44
374.60	227.03
374.79	252.78
374.99	210.65
375.19	205.97
375.38	234.05
375.58	229.37
375.78	327.68
375.97	264.48
376.17	290.23
376.37	308.95
376.56	241.08
376.76	212.99
376.95	205.97
377.15	248.10
377.35	325.33
377.54	308.95
377.74	229.37
377.93	278.52
378.13	252.78
378.33	234.05
378.52	180.22
378.72	285.55
378.91	341.72
379.11	318.31
379.31	304.27
379.50	182.56
379.70	257.46
379.89	318.31
380.09	315.97
380.28	187.24
380.48	266.82
380.68	325.33
380.87	290.23
381.07	325.33
381.26	330.02
381.46	322.99
381.65	301.93
381.85	269.16
382.04	294.91
382.24	297.25
382.43	341.72
382.63	365.12
382.83	299.59
383.02	334.70
383.22	425.98
383.41	332.36
383.61	390.87
383.80	322.99
384.00	301.93
384.19	404.91
384.39	402.57
384.58	416.62
384.78	395.55
384.97	369.80
385.17	425.98
385.36	287.89
385.56	451.72
385.75	447.04
385.95	283.20
386.14	395.55
386.34	416.62
386.53	341.72
386.72	416.62
386.92	365.12
387.11	463.43
387.31	409.59
387.50	348.74
387.70	437.68
387.89	454.06
388.09	451.72
388.28	435.34
388.48	468.11
388.67	545.34
388.86	390.87
389.06	475.13
389.25	498.53
389.45	447.04
389.64	456.40
389.84	409.59
390.03	430.66
390.22	475.13
390.42	404.91
390.61	514.92
390.81	470.45
391.00	428.32
391.19	545.34
391.39	535.98
391.58	552.37
391.78	482.15
391.97	454.06
392.16	493.85
392.36	531.30
392.55	477.47
392.75	566.41
392.94	575.77
393.13	561.73
393.33	566.41
393.52	533.64
393.71	627.26
393.91	533.64
394.10	587.47
394.29	580.45
394.49	648.33
394.68	510.24
394.88	559.39
395.07	575.77
395.26	580.45
395.46	587.47
395.65	702.16
395.84	645.99
396.04	683.44
396.23	676.41
396.42	571.09
396.62	622.58
396.81	718.54
397.00	674.07
397.19	634.29
397.39	643.65
397.58	627.26
397.77	664.71
397.97	704.50
398.16	690.46
398.35	674.07
398.55	592.16
398.74	690.46
398.93	772.38
399.12	704.50
399.32	671.73
399.51	678.76
399.70	695.14
399.90	690.46
400.09	678.76
400.28	692.80
400.47	697.48
400.67	727.91
400.86	763.01
401.05	755.99
401.24	748.97
401.44	851.96
401.63	868.34
401.82	802.80
402.01	741.95
402.21	875.36
402.40	816.85
402.59	823.87
402.78	819.19
402.97	847.27
403.17	863.66
403.36	858.98
403.55	868.34
403.74	844.93
403.93	863.66
404.13	915.15
404.32	917.49
404.51	917.49
404.70	910.47
404.89	854.30
405.09	987.71
405.28	882.38
405.47	912.81
405.66	1011.11
405.85	976.00
406.05	978.34
406.24	976.00
406.43	1032.18
406.62	1020.47
406.81	1055.58
407.00	1008.77
407.20	1020.47
407.39	1027.50
407.58	980.68
407.77	1121.12
407.96	1071.97
408.15	1111.75
408.34	1064.94
408.54	990.05
408.73	1135.16
408.92	1027.50
409.11	1104.73
409.30	1181.97
409.49	1095.37
409.68	1158.57
409.87	1193.67
410.07	1221.76
410.26	1144.52
410.45	1121.12
410.64	1153.88
410.83	1266.23
411.02	1128.14
411.21	1226.44
411.40	1245.16
411.59	1121.12
411.78	1247.51
411.98	1252.19
412.17	1308.36
412.36	1338.79
412.55	1310.70
412.74	1420.71
412.93	1345.81
413.12	1345.81
413.31	1441.77
413.50	1348.15
413.69	1275.59
413.88	1380.92
414.07	1448.79
414.26	1434.75
414.45	1467.52
414.64	1511.99
414.83	1537.73
415.02	1519.01
415.22	1479.22
415.41	1584.54
415.60	1589.22
415.79	1556.46
415.98	1610.29
416.17	1579.86
416.36	1540.07
416.55	1549.43
416.74	1638.38
416.93	1596.25
417.12	1572.84
417.31	1582.20
417.50	1638.38
417.69	1757.74
417.88	1715.61
418.07	1734.34
418.26	1715.61
418.45	1685.19
418.64	1902.86
418.83	1849.02
419.02	1795.19
419.21	1776.47
419.39	1886.47
419.58	1809.23
419.77	1732.00
419.96	1832.64
420.15	1825.62
420.34	1813.92
420.53	1975.41
420.72	1750.72
420.91	1956.69
421.10	1926.26
421.29	1935.62
421.48	1886.47
421.67	1996.48
421.86	2022.22
422.05	1952.01
422.24	1968.39
422.43	1966.05
422.61	2040.95
422.80	1940.30
422.99	1970.73
423.18	2059.67
423.37	1994.14
423.56	1989.46
423.75	2101.80
423.94	2076.06
424.13	1863.07
424.32	1827.96
424.50	2104.14
424.69	2057.33
424.88	2097.12
425.07	1884.13
425.26	1923.92
425.45	2019.88
425.64	1949.67
425.83	2090.10
426.01	2160.31
426.20	2122.87
426.39	2019.88
426.58	2080.74
426.77	2101.80
426.96	2085.42
427.15	2073.71
427.33	2066.69
427.52	2078.40
427.71	2174.36
427.90	1963.71
428.09	2146.27
428.28	2099.46
428.46	2132.23
428.65	2228.19
428.84	2211.81
429.03	2165.00
429.22	2169.68
429.40	2258.62
429.59	2279.68
429.78	2143.93
429.97	2200.10
430.16	2209.47
430.34	2244.57
430.53	2375.64
430.72	2211.81
430.91	2244.57
431.10	2260.96
431.28	2394.37
431.47	2335.85
431.66	2246.91
431.85	2380.32
432.03	2466.92
432.22	2434.16
432.41	2553.52
432.60	2328.83
432.79	2263.30
432.97	2480.97
433.16	2392.03
433.35	2427.14
433.54	2396.71
433.72	2462.24
433.91	2506.71
434.10	2476.29
434.28	2558.21
434.47	2579.27
434.66	2633.10
434.85	2586.29
435.03	2626.08
435.22	2605.02
435.41	2705.66
435.59	2567.57
435.78	2607.36
435.97	2523.10
436.16	2541.82
436.34	2635.44
436.53	2628.42
436.72	2679.91
436.90	2691.62
437.09	2775.88
437.28	2696.30
437.46	2794.60
437.65	2789.92
437.84	2792.26
438.02	2726.72
438.21	2827.37
438.40	2677.57
438.58	2815.66
438.77	2813.32
438.96	2949.08
439.14	2935.03
439.33	2923.33
439.52	2920.99
439.70	2935.03
439.89	2988.86
440.08	3073.12
440.26	3110.57
440.45	3054.40
440.63	3173.77
440.82	3173.77
441.01	3096.53
441.19	3061.42
441.38	3164.40
441.57	3279.09
441.75	3131.64
441.94	3279.09
442.12	3281.43
442.31	3295.47
442.50	3309.52
442.68	3346.97
442.87	3309.52
443.05	3426.54
443.24	3529.53
443.43	3379.73
443.61	3492.08
443.80	3510.80
443.98	3288.45
444.17	3183.13
444.35	3365.69
444.54	3346.97
444.73	3428.88
444.91	3431.23
445.10	3508.46
445.28	3487.40
445.47	3321.22
445.65	3356.33
445.84	3433.57
446.02	3482.72
446.21	3426.54
446.39	3440.59
446.58	3379.73
446.77	3583.36
446.95	3382.07
447.14	3499.10
447.32	3597.40
447.51	3566.98
447.69	3541.23
447.88	3468.67
448.06	3517.83
448.25	3428.88
448.43	3559.95
448.62	3595.06
448.80	3552.93
448.99	3499.10
449.17	3503.78
449.36	3595.06
449.54	3630.17
449.73	3660.60
449.91	3889.97
450.10	3630.17
450.28	3847.84
450.46	3857.20
450.65	3817.41
450.83	3812.73
451.02	3630.17
451.20	3723.79
451.39	3808.05
451.57	3838.48
451.76	3730.81
451.94	3779.97
452.13	3864.22
452.31	3843.16
452.49	3723.79
452.68	3957.85
452.86	3744.86
453.05	3953.16
453.23	4023.38
453.42	3779.97
453.60	3840.82
453.78	3906.35
453.97	3932.10
454.15	3737.84
454.34	3801.03
454.52	4100.62
454.70	4004.66
454.89	3946.14
455.07	3932.10
455.26	3990.61
455.44	4093.60
455.62	4077.21
455.81	4084.23
455.99	4152.11
456.17	4063.17
456.36	4196.58
456.54	4198.92
456.73	4234.03
456.91	4257.43
457.09	4229.35
457.28	4409.57
457.46	4259.78
457.64	4334.67
457.83	4308.93
458.01	4189.56
458.19	4594.47
458.38	4397.87
458.56	4451.70
458.74	4449.36
458.93	4304.25
459.11	4341.69
459.29	4507.87
459.48	4587.45
459.66	4458.72
459.84	4383.82
460.03	4510.21
460.21	4545.32
460.39	4540.64
460.57	4479.79
460.76	4608.51
460.94	4552.34
461.12	4690.43
461.31	4613.20
461.49	4716.18
461.67	4503.19
461.85	4786.40
462.04	4697.46
462.22	5074.28
462.40	4641.28
462.59	4772.35
462.77	4805.12
462.95	4833.21
463.13	4823.84
463.32	4746.61
463.50	4767.67
463.68	4835.55
463.86	4725.54
464.05	4758.31
464.23	4695.11
464.41	4830.87
464.59	4863.63
464.78	5130.45
464.96	4912.78
465.14	4873.00
465.32	4975.98
465.50	5001.72
465.69	5217.05
465.87	4908.10
466.05	4805.12
466.23	5071.94
466.41	4793.42
466.60	5144.50
466.78	5057.90
466.96	4952.57
467.14	5020.45
467.32	5025.13
467.51	5142.16
467.69	4873.00
467.87	5097.69
468.05	5179.61
468.23	5081.30
468.41	5078.96
468.60	5179.61
468.78	5242.80
468.96	5200.67
469.14	5221.74
469.32	5305.99
469.50	5137.48
469.69	5343.44
469.87	5373.87
470.05	5394.93
470.23	5359.83
470.41	5547.07
470.59	5303.65
470.77	5535.37
470.95	5399.62
471.14	5654.73
471.32	5596.22
471.50	5621.97
471.68	5544.73
471.86	5631.33
472.04	5490.90
472.22	5591.54
472.40	5544.73
472.58	5600.90
472.77	5750.70
472.95	5696.86
473.13	5966.03
473.31	5893.47
473.49	5617.29
473.67	5865.38
473.85	5961.34
474.03	5902.83
474.21	5994.11
474.39	5919.21
474.57	6047.94
474.75	6291.36
474.93	6239.87
475.12	6064.33
475.30	6216.46
475.48	6225.82
475.66	6127.52
475.84	6298.38
476.02	6415.41
476.20	6230.51
476.38	6314.77
476.56	6490.31
476.74	6555.84
476.92	6459.88
477.10	6527.75
477.28	6740.74
477.46	6682.23
477.64	6696.27
477.82	6738.40
478.00	6981.82
478.18	6775.85
478.36	7002.88
478.54	7213.53
478.72	6986.50
478.90	7138.63
479.08	7206.51
479.26	7302.47
479.44	7304.81
479.62	7143.32
479.80	7164.38
479.98	7410.14
480.16	7447.58
480.34	7545.89
480.52	7660.57
480.70	7733.13
480.88	7714.41
481.06	7826.75
481.24	7758.88
481.41	7756.54
481.59	7737.81
481.77	7976.55
481.95	7894.63
482.13	8177.83
482.31	8255.07
482.49	8182.51
482.67	8219.96
482.85	8290.18
483.03	8542.96
483.21	8388.48
483.39	8620.19
483.57	8671.68
483.74	8723.18
483.92	8723.18
484.10	8861.27
484.28	8903.40
484.46	9174.90
484.64	9163.20
484.82	9048.51
485.00	9181.92
485.18	9537.68
485.35	9439.38
485.53	9181.92
485.71	9338.74
485.89	9383.21
486.07	9483.85
486.25	9657.05
486.43	9549.39
486.61	9668.75
486.78	9710.88
486.96	10066.64
487.14	10057.28
487.32	9930.89
487.50	10176.65
487.68	10260.91
487.85	10384.96
488.03	10293.68
488.21	10682.20
488.39	10569.86
488.57	10583.90
488.75	10511.35
488.92	10864.77
489.10	11019.24
489.28	10934.98
489.46	11143.29
489.64	11140.95
489.81	11358.62
489.99	11239.25
490.17	11243.93
490.35	11311.81
490.53	11515.44
490.70	11723.74
490.88	11414.79
491.06	11749.49
491.24	11726.08
491.41	11735.45
491.59	12013.97
491.77	11707.36
491.95	11941.41
492.13	12175.47
492.30	12348.67
492.48	12400.16
492.66	12217.60
492.84	12409.52
493.01	12585.06
493.19	12329.94
493.37	12683.36
493.54	12652.94
493.72	12795.71
493.90	12800.39
494.08	13013.38
494.25	12903.37
494.43	13364.46
494.61	13317.65
494.79	13589.15
494.96	13554.04
495.14	13245.09
495.32	13666.39
495.49	13605.53
495.67	13429.99
495.85	13841.93
496.02	13687.45
496.20	13834.91
496.38	14045.55
496.55	13762.35
496.73	14267.91
496.91	14143.86
497.09	14148.54
497.26	14326.42
497.44	14492.60
497.62	14560.47
497.79	14497.28
497.97	14665.80
498.14	14813.25
498.32	14916.23
498.50	14874.10
498.67	14799.21
498.85	14876.44
499.03	14565.15
499.20	15059.01
499.38	14930.28
499.56	15044.96
499.73	15218.16
499.91	15129.22
500.08	15447.54
500.26	15225.18
500.44	15112.84
500.61	15536.48
500.79	15346.89
500.97	15477.96
501.14	15815.00
501.32	15800.96
501.49	15784.57
501.67	15782.23
501.84	15866.49
502.02	15712.02
502.20	15943.73
502.37	16294.81
502.55	16423.54
502.72	16325.24
502.90	16365.03
503.07	16016.29
503.25	16350.98
503.43	16332.26
503.60	16681.00
503.78	16732.49
503.95	16575.67
504.13	16645.89
504.30	16552.27
504.48	16732.49
504.65	16739.51
504.83	16872.92
505.01	17200.60
505.18	16938.46
505.36	17064.85
505.53	16872.92
505.71	16975.91
505.88	17102.29
506.06	16844.84
506.23	17060.16
506.41	17062.51
506.58	17289.54
506.76	17645.30
506.93	17312.94
507.11	17420.61
507.28	17373.80
507.46	17736.58
507.63	17685.09
507.81	17830.20
507.98	17769.35
508.16	17624.23
508.33	17703.81
508.50	18003.40
508.68	17961.27
508.85	18160.22
509.03	17977.65
509.20	18324.05
509.38	18370.86
509.55	18277.24
509.73	18328.74
509.90	18412.99
510.08	18518.32
510.25	18565.13
510.42	18537.04
510.60	18668.11
510.77	18665.77
510.95	18892.80
511.12	18497.25
511.30	18593.22
511.47	19126.86
511.64	18668.11
511.82	19023.87
511.99	19061.32
512.17	18920.89
512.34	19000.47
512.51	19168.99
512.69	19145.58
512.86	19243.88
513.04	19522.41
513.21	19360.91
513.38	19536.45
513.56	19461.55
513.73	19428.79
513.90	19777.53
514.08	19269.63
514.25	19569.22
514.43	19662.84
514.60	19838.38
514.77	19939.02
514.95	20231.59
515.12	19995.20
515.29	19681.56
515.47	19730.72
515.64	20081.80
515.81	20180.10
515.99	20051.37
516.16	20386.07
516.33	20049.03
516.51	20299.47
516.68	20226.91
516.85	20475.01
517.03	20306.49
517.20	20285.42
517.37	20339.26
517.54	20493.73
517.72	20507.77
517.89	20638.84
518.06	20690.34
518.24	20542.88
518.41	20673.95
518.58	20573.31
518.75	20870.56
518.93	21113.97
519.10	20945.45
519.27	20971.20
519.45	20954.82
519.62	21170.15
519.79	21343.35
519.96	21202.91
520.14	21060.14
520.31	20802.68
520.48	21287.17
520.65	21067.16
520.83	21565.70
521.00	21163.12
521.17	21811.45
521.34	21380.79
521.52	21205.25
521.69	21783.37
521.86	21570.38
522.03	21729.53
522.20	21905.07
522.38	21596.12
522.55	21638.25
522.72	21977.63
522.89	21865.28
523.07	22286.58
523.24	21689.74
523.41	22188.28
523.58	22118.06
523.75	21743.58
523.92	22122.74
524.10	22214.02
524.27	22104.02
524.44	21944.86
524.61	22565.10
524.78	22319.35
524.96	22595.53
525.13	22104.02
525.30	22890.44
525.47	22483.19
525.64	22630.64
525.81	22665.75
525.98	22675.11
526.16	22787.46
526.33	22642.34
526.50	23061.30
526.67	22487.87
526.84	22548.72
527.01	22618.94
527.18	22700.86
527.36	23009.81
527.53	23119.81
527.70	22970.02
527.87	23190.03
528.04	23527.06
528.21	23211.09
528.38	23183.01
528.55	23318.76
528.72	23264.92
528.89	23447.49
529.07	23772.82
529.24	23255.56
529.41	23730.69
529.58	23243.86
529.75	23337.48
529.92	23580.90
530.09	23498.98
530.26	23398.34
530.43	23601.96
530.60	23625.37
530.77	23494.30
530.94	23667.50
531.11	23758.78
531.28	23487.28
531.46	23922.62
531.63	23702.61
531.80	24247.95
531.97	24147.31
532.14	24034.96
532.31	23988.15
532.48	23988.15
532.65	24390.72
532.82	23672.18
532.99	23927.30
533.16	24236.25
533.33	24374.34
533.50	24671.59
533.67	24655.20
533.84	24287.74
534.01	24184.76
534.18	24306.46
534.35	24587.33
534.52	24360.30
534.69	24489.03
534.86	24748.82
535.03	24393.06
535.20	24425.83
535.37	24505.41
535.54	24451.58
535.71	24414.13
535.88	24676.27
536.05	24797.98
536.22	24868.19
536.38	25350.34
536.55	24896.28
536.72	25277.79
536.89	24573.28
537.06	24851.81
537.23	25315.23
537.40	24786.27
537.57	24926.71
537.74	25046.07
537.91	25104.59
538.08	25495.46
538.25	25357.36
538.42	25167.78
538.59	25448.64
538.75	24870.53
538.92	25642.91
539.09	25289.49
539.26	25333.96
539.43	25619.50
539.60	25673.34
539.77	25528.22
539.94	25722.49
540.11	25748.23
540.28	25734.19
540.44	25869.94
540.61	25425.24
540.78	25549.29
540.95	25736.53
541.12	25589.08
541.29	25490.77
541.46	25551.63
541.62	25865.26
541.79	26043.14
541.96	25364.39
542.13	25593.76
542.30	25888.67
542.47	26307.62
542.63	25888.67
542.80	25811.43
542.97	26288.90
543.14	26190.59
543.31	26162.51
543.48	26174.21
543.64	26616.57
543.81	26352.09
543.98	26307.62
544.15	26700.83
544.32	26855.31
544.48	26747.64
544.65	26647.00
544.82	26604.87
544.99	26567.42
545.16	26761.69
545.32	26452.73
545.49	26789.77
545.66	26899.78
545.83	26658.70
546.00	26810.84
546.16	26916.16
546.33	26244.43
546.50	26518.27
546.67	26845.94
546.83	26817.86
547.00	26607.21
547.17	27292.99
547.34	27190.00
547.50	26897.44
547.67	27234.47
547.84	26815.52
548.00	27257.88
548.17	26953.61
548.34	27246.18
548.51	27030.85
548.67	27391.29
548.84	27456.82
549.01	26995.74
549.18	27618.32
549.34	26953.61
549.51	27384.27
549.68	27580.87
549.84	27241.50
550.01	27133.83
550.18	27300.01
550.34	27417.04
550.51	27594.92
550.68	27592.58
550.84	27292.99
551.01	27718.96
551.18	27655.77
551.34	27138.51
551.51	27283.62
551.68	27765.78
551.84	27793.86
552.01	27318.73
552.18	27510.66
552.34	27768.12
552.51	27709.60
552.68	27707.26
552.84	27686.20
553.01	27913.23
553.18	27805.56
553.34	27889.82
553.51	27625.34
553.67	28067.70
553.84	28112.17
554.01	27990.47
554.17	27796.20
554.34	27917.91
554.51	27756.41
554.67	28072.39
554.84	28121.54
555.00	28091.11
555.17	27964.72
555.33	28222.18
555.50	28425.81
555.67	28154.30
555.83	28189.41
556.00	28098.13
556.16	28149.62
556.33	28250.27
556.50	28524.11
556.66	28301.76
556.83	28264.31
556.99	28364.95
557.16	28334.53
557.32	28226.86
557.49	28421.13
557.65	28011.53
557.82	28198.77
557.98	28624.75
558.15	28489.00
558.32	28577.94
558.48	28603.69
558.65	28723.05
558.81	28474.96
558.98	28620.07
559.14	28547.51
559.31	28701.99
559.47	28458.57
559.64	28531.13
559.80	28826.04
559.97	28931.36
560.13	28797.95
560.30	28699.65
560.46	28896.25
560.63	28978.17
560.79	28404.74
560.96	28694.97
561.12	28811.99
561.29	28491.34
561.45	29034.35
561.61	28823.70
561.78	28952.43
561.94	29055.41
562.11	29228.61
562.27	28730.08
562.44	28940.72
562.60	28678.58
562.77	28709.01
562.93	28746.46
563.10	28966.47
563.26	28713.69
563.42	29350.32
563.59	29287.12
563.75	29120.95
563.92	28924.34
564.08	29074.13
564.24	29003.92
564.41	29046.05
564.57	28788.59
564.74	29205.20
564.90	28961.79
565.07	29186.48
565.23	29469.69
565.39	29039.03
565.56	29619.48
565.72	29266.06
565.88	29252.02
566.05	29333.93
566.21	29223.93
566.38	29340.96
566.54	29062.43
566.70	29336.27
566.87	29233.29
567.03	29177.12
567.19	29795.02
567.36	29050.73
567.52	29228.61
567.68	29598.41
567.85	29305.85
568.01	29411.17
568.17	29165.42
568.34	29355.00
568.50	29324.57
568.66	29287.12
568.83	29439.26
568.99	29516.50
569.15	29443.94
569.32	29343.30
569.48	29202.86
569.64	29240.31
569.81	29502.45
569.97	29788.00
570.13	29617.14
570.30	29373.72
570.46	29743.53
570.62	29633.52
570.78	29256.70
570.95	29504.79
571.11	29465.00
571.27	29256.70
571.43	29462.66
571.60	29287.12
571.76	29319.89
571.92	29670.97
572.09	29682.67
572.25	29759.91
572.41	29249.67
572.57	29507.13
572.74	29640.54
572.90	29474.37
573.06	29411.17
573.22	29481.39
573.38	29593.73
573.55	29591.39
573.71	29841.83
573.87	29544.58
574.03	29743.53
574.20	29832.47
574.36	29490.75
574.52	29689.70
574.68	29598.41
574.84	29731.83
575.01	29607.78
575.17	29692.04
575.33	29563.31
575.49	29553.94
575.65	29582.03
575.82	29799.70
575.98	30160.14
576.14	29635.86
576.30	29748.21
576.46	29551.60
576.62	29317.55
576.79	29429.90
576.95	29355.00
577.11	29645.23
577.27	29951.84
577.43	29881.62
577.59	29944.81
577.75	29612.46
577.92	29813.74
578.08	29914.39
578.24	29694.38
578.40	29717.78
578.56	29776.30
578.72	29589.05
578.88	30075.88
579.04	29907.37
579.21	29933.11
579.37	30050.14
579.53	29986.94
579.69	29612.46
579.85	29991.62
580.01	29415.85
580.17	29584.37
580.33	29411.17
580.49	29743.53
580.65	30401.22
580.82	30064.18
580.98	29823.11
581.14	30139.08
581.30	30047.80
581.46	29752.89
581.62	29731.83
581.78	29687.36
581.94	29757.57
582.10	29546.92
582.26	29841.83
582.42	30211.64
582.58	30040.78
582.74	29825.45
582.90	29734.17
583.06	29699.06
583.22	30012.69
583.38	29813.74
583.54	29537.56
583.70	30017.37
583.86	30071.20
584.02	29879.28
584.18	29907.37
584.34	30171.85
584.50	30132.06
584.66	30008.01
584.82	29928.43
584.98	29907.37
585.14	29802.04
585.30	29635.86
585.46	29729.48
585.62	29984.60
585.78	30082.91
585.94	29692.04
586.10	29937.79
586.26	29797.36
586.42	30141.42
586.58	29919.07
586.74	29869.92
586.90	29673.31
587.06	29572.67
587.22	29818.42
587.38	30017.37
587.54	30129.72
587.70	30511.22
587.86	30012.69
588.02	30146.10
588.18	30190.57
588.34	30113.33
588.49	30192.91
588.65	29773.95
588.81	30022.05
588.97	30206.95
589.13	30148.44
589.29	30169.51
589.45	30162.48
589.61	30146.10
589.77	30195.25
589.93	30094.61
590.08	30490.16
590.24	30494.84
590.40	30211.64
590.56	30291.21
590.72	30333.34
590.88	30244.40
591.04	30382.49
591.20	30581.44
591.35	30469.09
591.51	30565.06
591.67	30497.18
591.83	30710.17
591.99	30609.53
