SpectraSuite Data File
++++++++++++++++++++++++++++++++++++
Date: Fri Oct 18 13:58:41 GMT-05:00 2013
User: bianchi
Dark Spectrum Present: No
Reference Spectrum Present: No
Number of Sampled Component Spectra: 1
Spectrometers: USB2+H05261
Integration Time (usec): 50000 (USB2+H05261)
Spectra Averaged: 1 (USB2+H05261)
Boxcar Smoothing: 0 (USB2+H05261)
Correct for Electrical Dark: No (USB2+H05261)
Strobe/Lamp Enabled: No (USB2+H05261)
Correct for Detector Non-linearity: No (USB2+H05261)
Correct for Stray Light: No (USB2+H05261)
Number of Pixels in Processed Spectrum: 2048
>>>>>Begin Processed Spectral Data<<<<<
365.73	0.00
365.92	0.00
366.12	0.00
366.32	0.00
366.52	0.00
366.72	0.00
366.91	0.00
367.11	0.00
367.31	0.00
367.51	0.00
367.70	0.00
367.90	0.00
368.10	0.00
368.30	0.00
368.49	0.00
368.69	0.00
368.89	0.00
369.09	0.00
369.28	0.00
369.48	0.00
369.68	0.00
369.87	0.00
370.07	0.00
370.27	0.00
370.47	0.00
370.66	81.92
370.86	65.54
371.06	161.50
371.25	93.62
371.45	147.45
371.65	175.54
371.84	191.92
372.04	184.90
372.24	208.31
372.44	187.24
372.63	205.97
372.83	255.12
373.03	198.95
373.22	259.80
373.42	205.97
373.62	194.26
373.81	236.39
374.01	238.73
374.21	229.37
374.40	163.84
374.60	290.23
374.79	259.80
374.99	208.31
375.19	210.65
375.38	198.95
375.58	184.90
375.78	236.39
375.97	283.20
376.17	278.52
376.37	212.99
376.56	224.69
376.76	325.33
376.95	292.57
377.15	266.82
377.35	243.42
377.54	189.58
377.74	278.52
377.93	276.18
378.13	273.84
378.33	346.40
378.52	315.97
378.72	262.14
378.91	269.16
379.11	301.93
379.31	252.78
379.50	222.35
379.70	264.48
379.89	285.55
380.09	269.16
380.28	250.44
380.48	294.91
380.68	355.76
380.87	292.57
381.07	381.51
381.26	294.91
381.46	428.32
381.65	299.59
381.85	322.99
382.04	355.76
382.24	313.63
382.43	245.76
382.63	379.17
382.83	360.44
383.02	383.85
383.22	322.99
383.41	294.91
383.61	325.33
383.80	369.80
384.00	334.70
384.19	362.78
384.39	344.06
384.58	318.31
384.78	334.70
384.97	404.91
385.17	383.85
385.36	341.72
385.56	341.72
385.75	339.38
385.95	393.21
386.14	315.97
386.34	437.68
386.53	339.38
386.72	433.00
386.92	461.09
387.11	449.38
387.31	390.87
387.50	437.68
387.70	428.32
387.89	414.27
388.09	458.74
388.28	416.62
388.48	489.17
388.67	458.74
388.86	414.27
389.06	463.43
389.25	444.70
389.45	454.06
389.64	444.70
389.84	608.54
390.03	386.19
390.22	533.64
390.42	500.87
390.61	484.49
390.81	493.85
391.00	442.36
391.19	524.28
391.39	533.64
391.58	507.90
391.78	496.19
391.97	528.96
392.16	493.85
392.36	507.90
392.55	550.03
392.75	526.62
392.94	526.62
393.13	543.00
393.33	573.43
393.52	564.07
393.71	521.94
393.91	552.37
394.10	550.03
394.29	578.11
394.49	564.07
394.68	613.22
394.88	538.32
395.07	557.05
395.26	608.54
395.46	601.52
395.65	617.90
395.84	671.73
396.04	617.90
396.23	610.88
396.42	608.54
396.62	702.16
396.81	746.63
397.00	685.78
397.19	664.71
397.39	627.26
397.58	575.77
397.77	669.39
397.97	578.11
398.16	655.35
398.35	688.12
398.55	678.76
398.74	765.36
398.93	772.38
399.12	690.46
399.32	695.14
399.51	629.60
399.70	758.33
399.90	748.97
400.09	741.95
400.28	727.91
400.47	779.40
400.67	791.10
400.86	739.61
401.05	732.59
401.24	788.76
401.44	753.65
401.63	884.72
401.82	816.85
402.01	760.67
402.21	884.72
402.40	704.50
402.59	856.64
402.78	870.68
402.97	826.21
403.17	835.57
403.36	812.17
403.55	882.38
403.74	858.98
403.93	880.04
404.13	868.34
404.32	868.34
404.51	922.17
404.70	947.92
404.89	844.93
405.09	936.21
405.28	887.06
405.47	929.19
405.66	933.87
405.85	924.51
406.05	931.53
406.24	973.66
406.43	990.05
406.62	1011.11
406.81	997.07
407.00	978.34
407.20	936.21
407.39	971.32
407.58	1020.47
407.77	940.90
407.96	1078.99
408.15	1032.18
408.34	926.85
408.54	1053.24
408.73	1046.22
408.92	1090.69
409.11	1130.48
409.30	1015.79
409.49	1139.84
409.68	1158.57
409.87	1139.84
410.07	1191.33
410.26	1114.10
410.45	1114.10
410.64	1135.16
410.83	1263.89
411.02	1200.69
411.21	1242.82
411.40	1252.19
411.59	1263.89
411.78	1299.00
411.98	1275.59
412.17	1198.35
412.36	1359.85
412.55	1327.08
412.74	1287.29
412.93	1425.39
413.12	1310.70
413.31	1497.94
413.50	1425.39
413.69	1355.17
413.88	1462.83
414.07	1469.86
414.26	1516.67
414.45	1467.52
414.64	1362.19
414.83	1516.67
415.02	1432.41
415.22	1586.88
415.41	1535.39
415.60	1584.54
415.79	1519.01
415.98	1528.37
416.17	1631.35
416.36	1575.18
416.55	1621.99
416.74	1612.63
416.93	1675.82
417.12	1610.29
417.31	1715.61
417.50	1629.01
417.69	1799.87
417.88	1647.74
418.07	1739.02
418.26	1774.13
418.45	1689.87
418.64	1746.04
418.83	1710.93
419.02	1724.97
419.21	1748.38
419.39	1685.19
419.58	1806.89
419.77	1842.00
419.96	1797.53
420.15	1905.20
420.34	1877.11
420.53	1839.66
420.72	1825.62
420.91	1825.62
421.10	1837.32
421.29	2071.37
421.48	1980.09
421.67	1940.30
421.86	1949.67
422.05	1888.81
422.24	1877.11
422.43	1888.81
422.61	2073.71
422.80	2010.52
422.99	1961.37
423.18	2148.61
423.37	2059.67
423.56	2024.56
423.75	1940.30
423.94	1949.67
424.13	1874.77
424.32	2054.99
424.50	1984.77
424.69	2059.67
424.88	2052.65
425.07	1977.75
425.26	2054.99
425.45	1970.73
425.64	2083.08
425.83	1998.82
426.01	2071.37
426.20	1942.64
426.39	1937.96
426.58	2008.18
426.77	2057.33
426.96	2085.42
427.15	2057.33
427.33	2076.06
427.52	2153.29
427.71	2312.45
427.90	2050.31
428.09	2172.02
428.28	2195.42
428.46	2125.21
428.65	2160.31
428.84	2101.80
429.03	2260.96
429.22	2148.61
429.40	2193.08
429.59	2279.68
429.78	2059.67
429.97	2125.21
430.16	2157.97
430.34	2216.49
430.53	2321.81
430.72	2345.22
430.91	2195.42
431.10	2305.43
431.28	2338.20
431.47	2452.88
431.66	2399.05
431.85	2239.89
432.03	2394.37
432.22	2455.22
432.41	2326.49
432.60	2548.84
432.79	2324.15
432.97	2544.16
433.16	2420.11
433.35	2434.16
433.54	2602.68
433.72	2581.61
433.91	2537.14
434.10	2537.14
434.28	2541.82
434.47	2380.32
434.66	2473.95
434.85	2527.78
435.03	2619.06
435.22	2520.76
435.41	2630.76
435.59	2640.12
435.78	2593.31
435.97	2719.70
436.16	2684.59
436.34	2672.89
436.53	2724.38
436.72	2717.36
436.90	2635.44
437.09	2703.32
437.28	2644.81
437.46	2656.51
437.65	2750.13
437.84	2768.85
438.02	2682.25
438.21	2871.84
438.40	2750.13
438.58	2853.11
438.77	2754.81
438.96	2836.73
439.14	2862.48
439.33	2998.23
439.52	2960.78
439.70	2958.44
439.89	3014.61
440.08	2932.69
440.26	3096.53
440.45	3021.63
440.63	2986.52
440.82	3171.43
441.01	3150.36
441.19	3105.89
441.38	3054.40
441.57	3194.83
441.75	3297.81
441.94	3356.33
442.12	3297.81
442.31	3325.90
442.50	3297.81
442.68	3143.34
442.87	3342.28
443.05	3396.12
443.24	3431.23
443.43	3311.86
443.61	3449.95
443.80	3412.50
443.98	3267.39
444.17	3260.37
444.35	3508.46
444.54	3428.88
444.73	3410.16
444.91	3428.88
445.10	3400.80
445.28	3431.23
445.47	3279.09
445.65	3232.28
445.84	3463.99
446.02	3466.33
446.21	3393.78
446.39	3531.87
446.58	3438.25
446.77	3471.01
446.95	3522.51
447.14	3447.61
447.32	3466.33
447.51	3480.38
447.69	3641.87
447.88	3501.44
448.06	3412.50
448.25	3529.53
448.43	3508.46
448.62	3492.08
448.80	3424.20
448.99	3515.48
449.17	3536.55
449.36	3405.48
449.54	3688.68
449.73	3552.93
449.91	3758.90
450.10	3730.81
450.28	3817.41
450.46	3723.79
450.65	3669.96
450.83	3805.71
451.02	3779.97
451.20	3775.28
451.39	3740.18
451.57	3826.78
451.76	3660.60
451.94	3805.71
452.13	3833.80
452.31	3679.32
452.49	3693.37
452.68	3686.34
452.86	3819.75
453.05	3866.56
453.23	3871.25
453.42	3859.54
453.60	3775.28
453.78	3899.33
453.97	3765.92
454.15	3990.61
454.34	3845.50
454.52	4028.06
454.70	3894.65
454.89	3948.48
455.07	3960.19
455.26	4067.85
455.44	4039.76
455.62	4088.92
455.81	4117.00
455.99	4023.38
456.17	4072.53
456.36	4109.98
456.54	4271.48
456.73	4257.43
456.91	4241.05
457.09	4198.92
457.28	4252.75
457.46	4315.95
457.64	4451.70
457.83	4332.33
458.01	4212.96
458.19	4348.72
458.38	4444.68
458.56	4402.55
458.74	4430.63
458.93	4388.50
459.11	4521.92
459.29	4493.83
459.48	4517.23
459.66	4521.92
459.84	4557.02
460.03	4652.98
460.21	4507.87
460.39	4526.60
460.57	4362.76
460.76	4631.92
460.94	4727.88
461.12	4596.81
461.31	4580.43
461.49	4526.60
461.67	4770.01
461.85	4627.24
462.04	4823.84
462.22	4748.95
462.40	4795.76
462.59	4723.20
462.77	4699.80
462.95	4655.33
463.13	4835.55
463.32	4849.59
463.50	4786.40
463.68	4807.46
463.86	4828.53
464.05	4711.50
464.23	4835.55
464.41	4908.10
464.59	4784.06
464.78	4994.70
464.96	4786.40
465.14	4915.12
465.32	4922.15
465.50	4926.83
465.69	4940.87
465.87	4947.89
466.05	4894.06
466.23	4997.04
466.41	5153.86
466.60	5210.03
466.78	4954.91
466.96	4968.96
467.14	5142.16
467.32	5170.24
467.51	5076.62
467.69	4954.91
467.87	5050.88
468.05	5043.85
468.23	4990.02
468.41	5116.41
468.60	5179.61
468.78	5242.80
468.96	5032.15
469.14	5219.39
469.32	5198.33
469.50	5100.03
469.69	5294.29
469.87	5441.75
470.05	5444.09
470.23	5420.68
470.41	5263.86
470.59	5359.83
470.77	5561.11
470.95	5390.25
471.14	5577.50
471.32	5268.55
471.50	5720.27
471.68	5617.29
471.86	5523.66
472.04	5570.48
472.22	5853.68
472.40	5736.65
472.58	5844.32
472.77	5762.40
472.95	5771.76
473.13	6101.78
473.31	5785.80
473.49	5837.30
473.67	5886.45
473.85	5774.10
474.03	6038.58
474.21	5886.45
474.39	5975.39
474.57	5914.53
474.75	6132.20
474.93	6272.64
475.12	6106.46
475.30	6193.06
475.48	6209.44
475.66	6258.59
475.84	6342.85
476.02	6230.51
476.20	6129.86
476.38	6455.20
476.56	6562.86
476.74	6502.01
476.92	6604.99
477.10	6415.41
477.28	6422.43
477.46	6483.28
477.64	6579.25
477.82	6825.00
478.00	6881.18
478.18	6883.52
478.36	6963.09
478.54	6850.75
478.72	6988.84
478.90	7138.63
479.08	7068.42
479.26	7180.76
479.44	7241.62
479.62	7307.15
479.80	7286.09
479.98	7433.54
480.16	7478.01
480.34	7323.54
480.52	7749.51
480.70	7564.61
480.88	7510.78
481.06	7508.44
481.24	7644.19
481.41	7859.52
481.59	7922.71
481.77	8023.36
481.95	7946.12
482.13	8170.81
482.31	8004.63
482.49	8339.33
482.67	8325.29
482.85	8147.40
483.03	8285.50
483.21	8470.40
483.39	8484.44
483.57	8592.11
483.74	8510.19
483.92	8580.40
484.10	8674.03
484.28	8938.51
484.46	8905.74
484.64	8922.12
484.82	8945.53
485.00	8875.31
485.18	9081.28
485.35	9486.19
485.53	9266.18
485.71	9303.63
485.89	9600.88
486.07	9528.32
486.25	9530.66
486.43	9671.09
486.61	9708.54
486.78	9734.29
486.96	9874.72
487.14	10136.86
487.32	10015.15
487.50	10171.97
487.68	10169.63
487.85	10321.76
488.03	10452.83
488.21	10417.72
488.39	10551.14
488.57	10679.86
488.75	10876.47
488.92	10815.62
489.10	10904.56
489.28	10913.92
489.46	11213.51
489.64	11096.48
489.81	11178.40
489.99	11239.25
490.17	11456.92
490.35	11522.46
490.53	11314.15
490.70	11566.93
490.88	11630.12
491.06	11786.94
491.24	11456.92
491.41	11623.10
491.59	11606.72
491.77	11922.69
491.95	12042.06
492.13	12049.08
492.30	12444.63
492.48	12353.35
492.66	12191.85
492.84	12250.36
493.01	12526.55
493.19	12372.07
493.37	12650.60
493.54	12697.41
493.72	12776.98
493.90	12814.43
494.08	12779.32
494.25	13048.49
494.43	13142.11
494.61	13209.98
494.79	13273.18
494.96	13163.17
495.14	13352.76
495.32	13427.65
495.49	13338.71
495.67	13645.32
495.85	13577.45
496.02	13710.86
496.20	13830.23
496.38	13797.46
496.55	13930.87
496.73	14185.99
496.91	13823.20
497.09	14071.30
497.26	14317.06
497.44	14244.50
497.62	14052.58
497.79	14644.73
497.97	14609.62
498.14	14771.12
498.32	14906.87
498.50	14892.83
498.67	15145.61
498.85	15054.33
499.03	14993.47
499.20	15059.01
499.38	14958.36
499.56	15026.24
499.73	15330.51
499.91	15257.95
500.08	15318.81
500.26	15089.43
500.44	15346.89
500.61	15410.09
500.79	15295.40
500.97	15489.67
501.14	15943.73
501.32	15873.51
501.49	15541.16
501.67	15995.22
501.84	15817.34
502.02	15995.22
502.20	15922.66
502.37	16084.16
502.55	16074.80
502.72	16173.10
502.90	16100.55
503.07	16130.97
503.25	16084.16
503.43	16152.04
503.60	16418.86
503.78	16336.94
503.95	16580.36
504.13	16568.65
504.30	16718.45
504.48	16449.28
504.65	16589.72
504.83	16952.50
505.01	16924.41
505.18	17165.49
505.36	17149.11
505.53	16994.63
505.71	17151.45
505.88	17216.98
506.06	17114.00
506.23	17338.69
506.41	17202.94
506.58	17205.28
506.76	17130.38
506.93	17275.49
507.11	17282.52
507.28	17722.54
507.46	17561.04
507.63	17577.42
507.81	17797.43
507.98	17649.98
508.16	17635.94
508.33	17668.70
508.50	17783.39
508.68	17624.23
508.85	18160.22
509.03	17713.17
509.20	18036.17
509.38	17991.70
509.55	18218.73
509.73	18352.14
509.90	18181.28
510.08	18321.71
510.25	18459.81
510.42	18518.32
510.60	18719.60
510.77	18579.17
510.95	18721.95
511.12	18663.43
511.30	18658.75
511.47	18464.49
511.64	18836.63
511.82	18939.62
511.99	18700.88
512.17	19066.00
512.34	18899.83
512.51	18974.72
512.69	19161.97
512.86	19190.05
513.04	19447.51
513.21	19344.53
513.38	19066.00
513.56	19281.33
513.73	19281.33
513.90	19578.58
514.08	19501.34
514.25	19384.32
514.43	19672.20
514.60	19545.81
514.77	20049.03
514.95	19871.15
515.12	19875.83
515.29	19374.95
515.47	19915.62
515.64	20130.95
515.81	19983.49
515.99	20091.16
516.16	20343.94
516.33	20463.30
516.51	20350.96
516.68	20133.29
516.85	20184.78
517.03	20156.69
517.20	20308.83
517.37	20397.77
517.54	20629.48
517.72	20765.23
517.89	20271.38
518.06	20287.76
518.24	20402.45
518.41	20318.19
518.58	20575.65
518.75	20751.19
518.93	20844.81
519.10	20603.74
519.27	20830.77
519.45	21099.93
519.62	20716.08
519.79	21298.88
519.96	21013.33
520.14	20996.95
520.31	21113.97
520.48	21139.72
520.65	21109.29
520.83	21158.44
521.00	21446.33
521.17	21289.51
521.34	21282.49
521.52	21537.61
521.69	21324.62
521.86	21570.38
522.03	21884.01
522.20	21539.95
522.38	21549.31
522.55	21766.98
522.72	21874.65
522.89	22082.95
523.07	22113.38
523.24	21855.92
523.41	22073.59
523.58	21935.50
523.75	21809.11
523.92	21872.31
524.10	22267.86
524.27	21778.68
524.44	22153.17
524.61	22515.95
524.78	22438.72
524.96	22263.18
525.13	22644.68
525.30	22527.66
525.47	22403.61
525.64	22445.74
525.81	22391.91
525.98	22733.62
526.16	22448.08
526.33	22520.63
526.50	23129.17
526.67	22623.62
526.84	22881.08
527.01	22948.95
527.18	23068.32
527.36	22927.89
527.53	23012.15
527.70	23218.11
527.87	23489.62
528.04	23271.95
528.21	23349.18
528.38	22948.95
528.55	23000.44
528.72	23468.55
528.89	23271.95
529.07	23084.70
529.24	23211.09
529.41	23187.69
529.58	23316.42
529.75	22841.29
529.92	23559.83
530.09	23426.42
530.26	23585.58
530.43	23538.77
530.60	23417.06
530.77	23716.65
530.94	23573.88
531.11	23393.65
531.28	23639.41
531.46	23637.07
531.63	23894.53
531.80	24013.90
531.97	23894.53
532.14	23913.25
532.31	23770.48
532.48	23810.27
532.65	24308.80
532.82	23948.36
532.99	24088.79
533.16	24067.73
533.33	24187.10
533.50	24313.48
533.67	24264.33
533.84	24341.57
534.01	24393.06
534.18	24252.63
534.35	24460.94
534.52	24861.17
534.69	24456.26
534.86	24577.97
535.03	24304.12
535.20	24659.88
535.37	24947.77
535.54	24540.52
535.71	24528.81
535.88	24507.75
536.05	24659.88
536.22	24903.30
536.38	24802.66
536.55	24872.87
536.72	24847.13
536.89	24865.85
537.06	25191.19
537.23	24922.02
537.40	24919.68
537.57	24907.98
537.74	24886.92
537.91	25156.08
538.08	25165.44
538.25	25060.12
538.42	25453.33
538.59	25378.43
538.75	25111.61
538.92	25205.23
539.09	25296.51
539.26	25053.09
539.43	25268.42
539.60	25116.29
539.77	25514.18
539.94	25348.00
540.11	25558.65
540.28	25518.86
540.44	25481.41
540.61	25523.54
540.78	25373.75
540.95	25338.64
541.12	25556.31
541.29	25741.21
541.46	25654.61
541.62	25703.76
541.79	25773.98
541.96	25748.23
542.13	25638.23
542.30	25654.61
542.47	25790.36
542.63	25869.94
542.80	26096.97
542.97	26206.98
543.14	25729.51
543.31	26274.85
543.48	25898.03
543.64	26604.87
543.81	26356.77
543.98	26471.46
544.15	26600.19
544.32	26654.02
544.48	26785.09
544.65	26817.86
544.82	26520.61
544.99	26085.27
545.16	26295.92
545.32	26209.32
545.49	26625.93
545.66	26775.73
545.83	26815.52
546.00	26808.50
546.16	26810.84
546.33	26190.59
546.50	26333.37
546.67	26551.04
546.83	26569.76
547.00	26745.30
547.17	26773.39
547.34	26927.86
547.50	26969.99
547.67	27208.73
547.84	27131.49
548.00	26726.58
548.17	27138.51
548.34	27108.08
548.51	27438.10
548.67	27269.58
548.84	27285.97
549.01	27307.03
549.18	27274.26
549.34	27215.75
549.51	27065.96
549.68	26953.61
549.84	26906.80
550.01	27297.67
550.18	26984.04
550.34	27367.88
550.51	27435.76
550.68	27445.12
550.84	26874.03
551.01	27564.49
551.18	27143.19
551.34	27190.00
551.51	27295.33
551.68	27791.52
551.84	27791.52
552.01	27543.42
552.18	27517.68
552.34	27557.47
552.51	27318.73
552.68	27850.03
552.84	27824.29
553.01	27459.16
553.18	27384.27
553.34	27803.22
553.51	27594.92
553.67	28144.94
553.84	28175.37
554.01	27819.61
554.17	27765.78
554.34	27791.52
554.51	27550.45
554.67	27672.15
554.84	27901.53
555.00	27924.93
555.17	28208.14
555.33	28151.96
555.50	28325.16
555.67	27995.15
555.83	28369.63
556.00	28128.56
556.16	28306.44
556.33	27922.59
556.50	28489.00
556.66	28381.34
556.83	28416.44
556.99	28245.58
557.16	28285.37
557.32	28058.34
557.49	28224.52
557.65	28084.09
557.82	28205.80
557.98	28240.90
558.15	28091.11
558.32	28645.82
558.48	28257.29
558.65	28458.57
558.81	28376.66
558.98	28690.29
559.14	28535.81
559.31	28769.86
559.47	27990.47
559.64	28507.72
559.80	28680.92
559.97	28809.65
560.13	29027.32
560.30	28638.80
560.46	28655.18
560.63	28517.09
560.79	29076.48
560.96	28531.13
561.12	28914.98
561.29	28376.66
561.45	28549.85
561.61	28664.54
561.78	28980.51
561.94	28678.58
562.11	28563.90
562.27	28542.83
562.44	28706.67
562.60	28587.30
562.77	28638.80
562.93	28662.20
563.10	28980.51
563.26	28477.30
563.42	29191.16
563.59	28709.01
563.75	29060.09
563.92	28690.29
564.08	28980.51
564.24	29095.20
564.41	28596.67
564.57	28924.34
564.74	28912.64
564.90	29221.59
565.07	29010.94
565.23	29308.19
565.39	29216.91
565.56	28975.83
565.72	28807.31
565.88	28994.56
566.05	28774.55
566.21	28737.10
566.38	29156.05
566.54	29067.11
566.70	28924.34
566.87	29249.67
567.03	29195.84
567.19	29294.14
567.36	29226.27
567.52	29151.37
567.68	29298.83
567.85	29249.67
568.01	29039.03
568.17	29006.26
568.34	29425.22
568.50	29546.92
568.66	28868.17
568.83	29235.63
568.99	29441.60
569.15	29123.29
569.32	29207.55
569.48	28978.17
569.64	29041.37
569.81	29343.30
569.97	29500.11
570.13	29558.63
570.30	28872.85
570.46	29347.98
570.62	29219.25
570.78	29628.84
570.95	28947.75
571.11	29268.40
571.27	29373.72
571.43	29308.19
571.60	29078.82
571.76	29336.27
571.92	29326.91
572.09	29476.71
572.25	29591.39
572.41	29612.46
572.57	29387.77
572.74	29397.13
572.90	29455.64
573.06	29612.46
573.22	28999.24
573.38	29343.30
573.55	29729.48
573.71	29589.05
573.87	29750.55
574.03	29649.91
574.20	29530.54
574.36	29291.80
574.52	29462.66
574.68	28957.11
574.84	29212.23
575.01	29472.03
575.17	29738.85
575.33	29289.46
575.49	29315.21
575.65	29972.90
575.82	29708.42
575.98	29378.40
576.14	29879.28
576.30	29504.79
576.46	29432.24
576.62	29408.83
576.79	29301.17
576.95	29308.19
577.11	29326.91
577.27	29551.60
577.43	29898.00
577.59	29394.79
577.75	29567.99
577.92	29975.24
578.08	29567.99
578.24	29244.99
578.40	29219.25
578.56	29343.30
578.72	29783.32
578.88	29921.41
579.04	30087.59
579.21	29570.33
579.37	29560.97
579.53	29635.86
579.69	29486.07
579.85	29858.21
580.01	29500.11
580.17	29762.25
580.33	29333.93
580.49	29642.88
580.65	30073.54
580.82	29666.29
580.98	29890.98
581.14	30085.25
581.30	30022.05
581.46	29823.11
581.62	29343.30
581.78	29500.11
581.94	29888.64
582.10	29446.28
582.26	29408.83
582.42	29745.87
582.58	29626.50
582.74	29905.02
582.90	29663.95
583.06	29654.59
583.22	29991.62
583.38	29895.66
583.54	29586.71
583.70	29706.08
583.86	30087.59
584.02	29425.22
584.18	29575.01
584.34	29874.60
584.50	29759.91
584.66	29935.45
584.82	29649.91
584.98	29544.58
585.14	29399.47
585.30	29624.16
585.46	30047.80
585.62	29556.28
585.78	29883.96
585.94	29954.18
586.10	30050.14
586.26	29834.81
586.42	30319.30
586.58	29993.97
586.74	29584.37
586.90	29806.72
587.06	29820.77
587.22	29654.59
587.38	30221.00
587.54	30110.99
587.70	30267.81
587.86	30075.88
588.02	30181.21
588.18	30047.80
588.34	29914.39
588.49	29937.79
588.65	29867.58
588.81	29755.23
588.97	30251.42
589.13	29694.38
589.29	29579.69
589.45	30153.12
589.61	30260.79
589.77	30338.02
589.93	30635.27
590.08	30157.80
590.24	29975.24
590.40	30438.67
590.56	30405.90
590.72	30022.05
590.88	29710.76
591.04	29785.66
591.20	30321.64
591.35	30183.55
591.51	30572.08
591.67	30649.32
591.83	30560.37
591.99	30033.75
