SpectraSuite Data File
++++++++++++++++++++++++++++++++++++
Date: Fri Oct 18 13:58:29 GMT-05:00 2013
User: bianchi
Dark Spectrum Present: No
Reference Spectrum Present: No
Number of Sampled Component Spectra: 1
Spectrometers: USB2+H05261
Integration Time (usec): 50000 (USB2+H05261)
Spectra Averaged: 1 (USB2+H05261)
Boxcar Smoothing: 0 (USB2+H05261)
Correct for Electrical Dark: No (USB2+H05261)
Strobe/Lamp Enabled: No (USB2+H05261)
Correct for Detector Non-linearity: No (USB2+H05261)
Correct for Stray Light: No (USB2+H05261)
Number of Pixels in Processed Spectrum: 2048
>>>>>Begin Processed Spectral Data<<<<<
365.73	0.00
365.92	0.00
366.12	0.00
366.32	0.00
366.52	0.00
366.72	0.00
366.91	0.00
367.11	0.00
367.31	0.00
367.51	0.00
367.70	0.00
367.90	0.00
368.10	0.00
368.30	0.00
368.49	0.00
368.69	0.00
368.89	0.00
369.09	0.00
369.28	0.00
369.48	0.00
369.68	0.00
369.87	0.00
370.07	0.00
370.27	0.00
370.47	0.00
370.66	42.13
370.86	42.13
371.06	93.62
371.25	128.73
371.45	138.09
371.65	222.35
371.84	154.48
372.04	156.82
372.24	145.11
372.44	241.08
372.63	170.86
372.83	241.08
373.03	203.63
373.22	147.45
373.42	128.73
373.62	170.86
373.81	163.84
374.01	217.67
374.21	262.14
374.40	252.78
374.60	208.31
374.79	271.50
374.99	203.63
375.19	273.84
375.38	299.59
375.58	273.84
375.78	245.76
375.97	266.82
376.17	276.18
376.37	355.76
376.56	334.70
376.76	222.35
376.95	215.33
377.15	217.67
377.35	322.99
377.54	234.05
377.74	250.44
377.93	189.58
378.13	285.55
378.33	346.40
378.52	236.39
378.72	315.97
378.91	304.27
379.11	208.31
379.31	306.61
379.50	313.63
379.70	262.14
379.89	318.31
380.09	241.08
380.28	313.63
380.48	337.04
380.68	320.65
380.87	262.14
381.07	337.04
381.26	308.95
381.46	320.65
381.65	315.97
381.85	205.97
382.04	353.42
382.24	330.02
382.43	306.61
382.63	334.70
382.83	330.02
383.02	355.76
383.22	346.40
383.41	325.33
383.61	376.83
383.80	379.17
384.00	304.27
384.19	386.19
384.39	330.02
384.58	470.45
384.78	442.36
384.97	320.65
385.17	374.49
385.36	285.55
385.56	407.25
385.75	337.04
385.95	444.70
386.14	451.72
386.34	409.59
386.53	388.53
386.72	400.23
386.92	425.98
387.11	374.49
387.31	346.40
387.50	393.21
387.70	425.98
387.89	477.47
388.09	428.32
388.28	486.83
388.48	484.49
388.67	456.40
388.86	475.13
389.06	449.38
389.25	540.66
389.45	540.66
389.64	362.78
389.84	461.09
390.03	433.00
390.22	512.58
390.42	507.90
390.61	486.83
390.81	505.56
391.00	475.13
391.19	388.53
391.39	491.51
391.58	505.56
391.78	528.96
391.97	479.81
392.16	517.26
392.36	528.96
392.55	575.77
392.75	528.96
392.94	500.87
393.13	517.26
393.33	610.88
393.52	552.37
393.71	603.86
393.91	493.85
394.10	517.26
394.29	554.71
394.49	564.07
394.68	514.92
394.88	599.18
395.07	622.58
395.26	596.84
395.46	643.65
395.65	631.94
395.84	617.90
396.04	645.99
396.23	706.84
396.42	575.77
396.62	676.41
396.81	650.67
397.00	608.54
397.19	653.01
397.39	655.35
397.58	580.45
397.77	653.01
397.97	622.58
398.16	645.99
398.35	683.44
398.55	697.48
398.74	704.50
398.93	734.93
399.12	660.03
399.32	653.01
399.51	681.10
399.70	781.74
399.90	809.83
400.09	746.63
400.28	798.12
400.47	760.67
400.67	753.65
400.86	777.06
401.05	812.17
401.24	662.37
401.44	793.44
401.63	826.21
401.82	802.80
402.01	842.59
402.21	823.87
402.40	830.89
402.59	854.30
402.78	805.14
402.97	854.30
403.17	856.64
403.36	875.36
403.55	842.59
403.74	849.61
403.93	866.00
404.13	875.36
404.32	844.93
404.51	875.36
404.70	952.60
404.89	898.77
405.09	992.39
405.28	980.68
405.47	968.98
405.66	922.17
405.85	978.34
406.05	1013.45
406.24	1043.88
406.43	966.64
406.62	994.73
406.81	1057.92
407.00	1078.99
407.20	987.71
407.39	990.05
407.58	1029.84
407.77	1027.50
407.96	1027.50
408.15	1088.35
408.34	1123.46
408.54	1128.14
408.73	1027.50
408.92	1088.35
409.11	1153.88
409.30	1111.75
409.49	1029.84
409.68	1217.08
409.87	1128.14
410.07	1151.54
410.26	1233.46
410.45	1233.46
410.64	1266.23
410.83	1160.91
411.02	1233.46
411.21	1214.74
411.40	1240.48
411.59	1254.53
411.78	1324.74
411.98	1249.85
412.17	1399.64
412.36	1294.32
412.55	1240.48
412.74	1345.81
412.93	1301.34
413.12	1320.06
413.31	1420.71
413.50	1469.86
413.69	1416.02
413.88	1490.92
414.07	1369.21
414.26	1352.83
414.45	1479.22
414.64	1455.81
414.83	1441.77
415.02	1497.94
415.22	1479.22
415.41	1591.56
415.60	1589.22
415.79	1519.01
415.98	1549.43
416.17	1582.20
416.36	1535.39
416.55	1551.78
416.74	1654.76
416.93	1621.99
417.12	1699.23
417.31	1692.21
417.50	1708.59
417.69	1703.91
417.88	1755.40
418.07	1713.27
418.26	1762.42
418.45	1614.97
418.64	1872.43
418.83	1912.22
419.02	1755.40
419.21	1750.72
419.39	1778.81
419.58	1811.57
419.77	1783.49
419.96	1863.07
420.15	1912.22
420.34	1799.87
420.53	1860.73
420.72	1865.41
420.91	1888.81
421.10	1933.28
421.29	1956.69
421.48	1842.00
421.67	1947.33
421.86	1877.11
422.05	1968.39
422.24	1856.04
422.43	1914.56
422.61	1930.94
422.80	1968.39
422.99	1984.77
423.18	2031.58
423.37	1921.58
423.56	2083.08
423.75	1952.01
423.94	1989.46
424.13	1888.81
424.32	1863.07
424.50	2017.54
424.69	2162.66
424.88	1989.46
425.07	1977.75
425.26	1975.41
425.45	1959.03
425.64	1977.75
425.83	2111.16
426.01	2115.84
426.20	2017.54
426.39	1933.28
426.58	2069.03
426.77	2118.18
426.96	2076.06
427.15	2094.78
427.33	2104.14
427.52	2118.18
427.71	2076.06
427.90	2064.35
428.09	2141.59
428.28	2340.54
428.46	2246.91
428.65	2214.15
428.84	2256.28
429.03	2214.15
429.22	2129.89
429.40	2207.13
429.59	2317.13
429.78	2108.82
429.97	2078.40
430.16	2258.62
430.34	2408.41
430.53	2422.45
430.72	2284.36
430.91	2193.08
431.10	2258.62
431.28	2394.37
431.47	2314.79
431.66	2286.70
431.85	2375.64
432.03	2410.75
432.22	2382.67
432.41	2483.31
432.60	2459.90
432.79	2513.74
432.97	2455.22
433.16	2455.22
433.35	2443.52
433.54	2396.71
433.72	2539.48
433.91	2495.01
434.10	2366.28
434.28	2450.54
434.47	2455.22
434.66	2462.24
434.85	2511.39
435.03	2630.76
435.22	2612.04
435.41	2623.74
435.59	2651.83
435.78	2597.99
435.97	2555.86
436.16	2651.83
436.34	2700.98
436.53	2656.51
436.72	2654.17
436.90	2614.38
437.09	2736.09
437.28	2616.72
437.46	2780.56
437.65	2672.89
437.84	2808.64
438.02	2719.70
438.21	2787.58
438.40	2745.45
438.58	2717.36
438.77	2857.79
438.96	2902.26
439.14	2984.18
439.33	2839.07
439.52	2974.82
439.70	2958.44
439.89	3098.87
440.08	2970.14
440.26	2956.10
440.45	3143.34
440.63	3002.91
440.82	3101.21
441.01	2972.48
441.19	3082.49
441.38	3190.15
441.57	3075.46
441.75	3309.52
441.94	3229.94
442.12	3302.50
442.31	3335.26
442.50	3323.56
442.68	3227.60
442.87	3274.41
443.05	3361.01
443.24	3358.67
443.43	3389.10
443.61	3384.41
443.80	3445.27
443.98	3290.79
444.17	3190.15
444.35	3342.28
444.54	3400.80
444.73	3346.97
444.91	3431.23
445.10	3421.86
445.28	3258.03
445.47	3321.22
445.65	3407.82
445.84	3480.38
446.02	3515.48
446.21	3445.27
446.39	3452.29
446.58	3414.84
446.77	3499.10
446.95	3356.33
447.14	3426.54
447.32	3426.54
447.51	3417.18
447.69	3438.25
447.88	3449.95
448.06	3445.27
448.25	3529.53
448.43	3536.55
448.62	3534.21
448.80	3485.06
448.99	3461.65
449.17	3583.36
449.36	3569.32
449.54	3684.00
449.73	3550.59
449.91	3681.66
450.10	3740.18
450.28	3730.81
450.46	3630.17
450.65	3723.79
450.83	3777.62
451.02	3695.71
451.20	3789.33
451.39	3719.11
451.57	3702.73
451.76	3648.90
451.94	3754.22
452.13	4009.34
452.31	3688.68
452.49	3751.88
452.68	3756.56
452.86	3861.88
453.05	4002.32
453.23	3913.38
453.42	3751.88
453.60	3765.92
453.78	3761.24
453.97	3920.40
454.15	3967.21
454.34	3934.44
454.52	3943.80
454.70	3878.27
454.89	4063.17
455.07	4014.02
455.26	4004.66
455.44	4058.49
455.62	4046.79
455.81	4107.64
455.99	4133.39
456.17	4168.49
456.36	4079.55
456.54	3992.95
456.73	4329.99
456.91	4353.40
457.09	4238.71
457.28	4290.20
457.46	4255.09
457.64	4318.29
457.83	4500.85
458.01	4327.65
458.19	4351.06
458.38	4386.16
458.56	4297.22
458.74	4351.06
458.93	4386.16
459.11	4297.22
459.29	4383.82
459.48	4461.06
459.66	4465.74
459.84	4430.63
460.03	4454.04
460.21	4585.11
460.39	4645.96
460.57	4479.79
460.76	4491.49
460.94	4582.77
461.12	4486.81
461.31	4540.64
461.49	4465.74
461.67	4571.07
461.85	4748.95
462.04	4660.01
462.22	4643.62
462.40	4812.14
462.59	4713.84
462.77	4587.45
462.95	4744.27
463.13	4648.30
463.32	4774.69
463.50	4805.12
463.68	4737.24
463.86	4868.31
464.05	4739.58
464.23	4784.06
464.41	4896.40
464.59	4683.41
464.78	4842.57
464.96	5039.17
465.14	4891.72
465.32	4950.23
465.50	4924.49
465.69	4887.04
465.87	4739.58
466.05	5027.47
466.23	4997.04
466.41	5034.49
466.60	5158.54
466.78	5057.90
466.96	4938.53
467.14	5011.09
467.32	5195.99
467.51	5210.03
467.69	4999.38
467.87	5041.51
468.05	5191.31
468.23	5121.09
468.41	5210.03
468.60	5231.10
468.78	5282.59
468.96	5303.65
469.14	5200.67
469.32	5322.38
469.50	5160.88
469.69	5233.44
469.87	5408.98
470.05	5404.30
470.23	5441.75
470.41	5341.10
470.59	5453.45
470.77	5416.00
470.95	5355.15
471.14	5455.79
471.32	5521.32
471.50	5474.51
471.68	5479.19
471.86	5547.07
472.04	5586.86
472.22	5750.70
472.40	5603.24
472.58	5664.10
472.77	5696.86
472.95	5783.46
473.13	5874.74
473.31	5729.63
473.49	5830.27
473.67	5818.57
473.85	5937.94
474.03	5893.47
474.21	5790.49
474.39	5813.89
474.57	5947.30
474.75	6155.61
474.93	6129.86
475.12	6080.71
475.30	6251.57
475.48	6221.14
475.66	6340.51
475.84	6244.55
476.02	6218.80
476.20	6342.85
476.38	6284.34
476.56	6363.92
476.74	6553.50
476.92	6490.31
477.10	6413.07
477.28	6600.31
477.46	6574.56
477.64	6619.04
477.82	6691.59
478.00	6841.39
478.18	6902.24
478.36	6986.50
478.54	7002.88
478.72	7054.37
478.90	6963.09
479.08	7073.10
479.26	7215.87
479.44	7323.54
479.62	7218.21
479.80	7206.51
479.98	7489.71
480.16	7433.54
480.34	7501.42
480.52	7510.78
480.70	7583.34
480.88	7478.01
481.06	7522.48
481.24	7751.85
481.41	7925.05
481.59	7887.61
481.77	7810.37
481.95	8131.02
482.13	7978.89
482.31	8098.25
482.49	8210.60
482.67	8248.05
482.85	8124.00
483.03	8367.42
483.21	8454.02
483.39	8622.53
483.57	8449.33
483.74	8720.84
483.92	8603.81
484.10	8580.40
484.28	8793.39
484.46	9027.45
484.64	8973.61
484.82	8791.05
485.00	9083.62
485.18	9224.05
485.35	9373.85
485.53	9214.69
485.71	9348.10
485.89	9530.66
486.07	9439.38
486.25	9500.23
486.43	9741.31
486.61	9542.36
486.78	10001.11
486.96	9811.53
487.14	10087.71
487.32	9912.17
487.50	10087.71
487.68	9998.77
487.85	10370.91
488.03	10246.87
488.21	10363.89
488.39	10574.54
488.57	10658.80
488.75	10684.55
488.92	10654.12
489.10	11026.26
489.28	10759.44
489.46	10925.62
489.64	10956.05
489.81	11400.75
489.99	11197.12
490.17	11206.48
490.35	11194.78
490.53	11192.44
490.70	11625.44
490.88	11557.57
491.06	11611.40
491.24	11854.81
491.41	11644.17
491.59	11756.51
491.77	11735.45
491.95	12128.66
492.13	11866.52
492.30	12135.68
492.48	12112.27
492.66	12383.77
492.84	12245.68
493.01	12484.42
493.19	12706.77
493.37	12762.94
493.54	12643.57
493.72	12961.89
493.90	12837.84
494.08	12975.93
494.25	12938.48
494.43	13060.19
494.61	13280.20
494.79	13420.63
494.96	13163.17
495.14	13263.82
495.32	13472.12
495.49	13458.08
495.67	13500.21
495.85	13694.47
496.02	13762.35
496.20	13853.63
496.38	13633.62
496.55	13722.56
496.73	14146.20
496.91	14015.13
497.09	14277.27
497.26	14398.98
497.44	14085.34
497.62	14068.96
497.79	14415.36
497.97	14490.26
498.14	14930.28
498.32	14586.22
498.50	14717.29
498.67	14904.53
498.85	14743.03
499.03	14991.13
499.20	15019.22
499.38	14824.95
499.56	15169.01
499.73	15147.95
499.91	15012.20
500.08	15035.60
500.26	15068.37
500.44	15229.87
500.61	15433.49
500.79	15644.14
500.97	15611.37
501.14	15754.15
501.32	15929.69
501.49	15702.65
501.67	15522.43
501.84	15829.04
502.02	15700.31
502.20	16196.51
502.37	16304.17
502.55	16091.18
502.72	16512.48
502.90	15817.34
503.07	16060.76
503.25	16306.51
503.43	15903.94
503.60	16070.12
503.78	16414.18
503.95	16446.94
504.13	16278.43
504.30	16613.12
504.48	16486.73
504.65	16608.44
504.83	16744.19
505.01	16842.50
505.18	17043.78
505.36	17036.76
505.53	17078.89
505.71	16910.37
505.88	16819.09
506.06	16872.92
506.23	17434.65
506.41	17025.06
506.58	17411.25
506.76	17511.89
506.93	17186.55
507.11	17116.34
507.28	17755.30
507.46	17383.16
507.63	17612.53
507.81	17724.88
507.98	17839.56
508.16	17474.44
508.33	17682.75
508.50	17561.04
508.68	17680.41
508.85	17916.80
509.03	18134.47
509.20	17994.04
509.38	18267.88
509.55	18192.98
509.73	18281.92
509.90	18232.77
510.08	18207.03
510.25	18188.30
510.42	18321.71
510.60	18342.78
510.77	18703.22
510.95	18642.37
511.12	18375.55
511.30	18530.02
511.47	18686.84
511.64	18471.51
511.82	19012.17
511.99	19147.92
512.17	18993.45
512.34	19007.49
512.51	19028.56
512.69	19019.19
512.86	19473.26
513.04	19367.93
513.21	19218.14
513.38	19538.79
513.56	19431.13
513.73	19115.16
513.90	19587.94
514.08	19278.99
514.25	19190.05
514.43	19836.04
514.60	19728.38
514.77	19716.67
514.95	19943.70
515.12	19541.13
515.29	19594.96
515.47	19742.42
515.64	19840.72
515.81	19765.82
515.99	20159.03
516.16	20196.48
516.33	20222.23
516.51	20327.55
516.68	19906.26
516.85	20039.67
517.03	20306.49
517.20	20556.93
517.37	20545.22
517.54	20533.52
517.72	20816.72
517.89	20372.02
518.06	20273.72
518.24	20414.15
518.41	20496.07
518.58	20400.11
518.75	20500.75
518.93	20854.17
519.10	20849.49
519.27	20830.77
519.45	20996.95
519.62	21050.78
519.79	20900.98
519.96	21081.21
520.14	21046.10
520.31	20889.28
520.48	21209.93
520.65	21214.62
520.83	21205.25
521.00	21104.61
521.17	21036.74
521.34	21486.12
521.52	21207.59
521.69	21584.42
521.86	21790.39
522.03	21362.07
522.20	21579.74
522.38	21647.61
522.55	21563.36
522.72	21619.53
522.89	21930.82
523.07	21797.41
523.24	21671.02
523.41	22317.01
523.58	21598.46
523.75	22190.62
523.92	21443.99
524.10	22061.89
524.27	22181.26
524.44	22448.08
524.61	22078.27
524.78	22326.37
524.96	22288.92
525.13	22169.55
525.30	22218.71
525.47	22471.48
525.64	22555.74
525.81	22396.59
525.98	22321.69
526.16	22675.11
526.33	22785.12
526.50	22768.73
526.67	22522.98
526.84	22773.41
527.01	22747.67
527.18	23005.13
527.36	22691.49
527.53	23070.66
527.70	23276.63
527.87	22951.29
528.04	23126.83
528.21	22698.52
528.38	22691.49
528.55	23005.13
528.72	23222.80
528.89	23311.74
529.07	23339.82
529.24	23218.11
529.41	23400.68
529.58	23222.80
529.75	23197.05
529.92	23129.17
530.09	23433.44
530.26	23166.62
530.43	23323.44
530.60	23562.17
530.77	23419.40
530.94	23580.90
531.11	23613.66
531.28	23524.72
531.46	23517.70
531.63	23529.41
531.80	23871.12
531.97	23726.01
532.14	23803.25
532.31	23936.66
532.48	24166.03
532.65	24091.13
532.82	23819.63
532.99	23613.66
533.16	24037.30
533.33	24140.29
533.50	24182.42
533.67	24409.45
533.84	24009.22
534.01	24212.84
534.18	24091.13
534.35	24196.46
534.52	24538.18
534.69	24187.10
534.86	24524.13
535.03	24575.62
535.20	24372.00
535.37	24439.87
535.54	24746.48
535.71	24280.72
535.88	24404.77
536.05	24238.59
536.22	24809.68
536.38	24821.38
536.55	24690.31
536.72	24709.04
536.89	24580.31
537.06	24680.95
537.23	24830.74
537.40	24603.71
537.57	24676.27
537.74	25043.73
537.91	25149.06
538.08	25193.53
538.25	25160.76
538.42	24816.70
538.59	25104.59
538.75	25195.87
538.92	24945.43
539.09	25032.03
539.26	25216.93
539.43	25380.77
539.60	25006.28
539.77	25350.34
539.94	25029.69
540.11	25626.53
540.28	25198.21
540.44	25542.27
540.61	25338.64
540.78	25326.94
540.95	25577.37
541.12	25675.68
541.29	25205.23
541.46	25722.49
541.62	25090.54
541.79	25380.77
541.96	25284.81
542.13	25649.93
542.30	25603.12
542.47	25818.45
542.63	25834.83
542.80	25696.74
542.97	25998.67
543.14	25834.83
543.31	26127.40
543.48	25778.66
543.64	26010.37
543.81	26216.34
543.98	26043.14
544.15	26441.03
544.32	26293.58
544.48	26410.60
544.65	26216.34
544.82	26464.44
544.99	26099.31
545.16	26698.49
545.32	25970.58
545.49	26457.42
545.66	26448.05
545.83	26544.02
546.00	26436.35
546.16	26298.26
546.33	26162.51
546.50	26258.47
546.67	26600.19
546.83	26125.06
547.00	26836.58
547.17	26895.10
547.34	26450.39
547.50	26675.09
547.67	26745.30
547.84	26665.72
548.00	27136.17
548.17	27007.44
548.34	26937.23
548.51	26810.84
548.67	26948.93
548.84	27101.06
549.01	26941.91
549.18	26958.29
549.34	26977.01
549.51	26845.94
549.68	27080.00
549.84	27182.98
550.01	27206.39
550.18	26890.41
550.34	27583.21
550.51	27484.91
550.68	27171.28
550.84	27016.80
551.01	27182.98
551.18	27220.43
551.34	27318.73
551.51	27138.51
551.68	27395.97
551.84	27454.48
552.01	27697.90
552.18	27337.46
552.34	27358.52
552.51	27569.17
552.68	27571.51
552.84	27342.14
553.01	27920.25
553.18	27475.55
553.34	27433.42
553.51	27573.85
553.67	27840.67
553.84	27761.09
554.01	27845.35
554.17	27665.13
554.34	27946.00
554.51	27672.15
554.67	27936.63
554.84	27910.89
555.00	27557.47
555.17	27845.35
555.33	27419.38
555.50	27901.53
555.67	27889.82
555.83	27807.90
556.00	27754.07
556.16	28191.75
556.33	27679.18
556.50	28077.07
556.66	28245.58
556.83	28156.64
556.99	28301.76
557.16	28379.00
557.32	28151.96
557.49	28098.13
557.65	28222.18
557.82	27999.83
557.98	28233.88
558.15	28285.37
558.32	28538.15
558.48	28339.21
558.65	28336.87
558.81	27985.79
558.98	28271.33
559.14	28315.80
559.31	28311.12
559.47	28371.97
559.64	28360.27
559.80	28617.73
559.97	28538.15
560.13	28149.62
560.30	28645.82
560.46	28329.84
560.63	28409.42
560.79	28732.42
560.96	28891.57
561.12	28636.45
561.29	28451.55
561.45	28774.55
561.61	28790.93
561.78	28325.16
561.94	28535.81
562.11	28922.00
562.27	28606.03
562.44	28456.23
562.60	28479.64
562.77	28325.16
562.93	28580.28
563.10	28891.57
563.26	28676.24
563.42	28985.19
563.59	28924.34
563.75	28748.80
563.92	28804.97
564.08	28655.18
564.24	29163.08
564.41	28613.05
564.57	28322.82
564.74	28622.41
564.90	28966.47
565.07	29207.55
565.23	28720.71
565.39	28896.25
565.56	29043.71
565.72	28601.35
565.88	28629.43
566.05	28657.52
566.21	28870.51
566.38	28875.19
566.54	29216.91
566.70	29205.20
566.87	28996.90
567.03	29064.77
567.19	29633.52
567.36	29076.48
567.52	29102.22
567.68	29144.35
567.85	29305.85
568.01	29277.76
568.17	29263.72
568.34	28945.41
568.50	29205.20
568.66	29125.63
568.83	29549.26
568.99	28725.39
569.15	29090.52
569.32	28800.29
569.48	28910.30
569.64	29048.39
569.81	29247.33
569.97	29170.10
570.13	29174.78
570.30	28627.09
570.46	29205.20
570.62	29046.05
570.78	29378.40
570.95	29186.48
571.11	28957.11
571.27	29153.71
571.43	28854.12
571.60	29659.27
571.76	29282.44
571.92	29076.48
572.09	29406.49
572.25	29223.93
572.41	29090.52
572.57	29263.72
572.74	29270.74
572.90	29422.87
573.06	29413.51
573.22	29223.93
573.38	29289.46
573.55	29146.69
573.71	29347.98
573.87	29462.66
574.03	29362.02
574.20	29289.46
574.36	29383.09
574.52	29329.25
574.68	29284.78
574.84	29235.63
575.01	29549.26
575.17	29261.38
575.33	29476.71
575.49	29497.77
575.65	29228.61
575.82	29776.30
575.98	29528.20
576.14	29167.76
576.30	29640.54
576.46	29249.67
576.62	29408.83
576.79	29172.44
576.95	29474.37
577.11	29317.55
577.27	29420.53
577.43	29472.03
577.59	29673.31
577.75	29481.39
577.92	29303.51
578.08	29027.32
578.24	28989.88
578.40	29605.44
578.56	29890.98
578.72	29722.46
578.88	29834.81
579.04	29441.60
579.21	29621.82
579.37	29909.71
579.53	29411.17
579.69	29408.83
579.85	29532.88
580.01	29401.81
580.17	29366.70
580.33	29326.91
580.49	29539.90
580.65	29731.83
580.82	29804.38
580.98	29570.33
581.14	29427.56
581.30	29933.11
581.46	29546.92
581.62	29305.85
581.78	29621.82
581.94	30043.12
582.10	29429.90
582.26	29488.41
582.42	29324.57
582.58	29099.88
582.74	29851.19
582.90	29888.64
583.06	29619.48
583.22	29638.20
583.38	29839.49
583.54	29802.04
583.70	29455.64
583.86	29694.38
584.02	29495.43
584.18	29553.94
584.34	29846.51
584.50	29991.62
584.66	29439.26
584.82	29240.31
584.98	29479.05
585.14	29579.69
585.30	29202.86
585.46	29319.89
585.62	29699.06
585.78	29745.87
585.94	29539.90
586.10	29984.60
586.26	29888.64
586.42	29488.41
586.58	29792.68
586.74	29902.68
586.90	29261.38
587.06	29614.80
587.22	29888.64
587.38	29575.01
587.54	29982.26
587.70	29764.59
587.86	29624.16
588.02	29818.42
588.18	29876.94
588.34	29886.30
588.49	29841.83
588.65	29706.08
588.81	29364.36
588.97	29516.50
589.13	29832.47
589.29	29706.08
589.45	29984.60
589.61	29654.59
589.77	29989.28
589.93	30213.98
590.08	29986.94
590.24	29919.07
590.40	29963.54
590.56	29790.34
590.72	29846.51
590.88	29378.40
591.04	29631.18
591.20	30040.78
591.35	30387.18
591.51	30323.98
591.67	29881.62
591.83	29893.32
591.99	30190.57
