SpectraSuite Data File
++++++++++++++++++++++++++++++++++++
Date: Fri Oct 18 13:58:00 GMT-05:00 2013
User: bianchi
Dark Spectrum Present: No
Reference Spectrum Present: No
Number of Sampled Component Spectra: 1
Spectrometers: USB2+H05261
Integration Time (usec): 50000 (USB2+H05261)
Spectra Averaged: 1 (USB2+H05261)
Boxcar Smoothing: 0 (USB2+H05261)
Correct for Electrical Dark: No (USB2+H05261)
Strobe/Lamp Enabled: No (USB2+H05261)
Correct for Detector Non-linearity: No (USB2+H05261)
Correct for Stray Light: No (USB2+H05261)
Number of Pixels in Processed Spectrum: 2048
>>>>>Begin Processed Spectral Data<<<<<
365.73	0.00
365.92	0.00
366.12	0.00
366.32	0.00
366.52	0.00
366.72	0.00
366.91	0.00
367.11	0.00
367.31	0.00
367.51	0.00
367.70	0.00
367.90	0.00
368.10	0.00
368.30	0.00
368.49	0.00
368.69	0.00
368.89	0.00
369.09	0.00
369.28	0.00
369.48	0.00
369.68	0.00
369.87	0.00
370.07	0.00
370.27	0.00
370.47	0.00
370.66	30.43
370.86	95.96
371.06	138.09
371.25	131.07
371.45	42.13
371.65	166.18
371.84	229.37
372.04	56.17
372.24	140.43
372.44	201.29
372.63	236.39
372.83	301.93
373.03	198.95
373.22	198.95
373.42	166.18
373.62	273.84
373.81	212.99
374.01	266.82
374.21	220.01
374.40	187.24
374.60	271.50
374.79	229.37
374.99	217.67
375.19	229.37
375.38	283.20
375.58	198.95
375.78	271.50
375.97	290.23
376.17	299.59
376.37	238.73
376.56	278.52
376.76	224.69
376.95	210.65
377.15	276.18
377.35	266.82
377.54	227.03
377.74	257.46
377.93	322.99
378.13	344.06
378.33	299.59
378.52	304.27
378.72	306.61
378.91	379.17
379.11	217.67
379.31	344.06
379.50	311.29
379.70	266.82
379.89	369.80
380.09	290.23
380.28	339.38
380.48	283.20
380.68	322.99
380.87	341.72
381.07	285.55
381.26	332.36
381.46	299.59
381.65	327.68
381.85	423.64
382.04	414.27
382.24	330.02
382.43	304.27
382.63	301.93
382.83	313.63
383.02	311.29
383.22	299.59
383.41	285.55
383.61	327.68
383.80	348.74
384.00	308.95
384.19	365.12
384.39	327.68
384.58	423.64
384.78	348.74
384.97	421.30
385.17	400.23
385.36	393.21
385.56	411.93
385.75	306.61
385.95	416.62
386.14	372.15
386.34	369.80
386.53	435.34
386.72	425.98
386.92	463.43
387.11	397.89
387.31	423.64
387.50	463.43
387.70	468.11
387.89	451.72
388.09	416.62
388.28	386.19
388.48	423.64
388.67	449.38
388.86	470.45
389.06	437.68
389.25	484.49
389.45	484.49
389.64	543.00
389.84	531.30
390.03	407.25
390.22	475.13
390.42	484.49
390.61	482.15
390.81	458.74
391.00	517.26
391.19	531.30
391.39	463.43
391.58	507.90
391.78	540.66
391.97	451.72
392.16	507.90
392.36	535.98
392.55	500.87
392.75	543.00
392.94	585.13
393.13	510.24
393.33	521.94
393.52	552.37
393.71	554.71
393.91	545.34
394.10	648.33
394.29	636.63
394.49	517.26
394.68	582.79
394.88	514.92
395.07	587.47
395.26	674.07
395.46	601.52
395.65	657.69
395.84	564.07
396.04	704.50
396.23	596.84
396.42	734.93
396.62	636.63
396.81	748.97
397.00	585.13
397.19	571.09
397.39	702.16
397.58	758.33
397.77	631.94
397.97	702.16
398.16	751.31
398.35	727.91
398.55	730.25
398.74	732.59
398.93	739.61
399.12	702.16
399.32	798.12
399.51	645.99
399.70	695.14
399.90	711.52
400.09	788.76
400.28	739.61
400.47	732.59
400.67	765.36
400.86	812.17
401.05	898.77
401.24	758.33
401.44	814.51
401.63	767.70
401.82	868.34
402.01	777.06
402.21	779.40
402.40	830.89
402.59	830.89
402.78	891.74
402.97	791.10
403.17	863.66
403.36	898.77
403.55	844.93
403.74	863.66
403.93	891.74
404.13	798.12
404.32	903.45
404.51	933.87
404.70	990.05
404.89	901.11
405.09	873.02
405.28	966.64
405.47	938.55
405.66	954.94
405.85	959.62
406.05	1011.11
406.24	1011.11
406.43	968.98
406.62	1060.26
406.81	1008.77
407.00	1001.75
407.20	1064.94
407.39	1097.71
407.58	1102.39
407.77	1109.41
407.96	1128.14
408.15	1107.07
408.34	1086.01
408.54	1135.16
408.73	1128.14
408.92	1095.37
409.11	1039.20
409.30	1078.99
409.49	1132.82
409.68	1151.54
409.87	1153.88
410.07	1163.25
410.26	1177.29
410.45	1198.35
410.64	1245.16
410.83	1146.86
411.02	1245.16
411.21	1308.36
411.40	1275.59
411.59	1336.45
411.78	1282.61
411.98	1301.34
412.17	1343.47
412.36	1413.68
412.55	1378.58
412.74	1479.22
412.93	1355.17
413.12	1259.21
413.31	1376.24
413.50	1476.88
413.69	1430.07
413.88	1514.33
414.07	1476.88
414.26	1430.07
414.45	1455.81
414.64	1479.22
414.83	1490.92
415.02	1460.49
415.22	1533.05
415.41	1542.41
415.60	1516.67
415.79	1516.67
415.98	1591.56
416.17	1631.35
416.36	1551.78
416.55	1671.14
416.74	1727.32
416.93	1687.53
417.12	1703.91
417.31	1762.42
417.50	1666.46
417.69	1685.19
417.88	1748.38
418.07	1715.61
418.26	1748.38
418.45	1762.42
418.64	1933.28
418.83	1769.44
419.02	1839.66
419.21	1874.77
419.39	1832.64
419.58	1853.70
419.77	1790.51
419.96	1832.64
420.15	1919.24
420.34	1900.52
420.53	1916.90
420.72	1916.90
420.91	1933.28
421.10	1919.24
421.29	1930.94
421.48	1891.15
421.67	2033.93
421.86	1942.64
422.05	1982.43
422.24	1947.33
422.43	1982.43
422.61	2054.99
422.80	2024.56
422.99	1968.39
423.18	2008.18
423.37	2012.86
423.56	2120.53
423.75	2064.35
423.94	1898.17
424.13	1926.26
424.32	1919.24
424.50	2118.18
424.69	2115.84
424.88	2106.48
425.07	2031.58
425.26	2005.84
425.45	2069.03
425.64	1989.46
425.83	2104.14
426.01	2143.93
426.20	1973.07
426.39	2118.18
426.58	2076.06
426.77	2038.61
426.96	2097.12
427.15	2197.76
427.33	2223.51
427.52	2120.53
427.71	2113.50
427.90	2204.78
428.09	2099.46
428.28	2181.38
428.46	2289.04
428.65	2092.44
428.84	2282.02
429.03	2221.17
429.22	2263.30
429.40	2237.55
429.59	2321.81
429.78	2209.47
429.97	2078.40
430.16	2377.98
430.34	2335.85
430.53	2377.98
430.72	2331.17
430.91	2401.39
431.10	2370.96
431.28	2436.50
431.47	2272.66
431.66	2410.75
431.85	2399.05
432.03	2504.37
432.22	2480.97
432.41	2506.71
432.60	2368.62
432.79	2462.24
432.97	2532.46
433.16	2476.29
433.35	2485.65
433.54	2558.21
433.72	2569.91
433.91	2523.10
434.10	2520.76
434.28	2586.29
434.47	2637.78
434.66	2509.05
434.85	2649.49
435.03	2597.99
435.22	2548.84
435.41	2803.96
435.59	2658.85
435.78	2600.34
435.97	2628.42
436.16	2759.49
436.34	2771.19
436.53	2712.68
436.72	2815.66
436.90	2698.64
437.09	2853.11
437.28	2672.89
437.46	2649.49
437.65	2726.72
437.84	2869.50
438.02	2862.48
438.21	2864.82
438.40	2754.81
438.58	2951.42
438.77	2850.77
438.96	2836.73
439.14	3096.53
439.33	2977.16
439.52	2935.03
439.70	2988.86
439.89	3002.91
440.08	3124.62
440.26	3066.10
440.45	2977.16
440.63	3129.30
440.82	3194.83
441.01	3173.77
441.19	3159.72
441.38	3192.49
441.57	3274.41
441.75	3304.84
441.94	3365.69
442.12	3393.78
442.31	3489.74
442.50	3262.71
442.68	3449.95
442.87	3267.39
443.05	3396.12
443.24	3400.80
443.43	3400.80
443.61	3393.78
443.80	3574.00
443.98	3372.71
444.17	3332.92
444.35	3473.36
444.54	3501.44
444.73	3297.81
444.91	3494.42
445.10	3459.31
445.28	3461.65
445.47	3346.97
445.65	3630.17
445.84	3536.55
446.02	3459.31
446.21	3566.98
446.39	3541.23
446.58	3574.00
446.77	3522.51
446.95	3403.14
447.14	3562.30
447.32	3651.24
447.51	3590.38
447.69	3534.21
447.88	3606.77
448.06	3482.72
448.25	3672.30
448.43	3639.53
448.62	3613.79
448.80	3468.67
448.99	3646.55
449.17	3581.02
449.36	3595.06
449.54	3730.81
449.73	3798.69
449.91	3747.20
450.10	3798.69
450.28	3875.93
450.46	3693.37
450.65	3585.70
450.83	3763.58
451.02	3850.18
451.20	3810.39
451.39	3782.31
451.57	3698.05
451.76	3803.37
451.94	3775.28
452.13	4044.45
452.31	3899.33
452.49	3775.28
452.68	4016.36
452.86	3838.48
453.05	3836.14
453.23	3988.27
453.42	3866.56
453.60	4007.00
453.78	3995.29
453.97	3927.42
454.15	3943.80
454.34	3969.55
454.52	4065.51
454.70	3967.21
454.89	4084.23
455.07	4053.81
455.26	4039.76
455.44	4135.73
455.62	4053.81
455.81	4173.18
455.99	4201.26
456.17	4231.69
456.36	4177.86
456.54	4297.22
456.73	4259.78
456.91	4463.40
457.09	4435.32
457.28	4428.29
457.46	4444.68
457.64	4521.92
457.83	4367.44
458.01	4365.10
458.19	4444.68
458.38	4568.73
458.56	4440.00
458.74	4458.72
458.93	4451.70
459.11	4514.89
459.29	4458.72
459.48	4596.81
459.66	4512.55
459.84	4774.69
460.03	4737.24
460.21	4587.45
460.39	4685.75
460.57	4657.67
460.76	4662.35
460.94	4578.09
461.12	4645.96
461.31	4699.80
461.49	4601.49
461.67	4627.24
461.85	4657.67
462.04	4739.58
462.22	5018.11
462.40	4929.17
462.59	4884.70
462.77	4894.06
462.95	4765.33
463.13	4858.95
463.32	4929.17
463.50	4809.80
463.68	4912.78
463.86	4821.50
464.05	4919.81
464.23	4737.24
464.41	4919.81
464.59	4734.90
464.78	5069.60
464.96	5041.51
465.14	4968.96
465.32	5048.54
465.50	5203.01
465.69	5172.58
465.87	5015.77
466.05	5191.31
466.23	5008.75
466.41	5198.33
466.60	5308.34
466.78	5043.85
466.96	5217.05
467.14	5027.47
467.32	5104.71
467.51	5191.31
467.69	5195.99
467.87	5308.34
468.05	5310.68
468.23	5282.59
468.41	5249.82
468.60	5245.14
468.78	5308.34
468.96	5390.25
469.14	5308.34
469.32	5425.36
469.50	5242.80
469.69	5322.38
469.87	5472.17
470.05	5563.45
470.23	5533.03
470.41	5434.72
470.59	5671.12
470.77	5533.03
470.95	5561.11
471.14	5844.32
471.32	5556.43
471.50	5809.21
471.68	5657.07
471.86	5729.63
472.04	5614.95
472.22	5820.91
472.40	5694.52
472.58	5872.40
472.77	5783.46
472.95	5975.39
473.13	6059.65
473.31	5837.30
473.49	5884.11
473.67	5832.62
473.85	5975.39
474.03	5914.53
474.21	5975.39
474.39	6136.88
474.57	6085.39
474.75	6321.79
474.93	6237.53
475.12	6162.63
475.30	6237.53
475.48	6293.70
475.66	6331.15
475.84	6483.28
476.02	6317.11
476.20	6506.69
476.38	6600.31
476.56	6576.91
476.74	6649.46
476.92	6565.20
477.10	6686.91
477.28	6719.68
477.46	6810.96
477.64	6644.78
477.82	6942.03
478.00	7054.37
478.18	6970.12
478.36	7204.17
478.54	7103.53
478.72	7279.07
478.90	7070.76
479.08	7241.62
479.26	7225.23
479.44	7428.86
479.62	7501.42
479.80	7531.84
479.98	7456.95
480.16	7770.58
480.34	7733.13
480.52	7976.55
480.70	7911.01
480.88	7784.62
481.06	7873.56
481.24	7765.90
481.41	7920.37
481.59	8102.93
481.77	8201.24
481.95	7978.89
482.13	8196.56
482.31	8133.36
482.49	8442.31
482.67	8442.31
482.85	8472.74
483.03	8383.80
483.21	8608.49
483.39	8777.01
483.57	8688.07
483.74	8706.79
483.92	8681.05
484.10	8865.95
484.28	8887.01
484.46	9301.29
484.64	9242.78
484.82	9036.81
485.00	9238.09
485.18	9383.21
485.35	9469.81
485.53	9446.40
485.71	9521.30
485.89	9650.03
486.07	9572.79
486.25	9783.44
486.43	9820.89
486.61	9874.72
486.78	10083.03
486.96	10218.78
487.14	10246.87
487.32	10349.85
487.50	10457.51
487.68	10354.53
487.85	10363.89
488.03	10548.79
488.21	10743.06
488.39	10593.26
488.57	10937.32
488.75	10881.15
488.92	11098.82
489.10	11056.69
489.28	11040.31
489.46	11480.33
489.64	11393.73
489.81	11522.46
489.99	11578.63
490.17	11382.03
490.35	11639.48
490.53	11758.85
490.70	11908.65
490.88	11875.88
491.06	12100.57
491.24	11918.01
491.41	11929.71
491.59	12215.26
491.77	12114.61
491.95	12505.48
492.13	12442.29
492.30	12439.95
492.48	12606.13
492.66	12430.59
492.84	12561.66
493.01	12758.26
493.19	12681.02
493.37	13109.34
493.54	13006.36
493.72	12985.29
493.90	13034.44
494.08	13039.12
494.25	13355.10
494.43	13137.43
494.61	13640.64
494.79	13518.93
494.96	13476.80
495.14	13359.78
495.32	13827.88
495.49	13647.66
495.67	14104.07
495.85	14143.86
496.02	14146.20
496.20	14012.79
496.38	14195.35
496.55	14090.02
496.73	14839.00
496.91	14443.45
497.09	14504.30
497.26	14523.02
497.44	14782.82
497.62	14728.99
497.79	15042.62
497.97	14815.59
498.14	15035.60
498.32	15068.37
498.50	14892.83
498.67	15054.33
498.85	14960.70
499.03	15318.81
499.20	15239.23
499.38	15484.98
499.56	15426.47
499.73	15538.82
499.91	15452.22
500.08	15552.86
500.26	15506.05
500.44	15639.46
500.61	15693.29
500.79	15754.15
500.97	16004.58
501.14	16046.71
501.32	16072.46
501.49	16240.98
501.67	16145.02
501.84	16231.62
502.02	16133.31
502.20	16362.69
502.37	16308.85
502.55	16416.52
502.72	16568.65
502.90	16465.67
503.07	16648.23
503.25	16917.39
503.43	16636.53
503.60	16622.48
503.78	16786.32
503.95	16814.41
504.13	16994.63
504.30	16943.14
504.48	17216.98
504.65	17046.12
504.83	17294.22
505.01	17348.05
505.18	17287.20
505.36	17664.02
505.53	17146.76
505.71	17252.09
505.88	17467.42
506.06	17366.78
506.23	17404.22
506.41	17451.03
506.58	17446.35
506.76	17692.11
506.93	17802.11
507.11	17968.29
507.28	17745.94
507.46	18068.94
507.63	18200.01
507.81	18136.81
507.98	18256.18
508.16	18068.94
508.33	18286.61
508.50	18082.98
508.68	18232.77
508.85	18408.31
509.03	18321.71
509.20	18249.16
509.38	18787.48
509.55	18553.43
509.73	18148.51
509.90	18625.98
510.08	18476.19
510.25	18508.96
510.42	18721.95
510.60	18745.35
510.77	18679.82
510.95	19073.03
511.12	18890.46
511.30	18607.26
511.47	19323.46
511.64	19070.68
511.82	19714.33
511.99	19286.01
512.17	19585.60
512.34	19323.46
512.51	19468.58
512.69	19559.86
512.86	19454.53
513.04	19620.71
513.21	19763.48
513.38	19606.67
513.56	19775.19
513.73	19765.82
513.90	20266.70
514.08	19660.50
514.25	19789.23
514.43	20240.95
514.60	20018.60
514.77	20037.33
514.95	20301.81
515.12	19960.09
515.29	20208.19
515.47	20360.32
515.64	20432.88
515.81	20638.84
515.99	20271.38
516.16	20613.10
516.33	20400.11
516.51	20886.94
516.68	20622.46
516.85	20514.80
517.03	20711.40
517.20	20861.19
517.37	20835.45
517.54	20615.44
517.72	21069.50
517.89	20676.29
518.06	21039.08
518.24	20798.00
518.41	21003.97
518.58	21231.00
518.75	21261.43
518.93	21425.26
519.10	20973.54
519.27	21352.71
519.45	21240.36
519.62	21425.26
519.79	21472.07
519.96	21483.78
520.14	21748.26
520.31	21490.80
520.48	21783.37
520.65	21687.40
520.83	21919.12
521.00	21572.72
521.17	21853.58
521.34	21813.79
521.52	22120.40
521.69	21781.03
521.86	22043.17
522.03	22054.87
522.20	22185.94
522.38	22026.78
522.55	22061.89
522.72	22129.77
522.89	22319.35
523.07	22642.34
523.24	22824.90
523.41	22501.91
523.58	22293.60
523.75	22593.19
523.92	22537.02
524.10	22726.60
524.27	22551.06
524.44	22721.92
524.61	22375.52
524.78	22808.52
524.96	22530.00
525.13	22768.73
525.30	22890.44
525.47	22815.54
525.64	22944.27
525.81	22841.29
525.98	23175.98
526.16	23065.98
526.33	23054.28
526.50	23344.50
526.67	23023.85
526.84	23112.79
527.01	23077.68
527.18	23365.57
527.36	23391.31
527.53	23616.01
527.70	23798.57
527.87	23695.58
528.04	23723.67
528.21	23838.36
528.38	23868.78
528.55	23585.58
528.72	23440.47
528.89	23953.04
529.07	23681.54
529.24	23805.59
529.41	23943.68
529.58	23641.75
529.75	23990.49
529.92	24006.87
530.09	23988.15
530.26	24166.03
530.43	23826.65
530.60	24264.33
530.77	24060.71
530.94	24180.07
531.11	24130.92
531.28	24135.60
531.46	24182.42
531.63	24149.65
531.80	24531.15
531.97	24524.13
532.14	24306.46
532.31	24283.06
532.48	24706.70
532.65	24573.28
532.82	24559.24
532.99	24299.44
533.16	24680.95
533.33	24753.51
533.50	25216.93
533.67	24858.83
533.84	24711.38
534.01	24294.76
534.18	24634.14
534.35	24980.54
534.52	24503.07
534.69	25095.22
534.86	25247.36
535.03	24821.38
535.20	25158.42
535.37	25247.36
535.54	25294.17
535.71	24685.63
535.88	24907.98
536.05	24989.90
536.22	25394.81
536.38	25188.85
536.55	25338.64
536.72	25247.36
536.89	25301.19
537.06	25378.43
537.23	25736.53
537.40	25376.09
537.57	25359.70
537.74	25219.27
537.91	25607.80
538.08	25818.45
538.25	25846.54
538.42	25928.45
538.59	26087.61
538.75	25958.88
538.92	25350.34
539.09	25979.95
539.26	25755.26
539.43	25879.30
539.60	26008.03
539.77	25771.64
539.94	25998.67
540.11	26202.30
540.28	26064.21
540.44	25998.67
540.61	25785.68
540.78	26221.02
540.95	26225.70
541.12	26073.57
541.29	26284.22
541.46	26359.11
541.62	26118.04
541.79	26370.82
541.96	26199.96
542.13	26316.98
542.30	26258.47
542.47	26661.04
542.63	26885.73
542.80	26630.62
542.97	26984.04
543.14	26361.45
543.31	26735.94
543.48	26953.61
543.64	26892.76
543.81	27161.92
543.98	26696.15
544.15	26710.19
544.32	27180.64
544.48	27094.04
544.65	27147.87
544.82	26923.18
544.99	26965.31
545.16	26731.26
545.32	26806.16
545.49	27564.49
545.66	27611.30
545.83	27250.86
546.00	27225.11
546.16	27002.76
546.33	27232.13
546.50	27295.33
546.67	26803.82
546.83	26859.99
547.00	27070.64
547.17	27215.75
547.34	27475.55
547.50	27445.12
547.67	27730.67
547.84	27569.17
548.00	27721.30
548.17	27747.05
548.34	27552.79
548.51	28074.73
548.67	27653.43
548.84	28119.20
549.01	27634.71
549.18	27751.73
549.34	27735.35
549.51	27615.98
549.68	27676.83
549.84	27646.41
550.01	27985.79
550.18	27878.12
550.34	28393.04
550.51	28067.70
550.68	28196.43
550.84	27461.51
551.01	28175.37
551.18	27669.81
551.34	27653.43
551.51	28205.80
551.68	28072.39
551.84	27953.02
552.01	28250.27
552.18	28039.62
552.34	28086.43
552.51	28357.93
552.68	27974.08
552.84	28276.01
553.01	28297.08
553.18	28212.82
553.34	28512.41
553.51	28676.24
553.67	28245.58
553.84	28676.24
554.01	28357.93
554.17	28552.20
554.34	28463.25
554.51	28266.65
554.67	28582.62
554.84	28687.95
555.00	28664.54
555.17	28538.15
555.33	28442.19
555.50	28910.30
555.67	28737.10
555.83	28704.33
556.00	28940.72
556.16	29132.65
556.33	28936.04
556.50	28835.40
556.66	28793.27
556.83	28713.69
556.99	29256.70
557.16	29244.99
557.32	28858.81
557.49	29118.60
557.65	28870.51
557.82	28683.27
557.98	28655.18
558.15	29214.57
558.32	29188.82
558.48	28767.52
558.65	29032.00
558.81	28786.25
558.98	29425.22
559.14	29326.91
559.31	29244.99
559.47	28854.12
559.64	29036.69
559.80	29352.66
559.97	29373.72
560.13	29436.92
560.30	29649.91
560.46	29298.83
560.63	29343.30
560.79	29420.53
560.96	29287.12
561.12	29326.91
561.29	29177.12
561.45	29394.79
561.61	29315.21
561.78	29132.65
561.94	29404.15
562.11	29682.67
562.27	29600.76
562.44	29631.18
562.60	29441.60
562.77	29195.84
562.93	28999.24
563.10	29820.77
563.26	29261.38
563.42	29759.91
563.59	29605.44
563.75	29652.25
563.92	29692.04
564.08	29659.27
564.24	29474.37
564.41	29696.72
564.57	29539.90
564.74	29596.07
564.90	29879.28
565.07	29965.88
565.23	29783.32
565.39	29081.16
565.56	29972.90
565.72	29392.45
565.88	29532.88
566.05	29511.81
566.21	29659.27
566.38	29621.82
566.54	30003.33
566.70	29528.20
566.87	30192.91
567.03	29827.79
567.19	30008.01
567.36	29795.02
567.52	29930.77
567.68	29949.50
567.85	29788.00
568.01	29731.83
568.17	29919.07
568.34	30005.67
568.50	30073.54
568.66	29937.79
568.83	30171.85
568.99	29773.95
569.15	29804.38
569.32	29734.17
569.48	29670.97
569.64	30171.85
569.81	30188.23
569.97	30129.72
570.13	30071.20
570.30	29766.93
570.46	29832.47
570.62	29750.55
570.78	29668.63
570.95	29593.73
571.11	30043.12
571.27	29809.06
571.43	29799.70
571.60	30132.06
571.76	30597.82
571.92	30504.20
572.09	30082.91
572.25	30073.54
572.41	30307.60
572.57	30396.54
572.74	30331.00
572.90	30141.42
573.06	29986.94
573.22	30340.36
573.38	30281.85
573.55	30333.34
573.71	30424.62
573.87	30448.03
574.03	30197.59
574.20	30066.52
574.36	30242.06
574.52	30232.70
574.68	29832.47
574.84	30185.89
575.01	30756.98
575.17	30529.95
575.33	30302.92
575.49	30235.04
575.65	30597.82
575.82	30349.73
575.98	30359.09
576.14	30565.06
576.30	30036.09
576.46	30373.13
576.62	30050.14
576.79	30270.15
576.95	29830.13
577.11	30298.23
577.27	30291.21
577.43	30448.03
577.59	30253.76
577.75	30239.72
577.92	29792.68
578.08	30071.20
578.24	30415.26
578.40	30277.17
578.56	30366.11
578.72	30249.08
578.88	30501.86
579.04	30293.55
579.21	30377.81
579.37	30309.94
579.53	30796.77
579.69	30448.03
579.85	30232.70
580.01	30345.05
580.17	30101.63
580.33	30391.86
580.49	30066.52
580.65	30129.72
580.82	30691.44
580.98	30518.25
581.14	30235.04
581.30	30520.59
581.46	30483.14
581.62	30558.03
581.78	30431.65
581.94	30525.27
582.10	30277.17
582.26	30380.15
582.42	30583.78
582.58	30918.48
582.74	30415.26
582.90	30249.08
583.06	30497.18
583.22	30410.58
583.38	30410.58
583.54	30333.34
583.70	30436.33
583.86	30644.63
584.02	30607.19
584.18	30361.43
584.34	30387.18
584.50	31007.42
584.66	30618.89
584.82	30213.98
584.98	30756.98
585.14	30363.77
585.30	30202.27
585.46	30649.32
585.62	30375.47
585.78	30450.37
585.94	30246.74
586.10	30246.74
586.26	30249.08
586.42	30661.02
586.58	30579.10
586.74	30625.91
586.90	30436.33
587.06	30438.67
587.22	30602.50
587.38	30473.78
587.54	30452.71
587.70	30661.02
587.86	31019.12
588.02	31166.57
588.18	31030.82
588.34	31056.57
588.49	30684.42
588.65	30431.65
588.81	30754.64
588.97	30747.62
589.13	30558.03
589.29	30703.15
589.45	30958.27
589.61	30560.37
589.77	30885.71
589.93	30946.56
590.08	31285.94
590.24	30890.39
590.40	31140.83
590.56	31068.27
590.72	30796.77
590.88	30419.94
591.04	30677.40
591.20	30902.09
591.35	31229.77
591.51	31693.19
591.67	31199.34
591.83	30946.56
591.99	30925.50
