SpectraSuite Data File
++++++++++++++++++++++++++++++++++++
Date: Fri Oct 18 13:58:26 GMT-05:00 2013
User: bianchi
Dark Spectrum Present: No
Reference Spectrum Present: No
Number of Sampled Component Spectra: 1
Spectrometers: USB2+H05261
Integration Time (usec): 50000 (USB2+H05261)
Spectra Averaged: 1 (USB2+H05261)
Boxcar Smoothing: 0 (USB2+H05261)
Correct for Electrical Dark: No (USB2+H05261)
Strobe/Lamp Enabled: No (USB2+H05261)
Correct for Detector Non-linearity: No (USB2+H05261)
Correct for Stray Light: No (USB2+H05261)
Number of Pixels in Processed Spectrum: 2048
>>>>>Begin Processed Spectral Data<<<<<
365.73	0.00
365.92	0.00
366.12	0.00
366.32	0.00
366.52	0.00
366.72	0.00
366.91	0.00
367.11	0.00
367.31	0.00
367.51	0.00
367.70	0.00
367.90	0.00
368.10	0.00
368.30	0.00
368.49	0.00
368.69	0.00
368.89	0.00
369.09	0.00
369.28	0.00
369.48	0.00
369.68	0.00
369.87	0.00
370.07	0.00
370.27	0.00
370.47	0.00
370.66	121.71
370.86	77.24
371.06	98.30
371.25	189.58
371.45	135.75
371.65	112.35
371.84	196.60
372.04	191.92
372.24	119.37
372.44	119.37
372.63	297.25
372.83	159.16
373.03	217.67
373.22	243.42
373.42	152.13
373.62	224.69
373.81	229.37
374.01	201.29
374.21	177.88
374.40	243.42
374.60	259.80
374.79	191.92
374.99	301.93
375.19	304.27
375.38	315.97
375.58	236.39
375.78	262.14
375.97	341.72
376.17	374.49
376.37	266.82
376.56	243.42
376.76	250.44
376.95	217.67
377.15	306.61
377.35	259.80
377.54	346.40
377.74	217.67
377.93	283.20
378.13	241.08
378.33	252.78
378.52	234.05
378.72	238.73
378.91	325.33
379.11	243.42
379.31	315.97
379.50	337.04
379.70	292.57
379.89	346.40
380.09	322.99
380.28	285.55
380.48	334.70
380.68	334.70
380.87	318.31
381.07	346.40
381.26	334.70
381.46	360.44
381.65	269.16
381.85	330.02
382.04	287.89
382.24	301.93
382.43	322.99
382.63	386.19
382.83	372.15
383.02	386.19
383.22	348.74
383.41	318.31
383.61	376.83
383.80	362.78
384.00	344.06
384.19	325.33
384.39	400.23
384.58	383.85
384.78	369.80
384.97	362.78
385.17	374.49
385.36	393.21
385.56	365.12
385.75	365.12
385.95	416.62
386.14	440.02
386.34	414.27
386.53	383.85
386.72	346.40
386.92	404.91
387.11	472.79
387.31	433.00
387.50	447.04
387.70	484.49
387.89	449.38
388.09	475.13
388.28	414.27
388.48	362.78
388.67	475.13
388.86	411.93
389.06	454.06
389.25	416.62
389.45	355.76
389.64	444.70
389.84	510.24
390.03	425.98
390.22	491.51
390.42	505.56
390.61	458.74
390.81	421.30
391.00	514.92
391.19	589.82
391.39	468.11
391.58	512.58
391.78	545.34
391.97	514.92
392.16	514.92
392.36	535.98
392.55	543.00
392.75	437.68
392.94	463.43
393.13	559.39
393.33	461.09
393.52	599.18
393.71	589.82
393.91	596.84
394.10	578.11
394.29	730.25
394.49	540.66
394.68	503.22
394.88	510.24
395.07	641.31
395.26	655.35
395.46	580.45
395.65	587.47
395.84	585.13
396.04	629.60
396.23	601.52
396.42	533.64
396.62	681.10
396.81	653.01
397.00	636.63
397.19	610.88
397.39	784.08
397.58	725.57
397.77	660.03
397.97	732.59
398.16	636.63
398.35	704.50
398.55	664.71
398.74	678.76
398.93	741.95
399.12	711.52
399.32	692.80
399.51	655.35
399.70	690.46
399.90	744.29
400.09	720.88
400.28	723.23
400.47	805.14
400.67	753.65
400.86	767.70
401.05	753.65
401.24	765.36
401.44	720.88
401.63	833.23
401.82	882.38
402.01	746.63
402.21	873.02
402.40	758.33
402.59	835.57
402.78	847.27
402.97	851.96
403.17	828.55
403.36	830.89
403.55	823.87
403.74	924.51
403.93	898.77
404.13	903.45
404.32	943.24
404.51	873.02
404.70	924.51
404.89	835.57
405.09	994.73
405.28	896.43
405.47	940.90
405.66	1116.44
405.85	987.71
406.05	931.53
406.24	976.00
406.43	940.90
406.62	971.32
406.81	1041.54
407.00	985.37
407.20	1074.31
407.39	1015.79
407.58	1114.10
407.77	1043.88
407.96	1109.41
408.15	1132.82
408.34	1078.99
408.54	1109.41
408.73	1067.28
408.92	1102.39
409.11	1128.14
409.30	1107.07
409.49	1139.84
409.68	1149.20
409.87	1125.80
410.07	1109.41
410.26	1015.79
410.45	1266.23
410.64	1142.18
410.83	1172.61
411.02	1135.16
411.21	1179.63
411.40	1280.27
411.59	1146.86
411.78	1221.76
411.98	1238.14
412.17	1343.47
412.36	1310.70
412.55	1284.95
412.74	1322.40
412.93	1437.09
413.12	1313.04
413.31	1369.21
413.50	1355.17
413.69	1376.24
413.88	1453.47
414.07	1390.28
414.26	1378.58
414.45	1556.46
414.64	1441.77
414.83	1465.18
415.02	1554.12
415.22	1474.54
415.41	1526.03
415.60	1535.39
415.79	1455.81
415.98	1610.29
416.17	1565.82
416.36	1636.03
416.55	1605.61
416.74	1600.93
416.93	1605.61
417.12	1626.67
417.31	1699.23
417.50	1664.12
417.69	1783.49
417.88	1755.40
418.07	1680.50
418.26	1701.57
418.45	1774.13
418.64	1844.34
418.83	1806.89
419.02	1666.46
419.21	1729.66
419.39	1755.40
419.58	1715.61
419.77	1776.47
419.96	1771.79
420.15	1881.79
420.34	1802.21
420.53	1846.68
420.72	1921.58
420.91	1949.67
421.10	1952.01
421.29	1830.30
421.48	1860.73
421.67	1963.71
421.86	2010.52
422.05	1907.54
422.24	2031.58
422.43	1975.41
422.61	1998.82
422.80	1966.05
422.99	1949.67
423.18	2062.01
423.37	2019.88
423.56	1935.62
423.75	2005.84
423.94	2017.54
424.13	1912.22
424.32	1916.90
424.50	1966.05
424.69	2017.54
424.88	2071.37
425.07	1973.07
425.26	2050.31
425.45	1966.05
425.64	2054.99
425.83	2101.80
426.01	2008.18
426.20	1933.28
426.39	2132.23
426.58	2069.03
426.77	1966.05
426.96	2073.71
427.15	2188.40
427.33	2146.27
427.52	2078.40
427.71	2193.08
427.90	2143.93
428.09	2256.28
428.28	2076.06
428.46	2129.89
428.65	2237.55
428.84	2218.83
429.03	2291.38
429.22	2172.02
429.40	2298.41
429.59	2214.15
429.78	2190.74
429.97	2160.31
430.16	2136.91
430.34	2230.53
430.53	2265.64
430.72	2289.04
430.91	2293.72
431.10	2197.76
431.28	2298.41
431.47	2284.36
431.66	2389.69
431.85	2307.77
432.03	2466.92
432.22	2429.48
432.41	2431.82
432.60	2370.96
432.79	2464.58
432.97	2457.56
433.16	2370.96
433.35	2476.29
433.54	2520.76
433.72	2413.09
433.91	2396.71
434.10	2581.61
434.28	2558.21
434.47	2392.03
434.66	2626.08
434.85	2572.25
435.03	2696.30
435.22	2672.89
435.41	2644.81
435.59	2715.02
435.78	2686.94
435.97	2597.99
436.16	2541.82
436.34	2590.97
436.53	2569.91
436.72	2696.30
436.90	2644.81
437.09	2733.75
437.28	2724.38
437.46	2731.41
437.65	2864.82
437.84	2806.30
438.02	2794.60
438.21	2871.84
438.40	2682.25
438.58	2869.50
438.77	2902.26
438.96	2930.35
439.14	2998.23
439.33	3068.44
439.52	2834.39
439.70	2995.89
439.89	3009.93
440.08	3021.63
440.26	3012.27
440.45	3117.59
440.63	2953.76
440.82	2953.76
441.01	3183.13
441.19	3103.55
441.38	3122.27
441.57	3126.96
441.75	3279.09
441.94	3176.11
442.12	3300.16
442.31	3293.13
442.50	3279.09
442.68	3286.11
442.87	3316.54
443.05	3318.88
443.24	3400.80
443.43	3363.35
443.61	3407.82
443.80	3496.76
443.98	3281.43
444.17	3243.98
444.35	3297.81
444.54	3316.54
444.73	3220.58
444.91	3342.28
445.10	3346.97
445.28	3361.01
445.47	3384.41
445.65	3337.60
445.84	3344.63
446.02	3428.88
446.21	3344.63
446.39	3421.86
446.58	3536.55
446.77	3494.42
446.95	3426.54
447.14	3428.88
447.32	3513.14
447.51	3330.58
447.69	3431.23
447.88	3372.71
448.06	3473.36
448.25	3510.80
448.43	3358.67
448.62	3597.40
448.80	3421.86
448.99	3662.94
449.17	3559.95
449.36	3576.34
449.54	3564.64
449.73	3705.07
449.91	3630.17
450.10	3658.26
450.28	3728.47
450.46	3775.28
450.65	3672.30
450.83	3728.47
451.02	3644.21
451.20	3672.30
451.39	3878.27
451.57	3744.86
451.76	3679.32
451.94	3751.88
452.13	3761.24
452.31	3763.58
452.49	3798.69
452.68	3854.86
452.86	3772.94
453.05	3857.20
453.23	3927.42
453.42	3840.82
453.60	3927.42
453.78	3852.52
453.97	3904.01
454.15	3812.73
454.34	3974.23
454.52	3983.59
454.70	3988.27
454.89	4173.18
455.07	4093.60
455.26	4056.15
455.44	4037.42
455.62	4077.21
455.81	4124.02
455.99	4058.49
456.17	4095.94
456.36	4016.36
456.54	4348.72
456.73	4098.28
456.91	4187.22
457.09	4299.56
457.28	4327.65
457.46	4259.78
457.64	4369.78
457.83	4292.54
458.01	4224.67
458.19	4369.78
458.38	4278.50
458.56	4507.87
458.74	4278.50
458.93	4224.67
459.11	4327.65
459.29	4437.66
459.48	4489.15
459.66	4262.12
459.84	4589.79
460.03	4552.34
460.21	4521.92
460.39	4557.02
460.57	4613.20
460.76	4585.11
460.94	4617.88
461.12	4512.55
461.31	4566.39
461.49	4603.83
461.67	4447.02
461.85	4748.95
462.04	4645.96
462.22	4716.18
462.40	4765.33
462.59	4791.08
462.77	4844.91
462.95	4643.62
463.13	4638.94
463.32	4711.50
463.50	4851.93
463.68	4774.69
463.86	4716.18
464.05	4793.42
464.23	4770.01
464.41	5048.54
464.59	4762.99
464.78	4835.55
464.96	4840.23
465.14	4868.31
465.32	5027.47
465.50	4877.68
465.69	5025.13
465.87	5039.17
466.05	4983.00
466.23	5043.85
466.41	4940.87
466.60	5046.20
466.78	4968.96
466.96	5015.77
467.14	5025.13
467.32	5153.86
467.51	5053.22
467.69	4997.04
467.87	4964.28
468.05	5305.99
468.23	5027.47
468.41	5172.58
468.60	5032.15
468.78	5329.40
468.96	5055.56
469.14	5085.98
469.32	5362.17
469.50	5104.71
469.69	5273.23
469.87	5390.25
470.05	5336.42
470.23	5282.59
470.41	5413.66
470.59	5376.21
470.77	5362.17
470.95	5355.15
471.14	5490.90
471.32	5247.48
471.50	5497.92
471.68	5568.13
471.86	5788.14
472.04	5647.71
472.22	5771.76
472.40	5614.95
472.58	5636.01
472.77	5804.53
472.95	5764.74
473.13	6031.56
473.31	5853.68
473.49	5832.62
473.67	5757.72
473.85	5933.26
474.03	5856.02
474.21	5933.26
474.39	5879.43
474.57	6188.38
474.75	6080.71
474.93	6127.52
475.12	6019.86
475.30	6127.52
475.48	6328.81
475.66	6368.60
475.84	6293.70
476.02	6434.13
476.20	6338.17
476.38	6319.45
476.56	6595.63
476.74	6567.54
476.92	6576.91
477.10	6565.20
477.28	6691.59
477.46	6628.40
477.64	6733.72
477.82	6747.76
478.00	6883.52
478.18	6939.69
478.36	7002.88
478.54	7122.25
478.72	6796.92
478.90	7030.97
479.08	7110.55
479.26	7311.83
479.44	7241.62
479.62	7178.42
479.80	7328.22
479.98	7384.39
480.16	7566.95
480.34	7463.97
480.52	7576.31
480.70	7693.34
480.88	7588.02
481.06	7573.97
481.24	7683.98
481.41	7688.66
481.59	7784.62
481.77	7793.98
481.95	7997.61
482.13	8311.24
482.31	8102.93
482.49	8203.58
482.67	8245.71
482.85	8236.35
483.03	8313.58
483.21	8313.58
483.39	8573.38
483.57	8381.46
483.74	8613.17
483.92	8683.39
484.10	8699.77
484.28	8858.93
484.46	8933.82
484.64	9083.62
484.82	8798.07
485.00	8999.36
485.18	9324.69
485.35	9525.98
485.53	9280.22
485.71	9198.31
485.89	9441.72
486.07	9467.47
486.25	9467.47
486.43	9755.35
486.61	9884.08
486.78	9888.76
486.96	9877.06
487.14	10153.24
487.32	9975.36
487.50	10087.71
487.68	10078.35
487.85	10167.29
488.03	10354.53
488.21	10469.22
488.39	10579.22
488.57	10611.99
488.75	10668.16
488.92	10717.31
489.10	10808.59
489.28	11105.84
489.46	11037.97
489.64	10967.75
489.81	11080.10
489.99	11199.46
490.17	11192.44
490.35	11447.56
490.53	11651.19
490.70	11667.57
490.88	11396.07
491.06	11637.14
491.24	11466.28
491.41	11784.60
491.59	11800.98
491.77	11709.70
491.95	12121.63
492.13	12252.70
492.30	12360.37
492.48	12166.10
492.66	12084.19
492.84	12304.20
493.01	12418.88
493.19	12617.83
493.37	12564.00
493.54	12596.76
493.72	12514.84
493.90	12870.61
494.08	12821.45
494.25	13226.37
494.43	13118.70
494.61	13371.48
494.79	13153.81
494.96	13151.47
495.14	13429.99
495.32	13406.59
495.49	13455.74
495.67	13434.68
495.85	13575.11
496.02	13816.18
496.20	13816.18
496.38	13689.79
496.55	13657.03
496.73	14134.50
496.91	14061.94
497.09	14064.28
497.26	14029.17
497.44	14246.84
497.62	14001.08
497.79	14436.42
497.97	14324.08
498.14	14579.20
498.32	14707.93
498.50	14941.98
498.67	14719.63
498.85	14916.23
499.03	14864.74
499.20	14724.31
499.38	14956.02
499.56	15147.95
499.73	14946.66
499.91	15470.94
500.08	15445.20
500.26	15250.93
500.44	15353.91
500.61	15503.71
500.79	15363.28
500.97	15391.36
501.14	15721.38
501.32	15435.83
501.49	15838.41
501.67	15513.07
501.84	15901.60
502.02	15543.50
502.20	15901.60
502.37	16074.80
502.55	15948.41
502.72	16187.14
502.90	16273.74
503.07	16121.61
503.25	16168.42
503.43	16416.52
503.60	16292.47
503.78	16299.49
503.95	16325.24
504.13	16493.76
504.30	16353.32
504.48	16325.24
504.65	16673.98
504.83	17043.78
505.01	16795.68
505.18	16758.24
505.36	16975.91
505.53	16994.63
505.71	17025.06
505.88	16908.03
506.06	16432.90
506.23	17308.26
506.41	17064.85
506.58	17371.46
506.76	17235.70
506.93	17160.81
507.11	17158.47
507.28	17465.08
507.46	17429.97
507.63	17549.34
507.81	17680.41
507.98	17439.33
508.16	17619.55
508.33	17804.46
508.50	17507.21
508.68	17888.71
508.85	17795.09
509.03	17982.34
509.20	17937.87
509.38	17923.82
509.55	17771.69
509.73	18207.03
509.90	18597.90
510.08	17965.95
510.25	18214.05
510.42	18420.02
510.60	18499.59
510.77	18658.75
510.95	18558.11
511.12	18586.19
511.30	18258.52
511.47	18899.83
511.64	18867.06
511.82	19026.21
511.99	18691.52
512.17	18988.77
512.34	18916.21
512.51	19154.94
512.69	19002.81
512.86	19159.63
513.04	19548.15
513.21	19344.53
513.38	19513.05
513.56	19562.20
513.73	18951.32
513.90	19431.13
514.08	19337.51
514.25	19463.90
514.43	19730.72
514.60	19679.22
514.77	19632.41
514.95	19559.86
515.12	19592.62
515.29	19726.04
515.47	19744.76
515.64	19871.15
515.81	19754.12
515.99	20147.33
516.16	20603.74
516.33	20187.12
516.51	19960.09
516.68	19981.15
516.85	20074.77
517.03	20067.75
517.20	20615.44
517.37	19894.55
517.54	20327.55
517.72	20369.68
517.89	20467.98
518.06	19988.18
518.24	20264.36
518.41	20243.29
518.58	20568.63
518.75	20697.36
518.93	20671.61
519.10	20662.25
519.27	20926.73
519.45	20690.34
519.62	20826.09
519.79	20985.24
519.96	21055.46
520.14	21139.72
520.31	20950.14
520.48	21041.42
520.65	21120.99
520.83	21167.80
521.00	21539.95
521.17	21209.93
521.34	21350.37
521.52	21680.38
521.69	21404.20
521.86	21284.83
522.03	21769.32
522.20	21539.95
522.38	21556.33
522.55	21820.81
522.72	21628.89
522.89	21577.40
523.07	21869.97
523.24	21975.29
523.41	22164.87
523.58	21785.71
523.75	22038.48
523.92	21963.59
524.10	21743.58
524.27	21888.69
524.44	22104.02
524.61	22118.06
524.78	22319.35
524.96	22302.96
525.13	22148.49
525.30	22291.26
525.47	22120.40
525.64	22118.06
525.81	22448.08
525.98	22766.39
526.16	22436.38
526.33	22319.35
526.50	22768.73
526.67	22757.03
526.84	23044.91
527.01	22787.46
527.18	22644.68
527.36	23009.81
527.53	22902.14
527.70	23042.57
527.87	23229.82
528.04	22799.16
528.21	23183.01
528.38	23063.64
528.55	23073.00
528.72	22852.99
528.89	23386.63
529.07	23220.45
529.24	23014.49
529.41	23391.31
529.58	22925.55
529.75	23325.78
529.92	23300.03
530.09	23344.50
530.26	23508.34
530.43	23711.97
530.60	23396.00
530.77	23777.50
530.94	23440.47
531.11	23735.37
531.28	23564.51
531.46	23601.96
531.63	23929.64
531.80	23793.89
531.97	23955.38
532.14	23995.17
532.31	23892.19
532.48	24025.60
532.65	23861.76
532.82	23868.78
532.99	24053.69
533.16	23985.81
533.33	24467.96
533.50	24416.47
533.67	24114.54
533.84	24238.59
534.01	24079.43
534.18	24250.29
534.35	24215.18
534.52	24306.46
534.69	24435.19
534.86	24959.47
535.03	24498.39
535.20	24442.21
535.37	24372.00
535.54	24652.86
535.71	23990.49
535.88	24655.20
536.05	24254.97
536.22	25102.25
536.38	24868.19
536.55	24968.84
536.72	25081.18
536.89	24535.84
537.06	24821.38
537.23	24400.08
537.40	24720.74
537.57	24790.95
537.74	24823.72
537.91	25331.62
538.08	24900.96
538.25	25017.99
538.42	25221.61
538.59	25259.06
538.75	25017.99
538.92	25113.95
539.09	25235.66
539.26	24985.22
539.43	25146.72
539.60	25436.94
539.77	25322.26
539.94	25469.71
540.11	25511.84
540.28	25483.75
540.44	25462.69
540.61	25455.67
540.78	25453.33
540.95	25088.20
541.12	25516.52
541.29	25376.09
541.46	25628.87
541.62	25450.99
541.79	25390.13
541.96	25551.63
542.13	25474.39
542.30	26075.91
542.47	25926.11
542.63	26134.42
542.80	25755.26
542.97	26230.38
543.14	26087.61
543.31	25874.62
543.48	26005.69
543.64	26148.46
543.81	26096.97
543.98	26391.88
544.15	26087.61
544.32	26230.38
544.48	26555.72
544.65	26148.46
544.82	26682.11
544.99	26122.72
545.16	26359.11
545.32	26162.51
545.49	26515.93
545.66	26562.74
545.83	26497.20
546.00	26251.45
546.16	26441.03
546.33	26445.71
546.50	26637.64
546.67	26775.73
546.83	26349.75
547.00	26490.18
547.17	26742.96
547.34	26902.12
547.50	26836.58
547.67	26937.23
547.84	26560.40
548.00	27161.92
548.17	27204.05
548.34	27023.83
548.51	26871.69
548.67	26855.31
548.84	27173.62
549.01	26967.65
549.18	26883.39
549.34	26656.36
549.51	27044.89
549.68	26850.63
549.84	27164.26
550.01	27278.94
550.18	27168.94
550.34	27178.30
550.51	27402.99
550.68	27648.75
550.84	27033.19
551.01	27225.11
551.18	27122.13
551.34	26642.32
551.51	27152.55
551.68	26941.91
551.84	27197.02
552.01	27302.35
552.18	27639.39
552.34	27384.27
552.51	27536.40
552.68	27700.24
552.84	27592.58
553.01	27520.02
553.18	27552.79
553.34	27510.66
553.51	28053.66
553.67	27604.28
553.84	27875.78
554.01	27641.73
554.17	27718.96
554.34	27604.28
554.51	27721.30
554.67	27917.91
554.84	27936.63
555.00	27812.59
555.17	27779.82
555.33	27924.93
555.50	28058.34
555.67	27850.03
555.83	27819.61
556.00	28002.17
556.16	28140.26
556.33	28217.50
556.50	28037.28
556.66	28133.24
556.83	28013.87
556.99	28158.99
557.16	28393.04
557.32	28060.68
557.49	28091.11
557.65	28048.98
557.82	27978.76
557.98	28072.39
558.15	28016.21
558.32	28390.70
558.48	27894.50
558.65	28741.78
558.81	28409.42
558.98	28357.93
559.14	28409.42
559.31	28259.63
559.47	28259.63
559.64	28439.85
559.80	28437.51
559.97	28332.18
560.13	28699.65
560.30	28196.43
560.46	28755.82
560.63	28215.16
560.79	28421.13
560.96	28418.78
561.12	28215.16
561.29	28161.33
561.45	28589.64
561.61	28381.34
561.78	28418.78
561.94	28374.31
562.11	28720.71
562.27	28524.11
562.44	28718.37
562.60	28638.80
562.77	28617.73
562.93	28542.83
563.10	28711.35
563.26	28706.67
563.42	29097.54
563.59	28699.65
563.75	28795.61
563.92	28994.56
564.08	28687.95
564.24	28678.58
564.41	28840.08
564.57	28772.21
564.74	28739.44
564.90	29111.58
565.07	28730.08
565.23	28943.06
565.39	29097.54
565.56	29092.86
565.72	28919.66
565.88	29109.24
566.05	28622.41
566.21	28732.42
566.38	28968.81
566.54	29071.79
566.70	29123.29
566.87	29441.60
567.03	29294.14
567.19	29167.76
567.36	28889.23
567.52	29362.02
567.68	29062.43
567.85	28994.56
568.01	29032.00
568.17	28912.64
568.34	29153.71
568.50	29001.58
568.66	29074.13
568.83	29422.87
568.99	29097.54
569.15	29088.18
569.32	29036.69
569.48	28900.94
569.64	29193.50
569.81	29156.05
569.97	29240.31
570.13	29188.82
570.30	29043.71
570.46	29448.62
570.62	29298.83
570.78	29340.96
570.95	29088.18
571.11	29223.93
571.27	28940.72
571.43	29043.71
571.60	29795.02
571.76	29298.83
571.92	29205.20
572.09	29123.29
572.25	29392.45
572.41	29654.59
572.57	29317.55
572.74	29401.81
572.90	29081.16
573.06	29060.09
573.22	29298.83
573.38	29336.27
573.55	29315.21
573.71	29523.52
573.87	29610.12
574.03	29212.23
574.20	29570.33
574.36	29263.72
574.52	29308.19
574.68	29364.36
574.84	29034.35
575.01	29165.42
575.17	29469.69
575.33	29556.28
575.49	29125.63
575.65	29226.27
575.82	29806.72
575.98	29603.10
576.14	29532.88
576.30	29359.68
576.46	29322.23
576.62	29408.83
576.79	29116.26
576.95	29139.67
577.11	29324.57
577.27	29408.83
577.43	29858.21
577.59	29722.46
577.75	29324.57
577.92	29127.97
578.08	29347.98
578.24	29553.94
578.40	29235.63
578.56	29771.61
578.72	29780.98
578.88	29748.21
579.04	29851.19
579.21	29298.83
579.37	29347.98
579.53	29898.00
579.69	29212.23
579.85	29275.42
580.01	29467.34
580.17	29303.51
580.33	29420.53
580.49	29490.75
580.65	29385.43
580.82	29441.60
580.98	29673.31
581.14	29605.44
581.30	29748.21
581.46	29399.47
581.62	29158.39
581.78	29525.86
581.94	29979.92
582.10	29434.58
582.26	29558.63
582.42	29369.04
582.58	29610.12
582.74	29869.92
582.90	29720.12
583.06	29741.19
583.22	29455.64
583.38	29607.78
583.54	29481.39
583.70	29631.18
583.86	29603.10
584.02	29479.05
584.18	29668.63
584.34	29923.75
584.50	29345.64
584.66	29890.98
584.82	29408.83
584.98	29399.47
585.14	29600.76
585.30	29591.39
585.46	29371.38
585.62	29450.96
585.78	29642.88
585.94	29715.44
586.10	29575.01
586.26	29790.34
586.42	29603.10
586.58	29759.91
586.74	29359.68
586.90	29883.96
587.06	29532.88
587.22	29649.91
587.38	29982.26
587.54	29797.36
587.70	29635.86
587.86	29661.61
588.02	29965.88
588.18	30316.96
588.34	29900.34
588.49	29853.53
588.65	29788.00
588.81	29755.23
588.97	30047.80
589.13	29689.70
589.29	29727.14
589.45	29764.59
589.61	29947.15
589.77	29956.52
589.93	29991.62
590.08	29928.43
590.24	30134.40
590.40	30057.16
590.56	29670.97
590.72	29551.60
590.88	29528.20
591.04	29563.31
591.20	30038.44
591.35	30221.00
591.51	30127.38
591.67	30059.50
591.83	30206.95
591.99	30293.55
