SpectraSuite Data File
++++++++++++++++++++++++++++++++++++
Date: Fri Oct 18 13:58:29 GMT-05:00 2013
User: bianchi
Dark Spectrum Present: No
Reference Spectrum Present: No
Number of Sampled Component Spectra: 1
Spectrometers: USB2+H05261
Integration Time (usec): 50000 (USB2+H05261)
Spectra Averaged: 1 (USB2+H05261)
Boxcar Smoothing: 0 (USB2+H05261)
Correct for Electrical Dark: No (USB2+H05261)
Strobe/Lamp Enabled: No (USB2+H05261)
Correct for Detector Non-linearity: No (USB2+H05261)
Correct for Stray Light: No (USB2+H05261)
Number of Pixels in Processed Spectrum: 2048
>>>>>Begin Processed Spectral Data<<<<<
365.73	0.00
365.92	0.00
366.12	0.00
366.32	0.00
366.52	0.00
366.72	0.00
366.91	0.00
367.11	0.00
367.31	0.00
367.51	0.00
367.70	0.00
367.90	0.00
368.10	0.00
368.30	0.00
368.49	0.00
368.69	0.00
368.89	0.00
369.09	0.00
369.28	0.00
369.48	0.00
369.68	0.00
369.87	0.00
370.07	0.00
370.27	0.00
370.47	0.00
370.66	121.71
370.86	154.48
371.06	177.88
371.25	117.03
371.45	126.39
371.65	182.56
371.84	140.43
372.04	119.37
372.24	177.88
372.44	110.01
372.63	231.71
372.83	222.35
373.03	266.82
373.22	212.99
373.42	170.86
373.62	166.18
373.81	166.18
374.01	227.03
374.21	264.48
374.40	198.95
374.60	283.20
374.79	250.44
374.99	220.01
375.19	264.48
375.38	297.25
375.58	205.97
375.78	238.73
375.97	252.78
376.17	283.20
376.37	278.52
376.56	271.50
376.76	198.95
376.95	236.39
377.15	231.71
377.35	210.65
377.54	257.46
377.74	308.95
377.93	294.91
378.13	346.40
378.33	299.59
378.52	271.50
378.72	191.92
378.91	315.97
379.11	208.31
379.31	203.63
379.50	215.33
379.70	292.57
379.89	337.04
380.09	196.60
380.28	325.33
380.48	311.29
380.68	332.36
380.87	292.57
381.07	311.29
381.26	280.86
381.46	351.08
381.65	299.59
381.85	315.97
382.04	264.48
382.24	287.89
382.43	327.68
382.63	264.48
382.83	402.57
383.02	318.31
383.22	367.46
383.41	231.71
383.61	337.04
383.80	409.59
384.00	367.46
384.19	428.32
384.39	372.15
384.58	411.93
384.78	372.15
384.97	313.63
385.17	332.36
385.36	416.62
385.56	367.46
385.75	301.93
385.95	351.08
386.14	463.43
386.34	400.23
386.53	404.91
386.72	334.70
386.92	383.85
387.11	430.66
387.31	437.68
387.50	393.21
387.70	393.21
387.89	421.30
388.09	430.66
388.28	400.23
388.48	402.57
388.67	411.93
388.86	479.81
389.06	381.51
389.25	503.22
389.45	435.34
389.64	458.74
389.84	428.32
390.03	449.38
390.22	491.51
390.42	486.83
390.61	407.25
390.81	425.98
391.00	547.69
391.19	449.38
391.39	484.49
391.58	503.22
391.78	489.17
391.97	535.98
392.16	449.38
392.36	503.22
392.55	557.05
392.75	531.30
392.94	557.05
393.13	585.13
393.33	461.09
393.52	503.22
393.71	552.37
393.91	575.77
394.10	561.73
394.29	559.39
394.49	578.11
394.68	608.54
394.88	596.84
395.07	671.73
395.26	596.84
395.46	573.43
395.65	629.60
395.84	580.45
396.04	676.41
396.23	622.58
396.42	578.11
396.62	573.43
396.81	667.05
397.00	690.46
397.19	638.97
397.39	725.57
397.58	660.03
397.77	674.07
397.97	643.65
398.16	624.92
398.35	720.88
398.55	645.99
398.74	664.71
398.93	739.61
399.12	741.95
399.32	737.27
399.51	702.16
399.70	760.67
399.90	688.12
400.09	779.40
400.28	805.14
400.47	781.74
400.67	744.29
400.86	741.95
401.05	800.46
401.24	770.04
401.44	725.57
401.63	854.30
401.82	805.14
402.01	847.27
402.21	847.27
402.40	901.11
402.59	842.59
402.78	826.21
402.97	816.85
403.17	807.48
403.36	784.08
403.55	929.19
403.74	842.59
403.93	873.02
404.13	978.34
404.32	922.17
404.51	823.87
404.70	912.81
404.89	931.53
405.09	990.05
405.28	851.96
405.47	933.87
405.66	990.05
405.85	961.96
406.05	1064.94
406.24	936.21
406.43	938.55
406.62	1090.69
406.81	917.49
407.00	950.26
407.20	830.89
407.39	1022.81
407.58	1043.88
407.77	1116.44
407.96	1081.33
408.15	1029.84
408.34	1064.94
408.54	1076.65
408.73	1004.09
408.92	1198.35
409.11	1074.31
409.30	1200.69
409.49	1025.15
409.68	1181.97
409.87	1081.33
410.07	1224.10
410.26	1219.42
410.45	1144.52
410.64	1266.23
410.83	1261.55
411.02	1170.27
411.21	1313.04
411.40	1196.01
411.59	1249.85
411.78	1280.27
411.98	1198.35
412.17	1287.29
412.36	1322.40
412.55	1294.32
412.74	1338.79
412.93	1348.15
413.12	1336.45
413.31	1383.26
413.50	1350.49
413.69	1451.13
413.88	1455.81
414.07	1453.47
414.26	1446.45
414.45	1465.18
414.64	1469.86
414.83	1502.62
415.02	1437.09
415.22	1507.30
415.41	1490.92
415.60	1511.99
415.79	1495.60
415.98	1666.46
416.17	1516.67
416.36	1605.61
416.55	1523.69
416.74	1626.67
416.93	1603.27
417.12	1675.82
417.31	1685.19
417.50	1640.72
417.69	1678.16
417.88	1652.42
418.07	1680.50
418.26	1685.19
418.45	1830.30
418.64	1813.92
418.83	1739.02
419.02	1785.83
419.21	1874.77
419.39	1797.53
419.58	1858.39
419.77	1781.15
419.96	1825.62
420.15	1844.34
420.34	1872.43
420.53	1884.13
420.72	2008.18
420.91	1914.56
421.10	1984.77
421.29	1905.20
421.48	1977.75
421.67	1933.28
421.86	1907.54
422.05	1818.60
422.24	1989.46
422.43	1872.43
422.61	2003.50
422.80	1952.01
422.99	1987.11
423.18	1888.81
423.37	2120.53
423.56	1989.46
423.75	2040.95
423.94	2057.33
424.13	1872.43
424.32	1846.68
424.50	2047.97
424.69	1989.46
424.88	2073.71
425.07	2022.22
425.26	1987.11
425.45	2136.91
425.64	2139.25
425.83	1914.56
426.01	2066.69
426.20	2047.97
426.39	2120.53
426.58	2003.50
426.77	1966.05
426.96	2090.10
427.15	2062.01
427.33	2024.56
427.52	2256.28
427.71	2012.86
427.90	2087.76
428.09	2127.55
428.28	2115.84
428.46	2211.81
428.65	2094.78
428.84	2282.02
429.03	2286.70
429.22	2139.25
429.40	2235.21
429.59	2275.00
429.78	2195.42
429.97	2132.23
430.16	2223.51
430.34	2321.81
430.53	2347.56
430.72	2326.49
430.91	2319.47
431.10	2373.30
431.28	2298.41
431.47	2282.02
431.66	2361.60
431.85	2314.79
432.03	2441.18
432.22	2399.05
432.41	2359.26
432.60	2450.54
432.79	2530.12
432.97	2424.80
433.16	2471.61
433.35	2478.63
433.54	2546.50
433.72	2459.90
433.91	2457.56
434.10	2462.24
434.28	2363.94
434.47	2530.12
434.66	2464.58
434.85	2562.89
435.03	2541.82
435.22	2438.84
435.41	2663.53
435.59	2600.34
435.78	2609.70
435.97	2548.84
436.16	2644.81
436.34	2504.37
436.53	2619.06
436.72	2555.86
436.90	2588.63
437.09	2860.13
437.28	2649.49
437.46	2738.43
437.65	2637.78
437.84	2689.28
438.02	2743.11
438.21	2640.12
438.40	2708.00
438.58	2883.54
438.77	2909.29
438.96	2897.58
439.14	2846.09
439.33	2853.11
439.52	2977.16
439.70	3021.63
439.89	3035.67
440.08	2974.82
440.26	2946.73
440.45	2958.44
440.63	2909.29
440.82	3110.57
441.01	2967.80
441.19	3145.68
441.38	3119.93
441.57	3229.94
441.75	3049.72
441.94	3150.36
442.12	3290.79
442.31	3171.43
442.50	3215.90
442.68	3173.77
442.87	3302.50
443.05	3379.73
443.24	3304.84
443.43	3414.84
443.61	3414.84
443.80	3459.31
443.98	3356.33
444.17	3325.90
444.35	3424.20
444.54	3447.61
444.73	3421.86
444.91	3344.63
445.10	3478.04
445.28	3346.97
445.47	3398.46
445.65	3377.39
445.84	3412.50
446.02	3445.27
446.21	3412.50
446.39	3412.50
446.58	3527.19
446.77	3550.59
446.95	3541.23
447.14	3300.16
447.32	3468.67
447.51	3496.76
447.69	3585.70
447.88	3508.46
448.06	3548.25
448.25	3468.67
448.43	3449.95
448.62	3386.76
448.80	3433.57
448.99	3691.02
449.17	3482.72
449.36	3604.42
449.54	3630.17
449.73	3714.43
449.91	3679.32
450.10	3672.30
450.28	3801.03
450.46	3775.28
450.65	3674.64
450.83	3742.52
451.02	3747.20
451.20	3810.39
451.39	3812.73
451.57	3613.79
451.76	3775.28
451.94	3660.60
452.13	3641.87
452.31	3756.56
452.49	3777.62
452.68	3845.50
452.86	3829.12
453.05	3728.47
453.23	3871.25
453.42	3873.59
453.60	3798.69
453.78	3981.25
453.97	3854.86
454.15	3861.88
454.34	3819.75
454.52	3889.97
454.70	3978.91
454.89	3894.65
455.07	3899.33
455.26	3960.19
455.44	4074.87
455.62	4007.00
455.81	3955.51
455.99	4152.11
456.17	4325.31
456.36	4128.70
456.54	4208.28
456.73	4105.30
456.91	4344.03
457.09	4210.62
457.28	4222.33
457.46	4264.46
457.64	4498.51
457.83	4241.05
458.01	4147.43
458.19	4248.07
458.38	4271.48
458.56	4411.91
458.74	4362.76
458.93	4292.54
459.11	4332.33
459.29	4266.80
459.48	4320.63
459.66	4381.48
459.84	4404.89
460.03	4348.72
460.21	4449.36
460.39	4542.98
460.57	4514.89
460.76	4397.87
460.94	4638.94
461.12	4634.26
461.31	4634.26
461.49	4664.69
461.67	4695.11
461.85	4713.84
462.04	4601.49
462.22	4620.22
462.40	4865.97
462.59	4727.88
462.77	4833.21
462.95	4805.12
463.13	4737.24
463.32	4720.86
463.50	4688.09
463.68	4840.23
463.86	4699.80
464.05	4816.82
464.23	4732.56
464.41	4865.97
464.59	4751.29
464.78	4847.25
464.96	4798.10
465.14	4765.33
465.32	4830.87
465.50	4983.00
465.69	4830.87
465.87	4954.91
466.05	4952.57
466.23	4992.36
466.41	4978.32
466.60	5046.20
466.78	4894.06
466.96	5146.84
467.14	5001.72
467.32	5090.67
467.51	5203.01
467.69	4968.96
467.87	4950.23
468.05	5097.69
468.23	4961.94
468.41	5053.22
468.60	5118.75
468.78	5163.22
468.96	5149.18
469.14	5282.59
469.32	5181.95
469.50	5151.52
469.69	5331.74
469.87	5397.28
470.05	5303.65
470.23	5418.34
470.41	5350.46
470.59	5507.28
470.77	5341.10
470.95	5296.63
471.14	5500.26
471.32	5343.44
471.50	5598.56
471.68	5516.64
471.86	5467.49
472.04	5401.96
472.22	5614.95
472.40	5413.66
472.58	5598.56
472.77	5659.42
472.95	5757.72
473.13	5919.21
473.31	5804.53
473.49	5834.96
473.67	5650.05
473.85	5778.78
474.03	5942.62
474.21	5951.98
474.39	5879.43
474.57	5851.34
474.75	6164.97
474.93	6141.57
475.12	6087.73
475.30	6171.99
475.48	6113.48
475.66	6218.80
475.84	6200.08
476.02	6108.80
476.20	6452.86
476.38	6413.07
476.56	6427.11
476.74	6424.77
476.92	6478.60
477.10	6274.98
477.28	6490.31
477.46	6555.84
477.64	6619.04
477.82	6703.29
478.00	6665.85
478.18	6867.13
478.36	6843.73
478.54	7068.42
478.72	6974.80
478.90	7070.76
479.08	7056.72
479.26	7115.23
479.44	7023.95
479.62	7152.68
479.80	7311.83
479.98	7288.43
480.16	7452.27
480.34	7318.86
480.52	7459.29
480.70	7824.41
480.88	7386.73
481.06	7421.84
481.24	7419.50
481.41	7665.25
481.59	7978.89
481.77	7995.27
481.95	8035.06
482.13	7964.84
482.31	8030.38
482.49	8119.32
482.67	8152.09
482.85	8390.82
483.03	8369.76
483.21	8355.71
483.39	8339.33
483.57	8362.73
483.74	8194.22
483.92	8641.26
484.10	8580.40
484.28	8903.40
484.46	8828.50
484.64	9303.63
484.82	8840.20
485.00	9064.89
485.18	9104.68
485.35	9338.74
485.53	9301.29
485.71	9167.88
485.89	9497.89
486.07	9537.68
486.25	9334.06
486.43	9591.52
486.61	9713.22
486.78	9753.01
486.96	9940.26
487.14	10061.96
487.32	9916.85
487.50	9923.87
487.68	10134.52
487.85	10160.27
488.03	10389.64
488.21	10413.04
488.39	10565.18
488.57	10457.51
488.75	10710.29
488.92	10799.23
489.10	10832.00
489.28	10874.13
489.46	11040.31
489.64	10920.94
489.81	11351.60
489.99	11234.57
490.17	11353.94
490.35	11337.56
490.53	11538.84
490.70	11590.33
490.88	11566.93
491.06	11733.11
491.24	11585.65
491.41	11726.08
491.59	11836.09
491.77	11740.13
491.95	11901.62
492.13	12145.04
492.30	11793.96
492.48	11988.22
492.66	12135.68
492.84	12231.64
493.01	12306.54
493.19	12435.27
493.37	12437.61
493.54	12720.81
493.72	12599.10
493.90	12528.89
494.08	12903.37
494.25	12748.90
494.43	12884.65
494.61	13139.77
494.79	13125.72
494.96	13114.02
495.14	13254.45
495.32	13422.97
495.49	13266.16
495.67	13390.20
495.85	13657.03
496.02	13642.98
496.20	13619.58
496.38	13769.37
496.55	13736.60
496.73	13944.91
496.91	13898.10
497.09	14274.93
497.26	14188.33
497.44	14195.35
497.62	14022.15
497.79	14293.65
497.97	14141.52
498.14	14450.47
498.32	14483.24
498.50	14881.13
498.67	14941.98
498.85	14714.95
499.03	14356.85
499.20	14949.00
499.38	15000.49
499.56	14949.00
499.73	15257.95
499.91	14927.94
500.08	15033.26
500.26	14927.94
500.44	15236.89
500.61	15269.66
500.79	15424.13
500.97	15492.01
501.14	15594.99
501.32	15459.24
501.49	15665.21
501.67	15658.18
501.84	15864.15
502.02	15775.21
502.20	15704.99
502.37	16063.10
502.55	15868.83
502.72	16257.36
502.90	15899.26
503.07	15798.62
503.25	16018.63
503.43	16170.76
503.60	16332.26
503.78	16484.39
503.95	16409.50
504.13	16425.88
504.30	16336.94
504.48	16416.52
504.65	16575.67
504.83	16599.08
505.01	16816.75
505.18	16854.20
505.36	16814.41
505.53	16659.93
505.71	16788.66
505.88	17088.25
506.06	16671.64
506.23	16912.71
506.41	17139.74
506.58	17172.51
506.76	17053.14
506.93	17186.55
507.11	17240.39
507.28	17013.35
507.46	16954.84
507.63	17397.20
507.81	17792.75
507.98	17469.76
508.16	17481.46
508.33	17345.71
508.50	17860.63
508.68	17729.56
508.85	17802.11
509.03	17755.30
509.20	17933.18
509.38	18104.04
509.55	18162.56
509.73	18038.51
509.90	18071.28
510.08	18265.54
510.25	18075.96
510.42	18188.30
510.60	18384.91
510.77	18202.35
510.95	18520.66
511.12	18328.74
511.30	18284.26
511.47	18574.49
511.64	18761.73
511.82	18916.21
511.99	18651.73
512.17	18773.44
512.34	18953.66
512.51	18862.38
512.69	19026.21
512.86	18932.59
513.04	19070.68
513.21	18958.34
513.38	19255.59
513.56	19466.24
513.73	19138.56
513.90	19344.53
514.08	19103.45
514.25	19435.81
514.43	19424.11
514.60	19283.67
514.77	19506.02
514.95	19470.92
515.12	19424.11
515.29	19482.62
515.47	19782.21
515.64	19740.08
515.81	19800.93
515.99	19950.73
516.16	20229.25
516.33	20205.84
516.51	19845.40
516.68	20137.97
516.85	20166.06
517.03	20250.32
517.20	19943.70
517.37	20255.00
517.54	19906.26
517.72	20283.08
517.89	20374.36
518.06	20374.36
518.24	20477.35
518.41	20304.15
518.58	20355.64
518.75	20327.55
518.93	20622.46
519.10	20486.71
519.27	20760.55
519.45	20790.98
519.62	20975.88
519.79	20744.17
519.96	20692.68
520.14	21064.82
520.31	21219.30
520.48	21039.08
520.65	20690.34
520.83	20929.07
521.00	21050.78
521.17	21315.26
521.34	21102.27
521.52	21170.15
521.69	21429.94
521.86	21348.03
522.03	21553.99
522.20	21472.07
522.38	21462.71
522.55	21385.47
522.72	21394.84
522.89	21448.67
523.07	21823.16
523.24	21724.85
523.41	21802.09
523.58	21748.26
523.75	22054.87
523.92	21893.37
524.10	22284.24
524.27	21884.01
524.44	22174.24
524.61	22225.73
524.78	22171.89
524.96	22073.59
525.13	22305.31
525.30	21935.50
525.47	21958.91
525.64	22258.49
525.81	22551.06
525.98	22661.07
526.16	22270.20
526.33	22459.78
526.50	22647.02
526.67	22558.08
526.84	22752.35
527.01	22534.68
527.18	22534.68
527.36	22707.88
527.53	22984.06
527.70	23246.20
527.87	22932.57
528.04	22855.33
528.21	22857.67
528.38	23089.38
528.55	22965.34
528.72	23026.19
528.89	23321.10
529.07	22941.93
529.24	23054.28
529.41	23349.18
529.58	23370.25
529.75	22913.84
529.92	23342.16
530.09	23218.11
530.26	23463.87
530.43	23700.26
530.60	23140.88
530.77	23398.34
530.94	23506.00
531.11	23592.60
531.28	23494.30
531.46	23639.41
531.63	23789.20
531.80	23978.79
531.97	23791.55
532.14	23882.83
532.31	23718.99
532.48	24285.40
532.65	23690.90
532.82	23688.56
532.99	24013.90
533.16	23676.86
533.33	24112.20
533.50	24423.49
533.67	24407.11
533.84	23805.59
534.01	24189.44
534.18	24102.84
534.35	24306.46
534.52	23990.49
534.69	24437.53
534.86	24533.50
535.03	24280.72
535.20	24395.40
535.37	24453.92
535.54	24278.38
535.71	24250.29
535.88	24374.34
536.05	24472.64
536.22	24374.34
536.38	24570.94
536.55	24634.14
536.72	24510.09
536.89	24320.51
537.06	24341.57
537.23	24720.74
537.40	24940.75
537.57	24922.02
537.74	24751.17
537.91	25305.87
538.08	25067.14
538.25	24922.02
538.42	25071.82
538.59	25205.23
538.75	24683.29
538.92	24994.58
539.09	25378.43
539.26	24945.43
539.43	25202.89
539.60	25179.48
539.77	24907.98
539.94	25149.06
540.11	25511.84
540.28	24961.81
540.44	25366.73
540.61	25081.18
540.78	25287.15
540.95	25500.14
541.12	25245.02
541.29	25673.34
541.46	25113.95
541.62	25406.52
541.79	25280.13
541.96	25205.23
542.13	25163.10
542.30	25511.84
542.47	25935.48
542.63	25656.95
542.80	25469.71
542.97	25949.52
543.14	25811.43
543.31	25813.77
543.48	25928.45
543.64	25914.41
543.81	25853.56
543.98	26089.95
544.15	26068.89
544.32	25968.24
544.48	26321.66
544.65	26075.91
544.82	26256.13
544.99	25766.96
545.16	26136.76
545.32	26141.44
545.49	26401.24
545.66	26532.31
545.83	26595.51
546.00	26679.77
546.16	26202.30
546.33	26394.22
546.50	25781.00
546.67	26412.95
546.83	26277.19
547.00	26359.11
547.17	26621.25
547.34	26728.92
547.50	26665.72
547.67	26735.94
547.84	26611.89
548.00	26710.19
548.17	26768.71
548.34	26843.60
548.51	26852.97
548.67	26782.75
548.84	26972.33
549.01	26792.11
549.18	26541.68
549.34	27049.57
549.51	26768.71
549.68	27058.93
549.84	26920.84
550.01	26899.78
550.18	26867.01
550.34	27058.93
550.51	27056.59
550.68	27264.90
550.84	27037.87
551.01	27187.66
551.18	27103.40
551.34	27065.96
551.51	27292.99
551.68	27143.19
551.84	27543.42
552.01	27096.38
552.18	27208.73
552.34	27103.40
552.51	27227.45
552.68	27068.30
552.84	27503.64
553.01	27290.65
553.18	27314.05
553.34	27225.11
553.51	27473.21
553.67	27885.14
553.84	27740.03
554.01	27667.47
554.17	27620.66
554.34	27489.59
554.51	27480.23
554.67	27873.44
554.84	27428.74
555.00	27660.45
555.17	27615.98
555.33	27564.49
555.50	27637.05
555.67	27693.22
555.83	27683.86
556.00	27536.40
556.16	28009.19
556.33	27875.78
556.50	27864.08
556.66	27875.78
556.83	28013.87
556.99	27871.10
557.16	28542.83
557.32	28072.39
557.49	28091.11
557.65	27866.42
557.82	28098.13
557.98	27976.42
558.15	28648.16
558.32	27896.85
558.48	28208.14
558.65	28311.12
558.81	28645.82
558.98	28027.92
559.14	28259.63
559.31	28184.73
559.47	28065.36
559.64	28004.51
559.80	27662.79
559.97	28458.57
560.13	28243.24
560.30	28252.61
560.46	28306.44
560.63	28320.48
560.79	28535.81
560.96	28397.72
561.12	28013.87
561.29	28254.95
561.45	28404.74
561.61	28526.45
561.78	28439.85
561.94	28327.50
562.11	28187.07
562.27	28278.35
562.44	28620.07
562.60	28320.48
562.77	28514.75
562.93	28166.01
563.10	28311.12
563.26	28570.92
563.42	28673.90
563.59	28381.34
563.75	28512.41
563.92	28861.15
564.08	28823.70
564.24	28283.03
564.41	28325.16
564.57	28273.67
564.74	28828.38
564.90	28828.38
565.07	28816.68
565.23	28521.77
565.39	28591.98
565.56	28819.02
565.72	28847.10
565.88	28603.69
566.05	28971.15
566.21	28561.56
566.38	28938.38
566.54	28886.89
566.70	29158.39
566.87	29043.71
567.03	29069.45
567.19	29013.28
567.36	29041.37
567.52	29015.62
567.68	28753.48
567.85	28741.78
568.01	29036.69
568.17	28800.29
568.34	29041.37
568.50	29125.63
568.66	29156.05
568.83	29319.89
568.99	28694.97
569.15	29057.75
569.32	28910.30
569.48	28811.99
569.64	28493.68
569.81	28910.30
569.97	29214.57
570.13	28879.87
570.30	29317.55
570.46	28926.68
570.62	28769.86
570.78	28833.06
570.95	28835.40
571.11	29041.37
571.27	28421.13
571.43	28524.11
571.60	29092.86
571.76	29170.10
571.92	29514.16
572.09	28809.65
572.25	28957.11
572.41	29193.50
572.57	29013.28
572.74	29036.69
572.90	29006.26
573.06	29282.44
573.22	28837.74
573.38	28903.28
573.55	28985.19
573.71	29582.03
573.87	29362.02
574.03	29266.06
574.20	28835.40
574.36	28898.59
574.52	29207.55
574.68	29247.33
574.84	29118.60
575.01	29174.78
575.17	28945.41
575.33	28889.23
575.49	28868.17
575.65	29638.20
575.82	29373.72
575.98	29291.80
576.14	29069.45
576.30	29062.43
576.46	29156.05
576.62	29252.02
576.79	29050.73
576.95	29303.51
577.11	29645.23
577.27	29305.85
577.43	29425.22
577.59	29310.53
577.75	29329.25
577.92	29270.74
578.08	29329.25
578.24	29469.69
578.40	29177.12
578.56	29032.00
578.72	29167.76
578.88	29223.93
579.04	29376.06
579.21	28936.04
579.37	29399.47
579.53	29319.89
579.69	29078.82
579.85	29343.30
580.01	29280.10
580.17	29055.41
580.33	29200.52
580.49	29532.88
580.65	29394.79
580.82	29455.64
580.98	29244.99
581.14	29280.10
581.30	29607.78
581.46	29518.84
581.62	29109.24
581.78	29036.69
581.94	29310.53
582.10	29158.39
582.26	29549.26
582.42	29294.14
582.58	29640.54
582.74	29457.98
582.90	29537.56
583.06	29380.74
583.22	29078.82
583.38	29591.39
583.54	29074.13
583.70	29324.57
583.86	29593.73
584.02	29434.58
584.18	29582.03
584.34	29282.44
584.50	29633.52
584.66	29553.94
584.82	29448.62
584.98	29233.29
585.14	29408.83
585.30	29160.73
585.46	29186.48
585.62	29177.12
585.78	29163.08
585.94	29202.86
586.10	29551.60
586.26	29701.40
586.42	29362.02
586.58	29553.94
586.74	28987.53
586.90	29376.06
587.06	29256.70
587.22	29338.62
587.38	29216.91
587.54	29425.22
587.70	29940.13
587.86	29605.44
588.02	29745.87
588.18	29411.17
588.34	29706.08
588.49	29495.43
588.65	29369.04
588.81	29577.35
588.97	30010.35
589.13	29263.72
589.29	29228.61
589.45	29146.69
589.61	29778.64
589.77	29610.12
589.93	29865.24
590.08	30183.55
590.24	30008.01
590.40	29619.48
590.56	29837.15
590.72	29577.35
590.88	29614.80
591.04	29778.64
591.20	30164.82
591.35	30270.15
591.51	30118.01
591.67	29844.17
591.83	29677.99
591.99	29972.90
