SpectraSuite Data File
++++++++++++++++++++++++++++++++++++
Date: Fri Oct 18 13:57:54 GMT-05:00 2013
User: bianchi
Dark Spectrum Present: No
Reference Spectrum Present: No
Number of Sampled Component Spectra: 1
Spectrometers: USB2+H05261
Integration Time (usec): 50000 (USB2+H05261)
Spectra Averaged: 1 (USB2+H05261)
Boxcar Smoothing: 0 (USB2+H05261)
Correct for Electrical Dark: No (USB2+H05261)
Strobe/Lamp Enabled: No (USB2+H05261)
Correct for Detector Non-linearity: No (USB2+H05261)
Correct for Stray Light: No (USB2+H05261)
Number of Pixels in Processed Spectrum: 2048
>>>>>Begin Processed Spectral Data<<<<<
365.73	35.11
365.92	35.11
366.12	35.11
366.32	0.00
366.52	0.00
366.72	0.00
366.91	0.00
367.11	0.00
367.31	0.00
367.51	0.00
367.70	0.00
367.90	0.00
368.10	0.00
368.30	0.00
368.49	0.00
368.69	0.00
368.89	0.00
369.09	0.00
369.28	0.00
369.48	0.00
369.68	0.00
369.87	0.00
370.07	0.00
370.27	0.00
370.47	0.00
370.66	100.64
370.86	117.03
371.06	110.01
371.25	212.99
371.45	93.62
371.65	198.95
371.84	133.41
372.04	222.35
372.24	166.18
372.44	203.63
372.63	161.50
372.83	285.55
373.03	208.31
373.22	156.82
373.42	205.97
373.62	262.14
373.81	231.71
374.01	215.33
374.21	241.08
374.40	322.99
374.60	252.78
374.79	248.10
374.99	208.31
375.19	243.42
375.38	168.52
375.58	205.97
375.78	259.80
375.97	245.76
376.17	367.46
376.37	315.97
376.56	245.76
376.76	306.61
376.95	259.80
377.15	334.70
377.35	299.59
377.54	285.55
377.74	227.03
377.93	304.27
378.13	346.40
378.33	334.70
378.52	287.89
378.72	201.29
378.91	301.93
379.11	269.16
379.31	252.78
379.50	358.10
379.70	273.84
379.89	308.95
380.09	322.99
380.28	346.40
380.48	276.18
380.68	365.12
380.87	425.98
381.07	353.42
381.26	353.42
381.46	320.65
381.65	346.40
381.85	294.91
382.04	355.76
382.24	315.97
382.43	353.42
382.63	407.25
382.83	351.08
383.02	344.06
383.22	411.93
383.41	430.66
383.61	341.72
383.80	353.42
384.00	297.25
384.19	409.59
384.39	425.98
384.58	330.02
384.78	409.59
384.97	353.42
385.17	358.10
385.36	484.49
385.56	421.30
385.75	423.64
385.95	388.53
386.14	390.87
386.34	374.49
386.53	393.21
386.72	437.68
386.92	411.93
387.11	442.36
387.31	451.72
387.50	484.49
387.70	353.42
387.89	454.06
388.09	468.11
388.28	479.81
388.48	437.68
388.67	484.49
388.86	514.92
389.06	386.19
389.25	472.79
389.45	472.79
389.64	479.81
389.84	477.47
390.03	454.06
390.22	482.15
390.42	423.64
390.61	496.19
390.81	568.75
391.00	491.51
391.19	554.71
391.39	524.28
391.58	552.37
391.78	519.60
391.97	521.94
392.16	512.58
392.36	566.41
392.55	510.24
392.75	528.96
392.94	470.45
393.13	547.69
393.33	589.82
393.52	547.69
393.71	610.88
393.91	580.45
394.10	521.94
394.29	667.05
394.49	667.05
394.68	638.97
394.88	692.80
395.07	629.60
395.26	587.47
395.46	650.67
395.65	685.78
395.84	671.73
396.04	730.25
396.23	671.73
396.42	688.12
396.62	676.41
396.81	664.71
397.00	664.71
397.19	732.59
397.39	704.50
397.58	678.76
397.77	596.84
397.97	720.88
398.16	718.54
398.35	732.59
398.55	657.69
398.74	774.72
398.93	741.95
399.12	760.67
399.32	730.25
399.51	758.33
399.70	844.93
399.90	716.20
400.09	774.72
400.28	685.78
400.47	847.27
400.67	767.70
400.86	884.72
401.05	863.66
401.24	821.53
401.44	833.23
401.63	788.76
401.82	945.58
402.01	823.87
402.21	847.27
402.40	791.10
402.59	880.04
402.78	901.11
402.97	891.74
403.17	856.64
403.36	854.30
403.55	933.87
403.74	964.30
403.93	931.53
404.13	978.34
404.32	926.85
404.51	987.71
404.70	936.21
404.89	976.00
405.09	978.34
405.28	1004.09
405.47	1022.81
405.66	978.34
405.85	1081.33
406.05	980.68
406.24	1025.15
406.43	985.37
406.62	1078.99
406.81	1102.39
407.00	1048.56
407.20	1053.24
407.39	978.34
407.58	1053.24
407.77	1135.16
407.96	1174.95
408.15	1200.69
408.34	1139.84
408.54	1088.35
408.73	1118.78
408.92	1210.06
409.11	1153.88
409.30	1132.82
409.49	1116.44
409.68	1282.61
409.87	1219.42
410.07	1167.93
410.26	1233.46
410.45	1284.95
410.64	1268.57
410.83	1231.12
411.02	1203.04
411.21	1289.64
411.40	1245.16
411.59	1380.92
411.78	1322.40
411.98	1284.95
412.17	1401.98
412.36	1373.89
412.55	1423.05
412.74	1409.00
412.93	1352.83
413.12	1383.26
413.31	1444.11
413.50	1434.75
413.69	1397.30
413.88	1511.99
414.07	1474.54
414.26	1467.52
414.45	1448.79
414.64	1542.41
414.83	1476.88
415.02	1486.24
415.22	1577.52
415.41	1568.16
415.60	1493.26
415.79	1694.55
415.98	1610.29
416.17	1572.84
416.36	1568.16
416.55	1692.21
416.74	1727.32
416.93	1727.32
417.12	1771.79
417.31	1703.91
417.50	1673.48
417.69	1769.44
417.88	1729.66
418.07	1795.19
418.26	1806.89
418.45	1895.83
418.64	1872.43
418.83	1724.97
419.02	1729.66
419.21	1816.26
419.39	1886.47
419.58	1827.96
419.77	1818.60
419.96	1919.24
420.15	1994.14
420.34	1860.73
420.53	1902.86
420.72	1872.43
420.91	1893.49
421.10	1968.39
421.29	2071.37
421.48	1863.07
421.67	2057.33
421.86	1975.41
422.05	2026.90
422.24	2003.50
422.43	2019.88
422.61	1994.14
422.80	2069.03
422.99	1989.46
423.18	2094.78
423.37	2097.12
423.56	2136.91
423.75	2045.63
423.94	2073.71
424.13	1930.94
424.32	1994.14
424.50	2012.86
424.69	2094.78
424.88	2127.55
425.07	2064.35
425.26	2031.58
425.45	2057.33
425.64	2024.56
425.83	2209.47
426.01	2136.91
426.20	2195.42
426.39	2200.10
426.58	2136.91
426.77	2181.38
426.96	2113.50
427.15	2190.74
427.33	2209.47
427.52	2188.40
427.71	2207.13
427.90	2230.53
428.09	2146.27
428.28	2244.57
428.46	2242.23
428.65	2333.51
428.84	2289.04
429.03	2340.54
429.22	2246.91
429.40	2417.77
429.59	2270.32
429.78	2284.36
429.97	2319.47
430.16	2258.62
430.34	2326.49
430.53	2394.37
430.72	2363.94
430.91	2300.75
431.10	2436.50
431.28	2448.20
431.47	2469.27
431.66	2518.42
431.85	2436.50
432.03	2518.42
432.22	2502.03
432.41	2438.84
432.60	2448.20
432.79	2509.05
432.97	2581.61
433.16	2649.49
433.35	2586.29
433.54	2597.99
433.72	2579.27
433.91	2612.04
434.10	2670.55
434.28	2710.34
434.47	2534.80
434.66	2605.02
434.85	2637.78
435.03	2607.36
435.22	2642.46
435.41	2658.85
435.59	2682.25
435.78	2778.22
435.97	2633.10
436.16	2799.28
436.34	2729.06
436.53	2803.96
436.72	2853.11
436.90	2675.23
437.09	2867.16
437.28	2738.43
437.46	2799.28
437.65	2780.56
437.84	2813.32
438.02	2771.19
438.21	2857.79
438.40	2878.86
438.58	3009.93
438.77	2911.63
438.96	2970.14
439.14	3089.51
439.33	3180.79
439.52	3016.95
439.70	3129.30
439.89	3087.17
440.08	3152.70
440.26	3150.36
440.45	3077.80
440.63	3255.69
440.82	3222.92
441.01	3269.73
441.19	3251.00
441.38	3314.20
441.57	3365.69
441.75	3255.69
441.94	3351.65
442.12	3419.52
442.31	3475.70
442.50	3489.74
442.68	3513.14
442.87	3368.03
443.05	3466.33
443.24	3449.95
443.43	3534.21
443.61	3384.41
443.80	3375.05
443.98	3480.38
444.17	3440.59
444.35	3389.10
444.54	3552.93
444.73	3433.57
444.91	3522.51
445.10	3468.67
445.28	3459.31
445.47	3428.88
445.65	3466.33
445.84	3517.83
446.02	3672.30
446.21	3590.38
446.39	3644.21
446.58	3531.87
446.77	3574.00
446.95	3459.31
447.14	3506.12
447.32	3637.19
447.51	3627.83
447.69	3595.06
447.88	3552.93
448.06	3599.74
448.25	3524.85
448.43	3548.25
448.62	3625.49
448.80	3536.55
448.99	3740.18
449.17	3651.24
449.36	3744.86
449.54	3775.28
449.73	3765.92
449.91	3751.88
450.10	3815.07
450.28	3896.99
450.46	3772.94
450.65	3882.95
450.83	3911.04
451.02	3904.01
451.20	3969.55
451.39	3953.16
451.57	3880.61
451.76	3754.22
451.94	3981.25
452.13	4016.36
452.31	4058.49
452.49	3969.55
452.68	4028.06
452.86	3911.04
453.05	4063.17
453.23	4051.47
453.42	4100.62
453.60	4035.08
453.78	4002.32
453.97	4035.08
454.15	4088.92
454.34	3983.59
454.52	4128.70
454.70	4100.62
454.89	4112.32
455.07	4294.88
455.26	4147.43
455.44	4191.90
455.62	4184.88
455.81	4184.88
455.99	4180.20
456.17	4217.65
456.36	4234.03
456.54	4381.48
456.73	4315.95
456.91	4435.32
457.09	4521.92
457.28	4369.78
457.46	4276.16
457.64	4404.89
457.83	4414.25
458.01	4458.72
458.19	4486.81
458.38	4374.46
458.56	4503.19
458.74	4699.80
458.93	4554.68
459.11	4547.66
459.29	4582.77
459.48	4622.56
459.66	4606.17
459.84	4610.86
460.03	4830.87
460.21	4695.11
460.39	4592.13
460.57	4727.88
460.76	4634.26
460.94	4865.97
461.12	4664.69
461.31	4631.92
461.49	4896.40
461.67	4645.96
461.85	4770.01
462.04	4774.69
462.22	5116.41
462.40	4915.12
462.59	4847.25
462.77	4926.83
462.95	5013.43
463.13	4891.72
463.32	4983.00
463.50	4990.02
463.68	5013.43
463.86	4887.04
464.05	4966.62
464.23	5088.32
464.41	4940.87
464.59	4908.10
464.78	5135.14
464.96	5078.96
465.14	5034.49
465.32	5036.83
465.50	5125.77
465.69	5085.98
465.87	5085.98
466.05	5076.62
466.23	5060.24
466.41	5397.28
466.60	5313.02
466.78	5195.99
466.96	5231.10
467.14	5027.47
467.32	5355.15
467.51	5376.21
467.69	5188.97
467.87	5242.80
468.05	5282.59
468.23	5341.10
468.41	5268.55
468.60	5376.21
468.78	5310.68
468.96	5390.25
469.14	5439.40
469.32	5472.17
469.50	5303.65
469.69	5523.66
469.87	5591.54
470.05	5547.07
470.23	5542.39
470.41	5565.79
470.59	5760.06
470.77	5516.64
470.95	5673.46
471.14	5755.38
471.32	5666.44
471.50	5825.59
471.68	5598.56
471.86	5598.56
472.04	5706.23
472.22	5966.03
472.40	5937.94
472.58	5760.06
472.77	5944.96
472.95	5951.98
473.13	6008.16
473.31	5935.60
473.49	5973.05
473.67	5877.09
473.85	6200.08
474.03	6150.93
474.21	6059.65
474.39	6377.96
474.57	6127.52
474.75	6200.08
474.93	6326.47
475.12	6239.87
475.30	6389.66
475.48	6408.39
475.66	6356.90
475.84	6499.67
476.02	6534.78
476.20	6572.22
476.38	6668.19
476.56	6927.99
476.74	6689.25
476.92	6736.06
477.10	6754.79
477.28	6834.36
477.46	6822.66
477.64	7035.65
477.82	6963.09
478.00	7162.04
478.18	7192.47
478.36	7279.07
478.54	6981.82
478.72	7246.30
478.90	7435.88
479.08	7377.37
479.26	7410.14
479.44	7583.34
479.62	7557.59
479.80	7534.18
479.98	7693.34
480.16	7789.30
480.34	7644.19
480.52	7908.67
480.70	7925.05
480.88	7676.96
481.06	8063.15
481.24	8058.46
481.41	7999.95
481.59	8156.77
481.77	8308.90
481.95	8234.00
482.13	8402.52
482.31	8463.38
482.49	8449.33
482.67	8526.57
482.85	8622.53
483.03	8734.88
483.21	8755.94
483.39	8931.48
483.57	9008.72
483.74	8720.84
483.92	8987.66
484.10	8924.46
484.28	9217.03
484.46	9160.86
484.64	9200.65
484.82	9376.19
485.00	9540.02
485.18	9495.55
485.35	9745.99
485.53	9474.49
485.71	9668.75
485.89	10054.94
486.07	9872.38
486.25	9851.31
486.43	9933.23
486.61	10113.45
486.78	10253.89
486.96	10200.05
487.14	10265.59
487.32	10293.68
487.50	10324.10
487.68	10661.14
487.85	10661.14
488.03	10745.40
488.21	10839.02
488.39	10995.84
488.57	10974.77
488.75	11192.44
488.92	11201.80
489.10	11276.70
489.28	11293.08
489.46	11499.05
489.64	11520.12
489.81	11487.35
489.99	11693.32
490.17	11758.85
490.35	11700.34
490.53	11840.77
490.70	12056.10
490.88	11941.41
491.06	12112.27
491.24	11843.11
491.41	11967.16
491.59	12411.86
491.77	12372.07
491.95	12629.53
492.13	12409.52
492.30	12585.06
492.48	12751.24
492.66	12650.60
492.84	12819.11
493.01	13011.04
493.19	12917.42
493.37	13076.57
493.54	13039.12
493.72	13483.83
493.90	13399.57
494.08	13448.72
494.25	13540.00
494.43	13589.15
494.61	13661.71
494.79	13607.87
494.96	13640.64
495.14	13874.70
495.32	13982.36
495.49	14136.84
495.67	14237.48
495.85	14249.18
496.02	14279.61
496.20	14415.36
496.38	14356.85
496.55	14326.42
496.73	14532.39
496.91	14628.35
497.09	14871.76
497.26	14771.12
497.44	14871.76
497.62	14902.19
497.79	14967.73
497.97	14930.28
498.14	15169.01
498.32	15314.13
498.50	15222.84
498.67	15665.21
498.85	15159.65
499.03	15660.52
499.20	15365.62
499.38	15620.74
499.56	15833.72
499.73	15564.56
499.91	15882.88
500.08	15861.81
500.26	15775.21
500.44	15873.51
500.61	16100.55
500.79	15953.09
500.97	16219.91
501.14	16343.96
501.32	16620.14
501.49	16608.44
501.67	16262.04
501.84	16395.45
502.02	16379.07
502.20	16741.85
502.37	16606.10
502.55	16493.76
502.72	16744.19
502.90	16833.13
503.07	16772.28
503.25	16725.47
503.43	16877.60
503.60	16915.05
503.78	17514.23
503.95	16973.56
504.13	16891.65
504.30	16964.20
504.48	17277.83
504.65	17273.15
504.83	17806.80
505.01	17846.58
505.18	17469.76
505.36	17830.20
505.53	17490.82
505.71	17638.28
505.88	17778.71
506.06	17577.42
506.23	17855.95
506.41	18148.51
506.58	17914.46
506.76	18143.83
506.93	18099.36
507.11	17858.29
507.28	18139.15
507.46	18370.86
507.63	17898.08
507.81	18370.86
507.98	18427.04
508.16	18565.13
508.33	18558.11
508.50	18892.80
508.68	18625.98
508.85	18501.93
509.03	18743.01
509.20	18665.77
509.38	18867.06
509.55	19007.49
509.73	19138.56
509.90	19028.56
510.08	18953.66
510.25	19087.07
510.42	19335.17
510.60	19061.32
510.77	19185.37
510.95	19349.21
511.12	19339.85
511.30	19157.28
511.47	19824.34
511.64	19681.56
511.82	19531.77
511.99	19648.80
512.17	19803.27
512.34	19665.18
512.51	20002.22
512.69	19775.19
512.86	19775.19
513.04	20123.93
513.21	19812.63
513.38	20189.46
513.56	19831.36
513.73	19878.17
513.90	20032.65
514.08	19903.92
514.25	20475.01
514.43	20634.16
514.60	20161.37
514.77	20482.03
514.95	20617.78
515.12	20500.75
515.29	20243.29
515.47	20585.01
515.64	20496.07
515.81	20903.32
515.99	20788.64
516.16	20950.14
516.33	20957.16
516.51	20943.11
516.68	20903.32
516.85	21057.80
517.03	20989.92
517.20	21008.65
517.37	21104.61
517.54	21366.75
517.72	21507.18
517.89	21359.73
518.06	21397.18
518.24	21532.93
518.41	21301.22
518.58	21371.43
518.75	21600.80
518.93	21619.53
519.10	21544.63
519.27	21778.68
519.45	21771.66
519.62	21647.61
519.79	21781.03
519.96	21888.69
520.14	21944.86
520.31	21649.96
520.48	22370.84
520.65	21951.88
520.83	22045.51
521.00	22005.72
521.17	21907.41
521.34	22022.10
521.52	22565.10
521.69	22576.81
521.86	22298.28
522.03	22675.11
522.20	22651.70
522.38	22595.53
522.55	22607.23
522.72	22707.88
522.89	22553.40
523.07	22782.77
523.24	22930.23
523.41	22923.21
523.58	22623.62
523.75	22878.74
523.92	22810.86
524.10	22824.90
524.27	23087.04
524.44	23337.48
524.61	23398.34
524.78	23447.49
524.96	23344.50
525.13	23559.83
525.30	23639.41
525.47	23243.86
525.64	23372.59
525.81	23161.94
525.98	23784.52
526.16	23784.52
526.33	23789.20
526.50	23756.44
526.67	23295.35
526.84	23711.97
527.01	23323.44
527.18	23711.97
527.36	23953.04
527.53	23810.27
527.70	24245.61
527.87	24191.78
528.04	24037.30
528.21	24006.87
528.38	24411.79
528.55	24058.37
528.72	23990.49
528.89	24222.20
529.07	24367.32
529.24	24144.97
529.41	24573.28
529.58	24041.98
529.75	24428.17
529.92	24285.40
530.09	24690.31
530.26	24332.21
530.43	24556.90
530.60	24247.95
530.77	24329.87
530.94	24964.15
531.11	24428.17
531.28	24540.52
531.46	24369.66
531.63	24648.18
531.80	25034.37
531.97	24858.83
532.14	24999.26
532.31	24711.38
532.48	24690.31
532.65	25275.45
532.82	24938.41
532.99	24713.72
533.16	24910.32
533.33	25139.69
533.50	25310.55
533.67	25296.51
533.84	24786.27
534.01	25188.85
534.18	25245.02
534.35	25362.04
534.52	25582.06
534.69	25420.56
534.86	25245.02
535.03	25277.79
535.20	25802.07
535.37	25802.07
535.54	25879.30
535.71	25535.24
535.88	25607.80
536.05	25652.27
536.22	25769.30
536.38	25752.91
536.55	25961.22
536.72	26139.10
536.89	25900.37
537.06	25759.94
537.23	26071.23
537.40	25802.07
537.57	25921.43
537.74	26045.48
537.91	26370.82
538.08	26340.39
538.25	26010.37
538.42	26246.77
538.59	26408.26
538.75	25809.09
538.92	25989.31
539.09	26441.03
539.26	26141.44
539.43	26518.27
539.60	26581.46
539.77	26286.56
539.94	26773.39
540.11	26206.98
540.28	26661.04
540.44	26375.50
540.61	26431.67
540.78	26382.52
540.95	26693.81
541.12	26452.73
541.29	26607.21
541.46	26621.25
541.62	26822.54
541.79	26684.45
541.96	26621.25
542.13	26604.87
542.30	26859.99
542.47	26918.50
542.63	26817.86
542.80	26895.10
542.97	27489.59
543.14	27346.82
543.31	27140.85
543.48	27143.19
543.64	27445.12
543.81	27608.96
543.98	27583.21
544.15	27772.80
544.32	27501.29
544.48	27634.71
544.65	27718.96
544.82	27798.54
544.99	26972.33
545.16	27503.64
545.32	27683.86
545.49	27805.56
545.66	27779.82
545.83	27971.74
546.00	28053.66
546.16	27559.81
546.33	27784.50
546.50	27185.32
546.67	27889.82
546.83	27517.68
547.00	27976.42
547.17	27955.36
547.34	27915.57
547.50	27793.86
547.67	28109.83
547.84	27835.99
548.00	28142.60
548.17	28201.11
548.34	28098.13
548.51	28053.66
548.67	28376.66
548.84	28187.07
549.01	27985.79
549.18	28100.47
549.34	28238.56
549.51	28355.59
549.68	28477.30
549.84	28320.48
550.01	28386.02
550.18	28250.27
550.34	28421.13
550.51	28280.69
550.68	28730.08
550.84	28414.10
551.01	28617.73
551.18	28606.03
551.34	28325.16
551.51	28449.21
551.68	29006.26
551.84	28739.44
552.01	29177.12
552.18	28795.61
552.34	28657.52
552.51	28758.16
552.68	28615.39
552.84	28662.20
553.01	28814.34
553.18	28608.37
553.34	29163.08
553.51	29167.76
553.67	29160.73
553.84	29380.74
554.01	29376.06
554.17	29060.09
554.34	29221.59
554.51	29235.63
554.67	29303.51
554.84	29319.89
555.00	29275.42
555.17	29170.10
555.33	29282.44
555.50	29055.41
555.67	28840.08
555.83	29244.99
556.00	29355.00
556.16	29593.73
556.33	29469.69
556.50	29336.27
556.66	29780.98
556.83	29383.09
556.99	29553.94
557.16	29888.64
557.32	29460.32
557.49	29390.11
557.65	29284.78
557.82	29270.74
557.98	29326.91
558.15	29254.36
558.32	29514.16
558.48	29462.66
558.65	29682.67
558.81	29563.31
558.98	29762.25
559.14	29535.22
559.31	29631.18
559.47	29736.51
559.64	29771.61
559.80	29874.60
559.97	29603.10
560.13	29633.52
560.30	30040.78
560.46	30066.52
560.63	29703.74
560.79	30244.40
560.96	30349.73
561.12	29895.66
561.29	30122.69
561.45	29790.34
561.61	29958.86
561.78	29638.20
561.94	30024.39
562.11	30136.74
562.27	30176.53
562.44	29975.24
562.60	30057.16
562.77	29692.04
562.93	30082.91
563.10	30064.18
563.26	30054.82
563.42	30536.97
563.59	30031.41
563.75	30288.87
563.92	30265.47
564.08	30059.50
564.24	30225.68
564.41	30017.37
564.57	30012.69
564.74	30167.16
564.90	30686.76
565.07	30366.11
565.23	30363.77
565.39	30249.08
565.56	30532.29
565.72	30096.95
565.88	30218.66
566.05	30202.27
566.21	30239.72
566.38	29848.85
566.54	30401.22
566.70	30410.58
566.87	30572.08
567.03	30749.96
567.19	30958.27
567.36	30562.72
567.52	30522.93
567.68	30476.12
567.85	30101.63
568.01	30466.75
568.17	30684.42
568.34	30756.98
568.50	30707.83
568.66	30291.21
568.83	30494.84
568.99	30511.22
569.15	30417.60
569.32	30213.98
569.48	30834.22
569.64	30382.49
569.81	30321.64
569.97	30546.33
570.13	30780.39
570.30	30590.80
570.46	30883.37
570.62	30595.48
570.78	30787.41
570.95	30342.70
571.11	30824.86
571.27	30483.14
571.43	30391.86
571.60	30859.96
571.76	30815.49
571.92	30520.59
572.09	30962.95
572.25	30717.19
572.41	31061.25
572.57	30911.46
572.74	30939.54
572.90	30490.16
573.06	30504.20
573.22	30930.18
573.38	30916.14
573.55	31124.44
573.71	31344.45
573.87	31353.82
574.03	31152.53
574.20	30986.35
574.36	30546.33
574.52	30698.47
574.68	30686.76
574.84	30944.22
575.01	30820.17
575.17	30745.28
575.33	30712.51
575.49	30937.20
575.65	31037.84
575.82	31140.83
575.98	30991.03
576.14	30836.56
576.30	31026.14
576.46	30920.82
576.62	30829.54
576.79	30726.55
576.95	30609.53
577.11	31157.21
577.27	30890.39
577.43	30955.93
577.59	31056.57
577.75	31061.25
577.92	30445.69
578.08	30794.43
578.24	30904.43
578.40	30574.42
578.56	31285.94
578.72	31007.42
578.88	31012.10
579.04	31360.84
579.21	30874.01
579.37	31182.96
579.53	30841.24
579.69	30988.69
579.85	31124.44
580.01	30951.24
580.17	30955.93
580.33	31079.97
580.49	30831.88
580.65	31119.76
580.82	31159.55
580.98	31021.46
581.14	31180.62
581.30	31168.91
581.46	31033.16
581.62	31002.74
581.78	30539.31
581.94	31108.06
582.10	30911.46
582.26	31325.73
582.42	30862.30
582.58	31433.39
582.74	31620.64
582.90	30913.80
583.06	30899.75
583.22	30899.75
583.38	30995.71
583.54	31215.72
583.70	30878.69
583.86	31044.87
584.02	31152.53
584.18	31325.73
584.34	31079.97
584.50	31353.82
584.66	31285.94
584.82	31019.12
584.98	31051.89
585.14	31213.38
585.30	30834.22
585.46	30916.14
585.62	30948.90
585.78	30632.93
585.94	31161.89
586.10	31108.06
586.26	31054.23
586.42	31470.84
586.58	31555.10
586.74	31075.29
586.90	31058.91
587.06	30897.41
587.22	31044.87
587.38	31491.91
587.54	31627.66
587.70	31374.88
587.86	31391.26
588.02	31428.71
588.18	31541.06
588.34	31613.62
588.49	31367.86
588.65	31220.41
588.81	31061.25
588.97	31161.89
589.13	31328.07
589.29	31374.88
589.45	31009.76
589.61	31459.14
589.77	31548.08
589.93	31454.46
590.08	31475.52
590.24	31866.39
590.40	31372.54
590.56	31871.07
590.72	31489.57
590.88	31157.21
591.04	31524.68
591.20	32067.68
591.35	31695.53
591.51	31690.85
591.67	31681.49
591.83	32098.11
