SpectraSuite Data File
++++++++++++++++++++++++++++++++++++
Date: Fri Oct 18 13:58:11 GMT-05:00 2013
User: bianchi
Dark Spectrum Present: No
Reference Spectrum Present: No
Number of Sampled Component Spectra: 1
Spectrometers: USB2+H05261
Integration Time (usec): 50000 (USB2+H05261)
Spectra Averaged: 1 (USB2+H05261)
Boxcar Smoothing: 0 (USB2+H05261)
Correct for Electrical Dark: No (USB2+H05261)
Strobe/Lamp Enabled: No (USB2+H05261)
Correct for Detector Non-linearity: No (USB2+H05261)
Correct for Stray Light: No (USB2+H05261)
Number of Pixels in Processed Spectrum: 2048
>>>>>Begin Processed Spectral Data<<<<<
365.73	0.00
365.92	0.00
366.12	0.00
366.32	0.00
366.52	0.00
366.72	0.00
366.91	0.00
367.11	0.00
367.31	0.00
367.51	0.00
367.70	0.00
367.90	0.00
368.10	0.00
368.30	0.00
368.49	0.00
368.69	0.00
368.89	0.00
369.09	0.00
369.28	0.00
369.48	0.00
369.68	0.00
369.87	0.00
370.07	0.00
370.27	0.00
370.47	0.00
370.66	126.39
370.86	74.90
371.06	114.69
371.25	114.69
371.45	105.32
371.65	133.41
371.84	177.88
372.04	152.13
372.24	229.37
372.44	257.46
372.63	180.22
372.83	142.77
373.03	273.84
373.22	175.54
373.42	203.63
373.62	217.67
373.81	184.90
374.01	285.55
374.21	255.12
374.40	325.33
374.60	241.08
374.79	236.39
374.99	238.73
375.19	224.69
375.38	250.44
375.58	271.50
375.78	304.27
375.97	294.91
376.17	315.97
376.37	248.10
376.56	257.46
376.76	255.12
376.95	236.39
377.15	227.03
377.35	287.89
377.54	184.90
377.74	234.05
377.93	257.46
378.13	220.01
378.33	360.44
378.52	280.86
378.72	365.12
378.91	227.03
379.11	304.27
379.31	290.23
379.50	320.65
379.70	374.49
379.89	362.78
380.09	294.91
380.28	308.95
380.48	383.85
380.68	266.82
380.87	297.25
381.07	339.38
381.26	351.08
381.46	334.70
381.65	290.23
381.85	308.95
382.04	292.57
382.24	341.72
382.43	416.62
382.63	318.31
382.83	367.46
383.02	486.83
383.22	339.38
383.41	358.10
383.61	360.44
383.80	374.49
384.00	374.49
384.19	353.42
384.39	379.17
384.58	386.19
384.78	402.57
384.97	440.02
385.17	437.68
385.36	411.93
385.56	330.02
385.75	414.27
385.95	416.62
386.14	372.15
386.34	411.93
386.53	397.89
386.72	428.32
386.92	421.30
387.11	447.04
387.31	388.53
387.50	442.36
387.70	482.15
387.89	435.34
388.09	493.85
388.28	465.77
388.48	507.90
388.67	463.43
388.86	514.92
389.06	482.15
389.25	456.40
389.45	451.72
389.64	484.49
389.84	468.11
390.03	514.92
390.22	517.26
390.42	468.11
390.61	496.19
390.81	500.87
391.00	475.13
391.19	486.83
391.39	535.98
391.58	538.32
391.78	554.71
391.97	528.96
392.16	512.58
392.36	517.26
392.55	606.20
392.75	578.11
392.94	531.30
393.13	603.86
393.33	571.09
393.52	500.87
393.71	599.18
393.91	596.84
394.10	545.34
394.29	655.35
394.49	566.41
394.68	603.86
394.88	653.01
395.07	596.84
395.26	589.82
395.46	608.54
395.65	648.33
395.84	709.18
396.04	720.88
396.23	643.65
396.42	664.71
396.62	645.99
396.81	678.76
397.00	741.95
397.19	765.36
397.39	727.91
397.58	613.22
397.77	664.71
397.97	709.18
398.16	730.25
398.35	697.48
398.55	695.14
398.74	702.16
398.93	692.80
399.12	744.29
399.32	791.10
399.51	732.59
399.70	688.12
399.90	732.59
400.09	739.61
400.28	777.06
400.47	858.98
400.67	805.14
400.86	772.38
401.05	851.96
401.24	816.85
401.44	758.33
401.63	819.19
401.82	802.80
402.01	802.80
402.21	854.30
402.40	863.66
402.59	828.55
402.78	880.04
402.97	898.77
403.17	929.19
403.36	821.53
403.55	856.64
403.74	891.74
403.93	954.94
404.13	929.19
404.32	999.41
404.51	887.06
404.70	1029.84
404.89	940.90
405.09	1071.97
405.28	840.25
405.47	994.73
405.66	1041.54
405.85	1060.26
406.05	945.58
406.24	1006.43
406.43	1078.99
406.62	1048.56
406.81	1102.39
407.00	1029.84
407.20	1013.45
407.39	1032.18
407.58	1039.20
407.77	1107.07
407.96	1130.48
408.15	1048.56
408.34	1118.78
408.54	1116.44
408.73	1118.78
408.92	1020.47
409.11	1196.01
409.30	1064.94
409.49	1172.61
409.68	1156.22
409.87	1270.91
410.07	1217.08
410.26	1203.04
410.45	1210.06
410.64	1198.35
410.83	1177.29
411.02	1149.20
411.21	1268.57
411.40	1294.32
411.59	1310.70
411.78	1214.74
411.98	1203.04
412.17	1320.06
412.36	1284.95
412.55	1359.85
412.74	1437.09
412.93	1373.89
413.12	1474.54
413.31	1439.43
413.50	1362.19
413.69	1380.92
413.88	1418.36
414.07	1357.51
414.26	1474.54
414.45	1462.83
414.64	1542.41
414.83	1579.86
415.02	1556.46
415.22	1486.24
415.41	1537.73
415.60	1535.39
415.79	1614.97
415.98	1589.22
416.17	1547.09
416.36	1647.74
416.55	1526.03
416.74	1661.78
416.93	1570.50
417.12	1687.53
417.31	1753.06
417.50	1762.42
417.69	1853.70
417.88	1781.15
418.07	1708.59
418.26	1781.15
418.45	1863.07
418.64	1863.07
418.83	1877.11
419.02	1853.70
419.21	1891.15
419.39	1837.32
419.58	1823.28
419.77	1792.85
419.96	1870.09
420.15	1944.99
420.34	1790.51
420.53	1856.04
420.72	1916.90
420.91	1980.09
421.10	1921.58
421.29	2066.69
421.48	1902.86
421.67	1994.14
421.86	1933.28
422.05	2012.86
422.24	2001.16
422.43	1963.71
422.61	2026.90
422.80	2111.16
422.99	1968.39
423.18	2083.08
423.37	2127.55
423.56	2090.10
423.75	2008.18
423.94	2031.58
424.13	1823.28
424.32	2022.22
424.50	2031.58
424.69	2146.27
424.88	2111.16
425.07	1996.48
425.26	1980.09
425.45	2050.31
425.64	2017.54
425.83	2052.65
426.01	2054.99
426.20	1947.33
426.39	2078.40
426.58	2071.37
426.77	2118.18
426.96	2090.10
427.15	2085.42
427.33	2106.48
427.52	2209.47
427.71	2134.57
427.90	2202.44
428.09	2275.00
428.28	2223.51
428.46	2312.45
428.65	2275.00
428.84	2363.94
429.03	2289.04
429.22	2244.57
429.40	2340.54
429.59	2370.96
429.78	2242.23
429.97	2169.68
430.16	2279.68
430.34	2317.13
430.53	2366.28
430.72	2394.37
430.91	2342.88
431.10	2438.84
431.28	2502.03
431.47	2436.50
431.66	2490.33
431.85	2342.88
432.03	2480.97
432.22	2644.81
432.41	2490.33
432.60	2445.86
432.79	2574.59
432.97	2464.58
433.16	2658.85
433.35	2626.08
433.54	2574.59
433.72	2541.82
433.91	2581.61
434.10	2516.08
434.28	2527.78
434.47	2553.52
434.66	2572.25
434.85	2518.42
435.03	2605.02
435.22	2621.40
435.41	2698.64
435.59	2745.45
435.78	2576.93
435.97	2843.75
436.16	2677.57
436.34	2834.39
436.53	2792.26
436.72	2789.92
436.90	2745.45
437.09	2677.57
437.28	2614.38
437.46	2691.62
437.65	2822.69
437.84	2818.00
438.02	2829.71
438.21	2789.92
438.40	2850.77
438.58	3021.63
438.77	2935.03
438.96	2897.58
439.14	2913.97
439.33	2939.71
439.52	2911.63
439.70	3110.57
439.89	3059.08
440.08	2949.08
440.26	3173.77
440.45	3101.21
440.63	3302.50
440.82	3337.60
441.01	3122.27
441.19	3169.09
441.38	3267.39
441.57	3302.50
441.75	3201.85
441.94	3218.24
442.12	3321.22
442.31	3332.92
442.50	3417.18
442.68	3363.35
442.87	3382.07
443.05	3379.73
443.24	3515.48
443.43	3372.71
443.61	3342.28
443.80	3527.19
443.98	3375.05
444.17	3342.28
444.35	3543.57
444.54	3564.64
444.73	3527.19
444.91	3529.53
445.10	3487.40
445.28	3321.22
445.47	3379.73
445.65	3461.65
445.84	3632.51
446.02	3550.59
446.21	3517.83
446.39	3466.33
446.58	3541.23
446.77	3571.66
446.95	3480.38
447.14	3485.06
447.32	3557.61
447.51	3606.77
447.69	3571.66
447.88	3648.90
448.06	3641.87
448.25	3574.00
448.43	3562.30
448.62	3574.00
448.80	3660.60
448.99	3707.41
449.17	3562.30
449.36	3665.28
449.54	3714.43
449.73	3754.22
449.91	3819.75
450.10	3684.00
450.28	3796.35
450.46	3770.60
450.65	3772.94
450.83	3913.38
451.02	3810.39
451.20	3864.22
451.39	3878.27
451.57	3801.03
451.76	3861.88
451.94	3896.99
452.13	3824.44
452.31	4023.38
452.49	3847.84
452.68	3737.84
452.86	4067.85
453.05	3911.04
453.23	3981.25
453.42	3955.51
453.60	3822.09
453.78	4063.17
453.97	3875.93
454.15	3985.93
454.34	4067.85
454.52	4007.00
454.70	4117.00
454.89	4196.58
455.07	4128.70
455.26	4217.65
455.44	4138.07
455.62	4107.64
455.81	4184.88
455.99	4198.92
456.17	4304.25
456.36	4304.25
456.54	4205.94
456.73	4381.48
456.91	4393.19
457.09	4458.72
457.28	4568.73
457.46	4358.08
457.64	4409.57
457.83	4397.87
458.01	4451.70
458.19	4613.20
458.38	4395.53
458.56	4521.92
458.74	4456.38
458.93	4580.43
459.11	4358.08
459.29	4329.99
459.48	4524.26
459.66	4566.39
459.84	4648.30
460.03	4716.18
460.21	4648.30
460.39	4648.30
460.57	4561.70
460.76	4779.37
460.94	4671.71
461.12	4786.40
461.31	4884.70
461.49	4594.47
461.67	4695.11
461.85	4819.16
462.04	4758.31
462.22	5076.62
462.40	4765.33
462.59	4987.68
462.77	4805.12
462.95	4840.23
463.13	4926.83
463.32	4910.44
463.50	4922.15
463.68	4990.02
463.86	4961.94
464.05	4931.51
464.23	4978.32
464.41	5032.15
464.59	4936.19
464.78	5151.52
464.96	5020.45
465.14	4983.00
465.32	5123.43
465.50	5153.86
465.69	5076.62
465.87	5055.56
466.05	5193.65
466.23	5200.67
466.41	5107.05
466.60	5146.84
466.78	5085.98
466.96	5188.97
467.14	5107.05
467.32	5198.33
467.51	5224.08
467.69	5093.01
467.87	5327.06
468.05	5146.84
468.23	5100.03
468.41	5203.01
468.60	5298.97
468.78	5380.89
468.96	5212.37
469.14	5263.86
469.32	5551.75
469.50	5373.87
469.69	5497.92
469.87	5624.31
470.05	5568.13
470.23	5453.45
470.41	5397.28
470.59	5544.73
470.77	5497.92
470.95	5577.50
471.14	5523.66
471.32	5533.03
471.50	5853.68
471.68	5591.54
471.86	5610.26
472.04	5860.70
472.22	6111.14
472.40	5614.95
472.58	5834.96
472.77	5823.25
472.95	5982.41
473.13	6050.28
473.31	5998.79
473.49	5851.34
473.67	5963.68
473.85	5834.96
474.03	6101.78
474.21	6167.31
474.39	6169.65
474.57	6204.76
474.75	6286.68
474.93	6389.66
475.12	6260.93
475.30	6431.79
475.48	6293.70
475.66	6242.21
475.84	6368.60
476.02	6635.42
476.20	6434.13
476.38	6626.06
476.56	6719.68
476.74	6846.07
476.92	6696.27
477.10	6534.78
477.28	6665.85
477.46	6764.15
477.64	6986.50
477.82	6927.99
478.00	7131.61
478.18	6988.84
478.36	7169.06
478.54	7213.53
478.72	7276.73
478.90	7246.30
479.08	7346.94
479.26	7389.07
479.44	7566.95
479.62	7529.50
479.80	7295.45
479.98	7543.55
480.16	7786.96
480.34	7793.98
480.52	7714.41
480.70	7843.14
480.88	7758.88
481.06	7852.50
481.24	7871.22
481.41	7852.50
481.59	7922.71
481.77	8088.89
481.95	8215.28
482.13	8236.35
482.31	8191.88
482.49	8383.80
482.67	8416.57
482.85	8667.00
483.03	8559.34
483.21	8592.11
483.39	8688.07
483.57	8861.27
483.74	8870.63
483.92	8865.95
484.10	8982.98
484.28	9261.50
484.46	9111.71
484.64	9315.33
484.82	9364.48
485.00	9294.27
485.18	9542.36
485.35	9619.60
485.53	9509.60
485.71	9811.53
485.89	9727.27
486.07	9769.40
486.25	9713.22
486.43	9930.89
486.61	9900.47
486.78	10038.56
486.96	10242.18
487.14	10171.97
487.32	10097.07
487.50	10312.40
487.68	10633.05
487.85	10703.27
488.03	10712.63
488.21	10712.63
488.39	10670.50
488.57	10698.59
488.75	10768.80
488.92	11178.40
489.10	11087.12
489.28	10934.98
489.46	11225.21
489.64	11391.39
489.81	11543.52
489.99	11569.27
490.17	11508.41
490.35	11693.32
490.53	11906.31
490.70	11864.18
490.88	12063.12
491.06	12023.33
491.24	11990.56
491.41	11962.48
491.59	12112.27
491.77	12416.54
491.95	12236.32
492.13	12533.57
492.30	12589.74
492.48	12624.85
492.66	12678.68
492.84	12587.40
493.01	12966.57
493.19	12926.78
493.37	12924.44
493.54	13015.72
493.72	13266.16
493.90	13032.10
494.08	13139.77
494.25	13415.95
494.43	13469.78
494.61	13472.12
494.79	13748.31
494.96	13617.24
495.14	13671.07
495.32	14005.77
495.49	14043.21
495.67	14052.58
495.85	14193.01
496.02	14125.13
496.20	14078.32
496.38	14457.49
496.55	14204.71
496.73	14864.74
496.91	14492.60
497.09	14401.32
497.26	14731.33
497.44	14651.75
497.62	14494.94
497.79	14941.98
497.97	14860.06
498.14	15157.31
498.32	14937.30
498.50	15091.77
498.67	15183.06
498.85	15410.09
499.03	15220.50
499.20	15353.91
499.38	15447.54
499.56	15637.12
499.73	15681.59
499.91	15733.08
500.08	15529.45
500.26	15758.83
500.44	15859.47
500.61	15590.31
500.79	15871.17
500.97	15854.79
501.14	16217.57
501.32	16187.14
501.49	15990.54
501.67	16168.42
501.84	16273.74
502.02	16315.87
502.20	16379.07
502.37	16734.83
502.55	16456.31
502.72	16500.78
502.90	16334.60
503.07	16570.99
503.25	16617.80
503.43	16563.97
503.60	16912.71
503.78	16959.52
503.95	16950.16
504.13	16959.52
504.30	17371.46
504.48	16964.20
504.65	16936.12
504.83	17329.33
505.01	17598.49
505.18	17364.43
505.36	17184.21
505.53	17380.82
505.71	17362.09
505.88	17434.65
506.06	17277.83
506.23	17631.26
506.41	17752.96
506.58	17944.89
506.76	17624.23
506.93	17785.73
507.11	17776.37
507.28	17638.28
507.46	18260.86
507.63	18155.54
507.81	18422.36
507.98	17935.53
508.16	18059.57
508.33	18265.54
508.50	18242.14
508.68	18576.83
508.85	18679.82
509.03	18443.42
509.20	18789.82
509.38	18789.82
509.55	18530.02
509.73	18679.82
509.90	18607.26
510.08	18649.39
510.25	18785.14
510.42	18988.77
510.60	18892.80
510.77	19211.12
510.95	19227.50
511.12	19274.31
511.30	19222.82
511.47	19232.18
511.64	19335.17
511.82	19557.52
511.99	19119.84
512.17	19555.18
512.34	19337.51
512.51	19583.26
512.69	19578.58
512.86	19768.16
513.04	19920.30
513.21	19854.76
513.38	19981.15
513.56	19988.18
513.73	19866.47
513.90	20018.60
514.08	20196.48
514.25	19903.92
514.43	20161.37
514.60	20301.81
514.77	20196.48
514.95	20575.65
515.12	20304.15
515.29	20077.12
515.47	20409.47
515.64	20486.71
515.81	20489.05
515.99	20596.71
516.16	20589.69
516.33	20929.07
516.51	20989.92
516.68	21025.03
516.85	20865.88
517.03	21111.63
517.20	21006.31
517.37	21085.89
517.54	21053.12
517.72	21055.46
517.89	21181.85
518.06	21095.25
518.24	21132.70
518.41	21242.70
518.58	21228.66
518.75	21525.91
518.93	21373.77
519.10	21474.42
519.27	21642.93
519.45	21556.33
519.62	21692.08
519.79	21633.57
519.96	21612.51
520.14	21678.04
520.31	21729.53
520.48	21961.25
520.65	21443.99
520.83	21905.07
521.00	21963.59
521.17	21916.78
521.34	21642.93
521.52	21919.12
521.69	22272.54
521.86	22279.56
522.03	22132.11
522.20	22443.40
522.38	22396.59
522.55	22473.82
522.72	22361.48
522.89	22375.52
523.07	22101.68
523.24	22448.08
523.41	22834.27
523.58	22424.67
523.75	22829.59
523.92	22775.75
524.10	22775.75
524.27	22906.82
524.44	22836.61
524.61	23222.80
524.78	22586.17
524.96	22836.61
525.13	22970.02
525.30	22904.48
525.47	22923.21
525.64	23253.22
525.81	23037.89
525.98	23391.31
526.16	23243.86
526.33	23213.43
526.50	23435.78
526.67	23269.61
526.84	23541.11
527.01	23470.89
527.18	23850.06
527.36	23594.94
527.53	23786.86
527.70	23939.00
527.87	23934.32
528.04	23693.24
528.21	23871.12
528.38	23733.03
528.55	23803.25
528.72	24051.34
528.89	24086.45
529.07	23957.72
529.24	23845.38
529.41	24100.50
529.58	24135.60
529.75	24182.42
529.92	24011.56
530.09	23929.64
530.26	24173.05
530.43	24121.56
530.60	24280.72
530.77	24252.63
530.94	24341.57
531.11	24210.50
531.28	24439.87
531.46	24130.92
531.63	24411.79
531.80	24748.82
531.97	24524.13
532.14	24737.12
532.31	24170.71
532.48	24753.51
532.65	25142.03
532.82	24519.45
532.99	24716.06
533.16	24559.24
533.33	25102.25
533.50	25099.90
533.67	25280.13
533.84	24510.09
534.01	24987.56
534.18	24767.55
534.35	25465.03
534.52	25408.86
534.69	25352.68
534.86	25291.83
535.03	24980.54
535.20	25376.09
535.37	24936.07
535.54	25385.45
535.71	25261.40
535.88	25343.32
536.05	25177.14
536.22	25743.55
536.38	25706.10
536.55	25766.96
536.72	25717.81
536.89	25579.71
537.06	25556.31
537.23	25256.72
537.40	25579.71
537.57	25443.96
537.74	25848.88
537.91	25811.43
538.08	26300.60
538.25	25673.34
538.42	25682.70
538.59	25970.58
538.75	25642.91
538.92	26052.50
539.09	26082.93
539.26	25968.24
539.43	26192.94
539.60	26146.12
539.77	26082.93
539.94	26298.26
540.11	26331.03
540.28	26515.93
540.44	26001.01
540.61	26410.60
540.78	25874.62
540.95	26647.00
541.12	26148.46
541.29	26700.83
541.46	26455.08
541.62	26345.07
541.79	26148.46
541.96	26115.70
542.13	26546.36
542.30	26504.23
542.47	26771.05
542.63	27147.87
542.80	27007.44
542.97	27204.05
543.14	26757.00
543.31	26789.77
543.48	26981.70
543.64	27201.71
543.81	27037.87
543.98	27115.11
544.15	26878.71
544.32	27281.28
544.48	27056.59
544.65	27225.11
544.82	27388.95
544.99	27199.37
545.16	27253.20
545.32	27152.55
545.49	27386.61
545.66	27372.57
545.83	27353.84
546.00	27613.64
546.16	27321.07
546.33	26965.31
546.50	27220.43
546.67	27552.79
546.83	27098.72
547.00	27751.73
547.17	27768.12
547.34	27510.66
547.50	27597.26
547.67	27737.69
547.84	27885.14
548.00	27850.03
548.17	27517.68
548.34	28002.17
548.51	27866.42
548.67	28191.75
548.84	27971.74
549.01	27962.38
549.18	27772.80
549.34	27793.86
549.51	27915.57
549.68	28259.63
549.84	28039.62
550.01	28212.82
550.18	27999.83
550.34	28095.79
550.51	28313.46
550.68	28348.57
550.84	28109.83
551.01	28222.18
551.18	28107.49
551.34	28004.51
551.51	28030.26
551.68	28423.47
551.84	28393.04
552.01	28280.69
552.18	28678.58
552.34	28568.58
552.51	28414.10
552.68	28215.16
552.84	28418.78
553.01	28463.25
553.18	28634.11
553.34	28804.97
553.51	28379.00
553.67	28762.84
553.84	28936.04
554.01	28802.63
554.17	28547.51
554.34	28683.27
554.51	28690.29
554.67	28910.30
554.84	29076.48
555.00	29055.41
555.17	29144.35
555.33	29144.35
555.50	28833.06
555.67	29099.88
555.83	28844.76
556.00	28933.70
556.16	29142.01
556.33	29149.03
556.50	28809.65
556.66	28734.76
556.83	29041.37
556.99	29062.43
557.16	29301.17
557.32	29303.51
557.49	29380.74
557.65	29319.89
557.82	29324.57
557.98	29202.86
558.15	28938.38
558.32	29345.64
558.48	29191.16
558.65	29467.34
558.81	29408.83
558.98	29406.49
559.14	29436.92
559.31	29130.31
559.47	29242.65
559.64	29413.51
559.80	29663.95
559.97	29593.73
560.13	29455.64
560.30	29319.89
560.46	29474.37
560.63	29797.36
560.79	29589.05
560.96	29680.33
561.12	29572.67
561.29	29479.05
561.45	29729.48
561.61	29881.62
561.78	29673.31
561.94	30043.12
562.11	29921.41
562.27	29460.32
562.44	29851.19
562.60	29507.13
562.77	29525.86
562.93	29582.03
563.10	29905.02
563.26	29811.40
563.42	29874.60
563.59	29523.52
563.75	29633.52
563.92	29682.67
564.08	29537.56
564.24	29991.62
564.41	29944.81
564.57	29612.46
564.74	29888.64
564.90	30108.65
565.07	30331.00
565.23	29883.96
565.39	29799.70
565.56	30494.84
565.72	30148.44
565.88	29773.95
566.05	29626.50
566.21	30078.22
566.38	29996.31
566.54	30087.59
566.70	30052.48
566.87	30171.85
567.03	30192.91
567.19	30230.36
567.36	30401.22
567.52	30270.15
567.68	30230.36
567.85	30101.63
568.01	30026.73
568.17	29848.85
568.34	30228.02
568.50	30092.27
568.66	30300.58
568.83	30333.34
568.99	30024.39
569.15	30239.72
569.32	30010.35
569.48	30118.01
569.64	30188.23
569.81	30534.63
569.97	30167.16
570.13	30621.23
570.30	30441.01
570.46	30295.89
570.62	30312.28
570.78	30167.16
570.95	30010.35
571.11	30314.62
571.27	30106.31
571.43	30338.02
571.60	30396.54
571.76	30199.93
571.92	30630.59
572.09	30586.12
572.25	30356.75
572.41	30607.19
572.57	30572.08
572.74	30625.91
572.90	30251.42
573.06	30209.29
573.22	30600.16
573.38	30019.71
573.55	30281.85
573.71	30721.87
573.87	30473.78
574.03	30565.06
574.20	30429.30
574.36	30443.35
574.52	30656.34
574.68	30345.05
574.84	30253.76
575.01	30710.17
575.17	30969.97
575.33	30595.48
575.49	30731.23
575.65	30448.03
575.82	30621.23
575.98	30387.18
576.14	30728.89
576.30	30883.37
576.46	30394.20
576.62	30438.67
576.79	30677.40
576.95	30616.55
577.11	30766.34
577.27	30810.81
577.43	30808.47
577.59	30806.13
577.75	30485.48
577.92	30771.02
578.08	30267.81
578.24	30782.73
578.40	30693.79
578.56	30661.02
578.72	30799.11
578.88	30909.11
579.04	31035.50
579.21	30328.66
579.37	30689.10
579.53	30845.92
579.69	30199.93
579.85	30464.41
580.01	30848.26
580.17	30541.65
580.33	30979.33
580.49	30909.11
580.65	30555.69
580.82	30761.66
580.98	30876.35
581.14	30705.49
581.30	30899.75
581.46	30452.71
581.62	30735.92
581.78	30733.57
581.94	30401.22
582.10	30918.48
582.26	30780.39
582.42	30551.01
582.58	30782.73
582.74	30649.32
582.90	30522.93
583.06	31065.93
583.22	30874.01
583.38	30616.55
583.54	30501.86
583.70	30618.89
583.86	30785.07
584.02	30522.93
584.18	31096.36
584.34	30810.81
584.50	30953.58
584.66	30717.19
584.82	30602.50
584.98	30866.98
585.14	31012.10
585.30	30616.55
585.46	30710.17
585.62	30494.84
585.78	30469.09
585.94	30827.20
586.10	30740.60
586.26	30799.11
586.42	30960.61
586.58	31091.68
586.74	30602.50
586.90	30462.07
587.06	30422.28
587.22	30639.95
587.38	30759.32
587.54	30939.54
587.70	30927.84
587.86	31110.40
588.02	30951.24
588.18	31199.34
588.34	31213.38
588.49	31204.02
588.65	30796.77
588.81	31115.08
588.97	31564.46
589.13	30988.69
589.29	31028.48
589.45	30969.97
589.61	31229.77
589.77	31386.58
589.93	31421.69
590.08	31084.65
590.24	31381.90
590.40	31318.71
590.56	31115.08
590.72	31292.96
590.88	30991.03
591.04	31089.34
591.20	31377.22
591.35	31084.65
591.51	31505.95
591.67	31545.74
591.83	31929.59
