SpectraSuite Data File
++++++++++++++++++++++++++++++++++++
Date: Fri Oct 18 13:58:40 GMT-05:00 2013
User: bianchi
Dark Spectrum Present: No
Reference Spectrum Present: No
Number of Sampled Component Spectra: 1
Spectrometers: USB2+H05261
Integration Time (usec): 50000 (USB2+H05261)
Spectra Averaged: 1 (USB2+H05261)
Boxcar Smoothing: 0 (USB2+H05261)
Correct for Electrical Dark: No (USB2+H05261)
Strobe/Lamp Enabled: No (USB2+H05261)
Correct for Detector Non-linearity: No (USB2+H05261)
Correct for Stray Light: No (USB2+H05261)
Number of Pixels in Processed Spectrum: 2048
>>>>>Begin Processed Spectral Data<<<<<
365.73	0.00
365.92	0.00
366.12	0.00
366.32	0.00
366.52	0.00
366.72	0.00
366.91	0.00
367.11	0.00
367.31	0.00
367.51	0.00
367.70	0.00
367.90	0.00
368.10	0.00
368.30	0.00
368.49	0.00
368.69	0.00
368.89	0.00
369.09	0.00
369.28	0.00
369.48	0.00
369.68	0.00
369.87	0.00
370.07	0.00
370.27	0.00
370.47	0.00
370.66	117.03
370.86	147.45
371.06	100.64
371.25	140.43
371.45	142.77
371.65	107.66
371.84	112.35
372.04	114.69
372.24	205.97
372.44	205.97
372.63	117.03
372.83	273.84
373.03	196.60
373.22	161.50
373.42	287.89
373.62	145.11
373.81	140.43
374.01	259.80
374.21	182.56
374.40	180.22
374.60	294.91
374.79	238.73
374.99	313.63
375.19	238.73
375.38	205.97
375.58	304.27
375.78	301.93
375.97	287.89
376.17	325.33
376.37	252.78
376.56	264.48
376.76	255.12
376.95	215.33
377.15	220.01
377.35	266.82
377.54	332.36
377.74	182.56
377.93	327.68
378.13	306.61
378.33	360.44
378.52	330.02
378.72	241.08
378.91	276.18
379.11	287.89
379.31	278.52
379.50	217.67
379.70	262.14
379.89	372.15
380.09	311.29
380.28	301.93
380.48	325.33
380.68	325.33
380.87	255.12
381.07	278.52
381.26	353.42
381.46	304.27
381.65	414.27
381.85	351.08
382.04	301.93
382.24	348.74
382.43	297.25
382.63	325.33
382.83	327.68
383.02	301.93
383.22	395.55
383.41	304.27
383.61	327.68
383.80	301.93
384.00	365.12
384.19	386.19
384.39	383.85
384.58	337.04
384.78	318.31
384.97	407.25
385.17	388.53
385.36	423.64
385.56	425.98
385.75	365.12
385.95	402.57
386.14	390.87
386.34	397.89
386.53	381.51
386.72	418.96
386.92	383.85
387.11	421.30
387.31	437.68
387.50	348.74
387.70	390.87
387.89	521.94
388.09	414.27
388.28	440.02
388.48	393.21
388.67	489.17
388.86	421.30
389.06	416.62
389.25	430.66
389.45	482.15
389.64	491.51
389.84	507.90
390.03	470.45
390.22	486.83
390.42	552.37
390.61	486.83
390.81	456.40
391.00	486.83
391.19	528.96
391.39	547.69
391.58	442.36
391.78	517.26
391.97	524.28
392.16	503.22
392.36	498.53
392.55	531.30
392.75	486.83
392.94	648.33
393.13	559.39
393.33	557.05
393.52	535.98
393.71	615.56
393.91	582.79
394.10	550.03
394.29	571.09
394.49	564.07
394.68	580.45
394.88	638.97
395.07	603.86
395.26	650.67
395.46	557.05
395.65	589.82
395.84	493.85
396.04	599.18
396.23	533.64
396.42	615.56
396.62	613.22
396.81	664.71
397.00	669.39
397.19	711.52
397.39	695.14
397.58	711.52
397.77	636.63
397.97	704.50
398.16	723.23
398.35	711.52
398.55	718.54
398.74	655.35
398.93	767.70
399.12	713.86
399.32	636.63
399.51	669.39
399.70	650.67
399.90	732.59
400.09	737.27
400.28	683.44
400.47	781.74
400.67	772.38
400.86	730.25
401.05	751.31
401.24	723.23
401.44	788.76
401.63	760.67
401.82	770.04
402.01	795.78
402.21	805.14
402.40	844.93
402.59	816.85
402.78	901.11
402.97	884.72
403.17	840.25
403.36	767.70
403.55	868.34
403.74	889.40
403.93	926.85
404.13	917.49
404.32	858.98
404.51	901.11
404.70	898.77
404.89	908.13
405.09	891.74
405.28	992.39
405.47	889.40
405.66	980.68
405.85	933.87
406.05	908.13
406.24	947.92
406.43	917.49
406.62	1053.24
406.81	1025.15
407.00	976.00
407.20	1011.11
407.39	1088.35
407.58	1123.46
407.77	1062.60
407.96	1060.26
408.15	1053.24
408.34	1078.99
408.54	1020.47
408.73	1170.27
408.92	1064.94
409.11	1076.65
409.30	1069.62
409.49	1163.25
409.68	1125.80
409.87	1111.75
410.07	1153.88
410.26	1165.59
410.45	1156.22
410.64	1184.31
410.83	1268.57
411.02	1188.99
411.21	1231.12
411.40	1135.16
411.59	1259.21
411.78	1331.76
411.98	1252.19
412.17	1238.14
412.36	1256.87
412.55	1282.61
412.74	1331.76
412.93	1320.06
413.12	1315.38
413.31	1397.30
413.50	1404.32
413.69	1446.45
413.88	1423.05
414.07	1348.15
414.26	1387.94
414.45	1399.64
414.64	1409.00
414.83	1504.96
415.02	1596.25
415.22	1502.62
415.41	1528.37
415.60	1629.01
415.79	1516.67
415.98	1556.46
416.17	1451.13
416.36	1593.90
416.55	1516.67
416.74	1696.89
416.93	1586.88
417.12	1659.44
417.31	1713.27
417.50	1643.06
417.69	1811.57
417.88	1736.68
418.07	1788.17
418.26	1736.68
418.45	1781.15
418.64	1722.63
418.83	1823.28
419.02	1746.04
419.21	1769.44
419.39	1860.73
419.58	1785.83
419.77	1717.95
419.96	1816.26
420.15	1865.41
420.34	1907.54
420.53	1818.60
420.72	1898.17
420.91	1900.52
421.10	1879.45
421.29	1947.33
421.48	2008.18
421.67	1881.79
421.86	1900.52
422.05	1963.71
422.24	1937.96
422.43	2038.61
422.61	2047.97
422.80	1987.11
422.99	1867.75
423.18	2003.50
423.37	2036.27
423.56	2026.90
423.75	2073.71
423.94	1900.52
424.13	1937.96
424.32	1832.64
424.50	2001.16
424.69	2097.12
424.88	2106.48
425.07	2015.20
425.26	2071.37
425.45	1933.28
425.64	2071.37
425.83	2017.54
426.01	2136.91
426.20	2054.99
426.39	2157.97
426.58	1928.60
426.77	2022.22
426.96	2087.76
427.15	2106.48
427.33	2143.93
427.52	2101.80
427.71	2263.30
427.90	2207.13
428.09	2176.70
428.28	2195.42
428.46	2127.55
428.65	2225.85
428.84	2279.68
429.03	2251.60
429.22	2113.50
429.40	2188.40
429.59	2237.55
429.78	2193.08
429.97	2106.48
430.16	2209.47
430.34	2270.32
430.53	2228.19
430.72	2305.43
430.91	2216.49
431.10	2377.98
431.28	2352.24
431.47	2354.58
431.66	2363.94
431.85	2377.98
432.03	2387.35
432.22	2553.52
432.41	2380.32
432.60	2366.28
432.79	2436.50
432.97	2523.10
433.16	2450.54
433.35	2396.71
433.54	2443.52
433.72	2525.44
433.91	2462.24
434.10	2457.56
434.28	2558.21
434.47	2518.42
434.66	2511.39
434.85	2558.21
435.03	2478.63
435.22	2637.78
435.41	2796.94
435.59	2560.55
435.78	2539.48
435.97	2691.62
436.16	2588.63
436.34	2647.15
436.53	2600.34
436.72	2724.38
436.90	2544.16
437.09	2745.45
437.28	2726.72
437.46	2719.70
437.65	2679.91
437.84	2654.17
438.02	2822.69
438.21	2799.28
438.40	2766.51
438.58	2825.03
438.77	2869.50
438.96	2757.15
439.14	2935.03
439.33	2967.80
439.52	2862.48
439.70	2871.84
439.89	2937.37
440.08	3194.83
440.26	3028.65
440.45	2988.86
440.63	2958.44
440.82	3148.02
441.01	2960.78
441.19	3117.59
441.38	3112.91
441.57	3094.19
441.75	3141.00
441.94	3304.84
442.12	3166.74
442.31	3131.64
442.50	3346.97
442.68	3133.98
442.87	3293.13
443.05	3419.52
443.24	3435.91
443.43	3382.07
443.61	3405.48
443.80	3414.84
443.98	3400.80
444.17	3204.19
444.35	3353.99
444.54	3400.80
444.73	3471.01
444.91	3330.58
445.10	3419.52
445.28	3410.16
445.47	3330.58
445.65	3487.40
445.84	3456.97
446.02	3426.54
446.21	3332.92
446.39	3435.91
446.58	3496.76
446.77	3466.33
446.95	3538.89
447.14	3307.18
447.32	3510.80
447.51	3595.06
447.69	3375.05
447.88	3431.23
448.06	3454.63
448.25	3454.63
448.43	3557.61
448.62	3449.95
448.80	3496.76
448.99	3625.49
449.17	3524.85
449.36	3571.66
449.54	3595.06
449.73	3571.66
449.91	3679.32
450.10	3590.38
450.28	3602.08
450.46	3712.09
450.65	3545.91
450.83	3789.33
451.02	3784.65
451.20	3798.69
451.39	3665.28
451.57	3681.66
451.76	3555.27
451.94	3646.55
452.13	3716.77
452.31	3794.01
452.49	3941.46
452.68	3854.86
452.86	3838.48
453.05	3873.59
453.23	3962.53
453.42	3817.41
453.60	3730.81
453.78	3904.01
453.97	3791.67
454.15	3880.61
454.34	3887.63
454.52	4009.34
454.70	3889.97
454.89	3953.16
455.07	4039.76
455.26	4065.51
455.44	4109.98
455.62	4091.26
455.81	4009.34
455.99	4095.94
456.17	4081.89
456.36	4011.68
456.54	4205.94
456.73	4030.40
456.91	4299.56
457.09	4301.90
457.28	4248.07
457.46	4255.09
457.64	4212.96
457.83	4423.61
458.01	4264.46
458.19	4278.50
458.38	4341.69
458.56	4421.27
458.74	4315.95
458.93	4351.06
459.11	4496.17
459.29	4465.74
459.48	4407.23
459.66	4456.38
459.84	4601.49
460.03	4594.47
460.21	4367.44
460.39	4514.89
460.57	4599.15
460.76	4592.13
460.94	4564.04
461.12	4702.14
461.31	4587.45
461.49	4606.17
461.67	4603.83
461.85	4589.79
462.04	4571.07
462.22	4648.30
462.40	4683.41
462.59	4739.58
462.77	4741.93
462.95	4816.82
463.13	4683.41
463.32	4669.37
463.50	4851.93
463.68	4837.89
463.86	4898.74
464.05	4709.16
464.23	4816.82
464.41	4919.81
464.59	4821.50
464.78	4922.15
464.96	4980.66
465.14	4734.90
465.32	4891.72
465.50	5135.14
465.69	4908.10
465.87	4987.68
466.05	5088.32
466.23	4840.23
466.41	5146.84
466.60	5114.07
466.78	5043.85
466.96	4999.38
467.14	5032.15
467.32	5088.32
467.51	5078.96
467.69	5055.56
467.87	5048.54
468.05	5109.39
468.23	5093.01
468.41	5186.63
468.60	5238.12
468.78	5195.99
468.96	5163.22
469.14	5181.95
469.32	5320.04
469.50	5067.26
469.69	5114.07
469.87	5455.79
470.05	5385.57
470.23	5406.64
470.41	5394.93
470.59	5444.09
470.77	5458.13
470.95	5474.51
471.14	5455.79
471.32	5322.38
471.50	5614.95
471.68	5350.46
471.86	5617.29
472.04	5689.84
472.22	5621.97
472.40	5411.32
472.58	5659.42
472.77	5673.46
472.95	5757.72
473.13	5804.53
473.31	5692.18
473.49	5729.63
473.67	5872.40
473.85	5968.37
474.03	5975.39
474.21	5970.71
474.39	5844.32
474.57	6024.54
474.75	5970.71
474.93	6083.05
475.12	5982.41
475.30	6150.93
475.48	6141.57
475.66	6258.59
475.84	6354.55
476.02	6195.40
476.20	6462.22
476.38	6363.92
476.56	6438.81
476.74	6469.24
476.92	6565.20
477.10	6331.15
477.28	6361.58
477.46	6651.80
477.64	6715.00
477.82	6731.38
478.00	6916.28
478.18	6813.30
478.36	7005.22
478.54	6979.48
478.72	6857.77
478.90	7108.21
479.08	7187.79
479.26	7325.88
479.44	7272.04
479.62	7328.22
479.80	7461.63
479.98	7403.11
480.16	7433.54
480.34	7323.54
480.52	7581.00
480.70	7653.55
480.88	7564.61
481.06	7658.23
481.24	7672.28
481.41	7686.32
481.59	7941.44
481.77	7995.27
481.95	8128.68
482.13	8009.31
482.31	8105.28
482.49	8278.47
482.67	8067.83
482.85	8367.42
483.03	8336.99
483.21	8465.72
483.39	8683.39
483.57	8538.27
483.74	8671.68
483.92	8692.75
484.10	8739.56
484.28	8865.95
484.46	8990.00
484.64	9025.11
484.82	9111.71
485.00	9090.64
485.18	9217.03
485.35	9380.87
485.53	9493.21
485.71	9341.08
485.89	9474.49
486.07	9535.34
486.25	9280.22
486.43	9673.43
486.61	9856.00
486.78	9816.21
486.96	9837.27
487.14	9949.62
487.32	10019.83
487.50	10003.45
487.68	10038.56
487.85	10174.31
488.03	10478.58
488.21	10597.95
488.39	10623.69
488.57	10511.35
488.75	10663.48
488.92	10785.19
489.10	10951.37
489.28	11040.31
489.46	11012.22
489.64	11059.03
489.81	11225.21
489.99	11253.30
490.17	11222.87
490.35	11545.86
490.53	11398.41
490.70	11536.50
490.88	11566.93
491.06	11740.13
491.24	11379.68
491.41	11475.65
491.59	11786.94
491.77	11997.59
491.95	11878.22
492.13	12018.65
492.30	12013.97
492.48	11981.20
492.66	12138.02
492.84	12308.88
493.01	12489.10
493.19	12470.37
493.37	12805.07
493.54	12564.00
493.72	12662.30
493.90	12814.43
494.08	12966.57
494.25	12971.25
494.43	13055.51
494.61	13380.84
494.79	13209.98
494.96	12980.61
495.14	13217.01
495.32	13420.63
495.49	13448.72
495.67	13359.78
495.85	13708.52
496.02	14047.90
496.20	13820.86
496.38	13799.80
496.55	13844.27
496.73	14010.45
496.91	14277.27
497.09	13848.95
497.26	14438.76
497.44	14218.75
497.62	14120.45
497.79	14553.45
497.97	14501.96
498.14	14703.25
498.32	14918.57
498.50	14792.19
498.67	14710.27
498.85	14717.29
499.03	15138.58
499.20	14815.59
499.38	14785.16
499.56	14946.66
499.73	14967.73
499.91	15126.88
500.08	15208.80
500.26	15304.76
500.44	15524.77
500.61	15250.93
500.79	15393.70
500.97	15480.30
501.14	15777.55
501.32	15707.34
501.49	15637.12
501.67	15723.72
501.84	15803.30
502.02	15843.09
502.20	16079.48
502.37	15892.24
502.55	15857.13
502.72	16070.12
502.90	15946.07
503.07	16145.02
503.25	16201.19
503.43	16369.71
503.60	16320.56
503.78	16673.98
503.95	16498.44
504.13	16472.69
504.30	16781.64
504.48	16592.06
504.65	16737.17
504.83	16926.75
505.01	16933.78
505.18	16931.44
505.36	16826.11
505.53	16851.86
505.71	16767.60
505.88	16933.78
506.06	16903.35
506.23	17001.65
506.41	16807.39
506.58	17418.27
506.76	17378.48
506.93	17420.61
507.11	17291.88
507.28	17462.74
507.46	17628.92
507.63	17619.55
507.81	17846.58
507.98	17848.93
508.16	17790.41
508.33	17965.95
508.50	17825.52
508.68	18005.74
508.85	18181.28
509.03	18092.34
509.20	18085.32
509.38	18178.94
509.55	18579.17
509.73	18010.42
509.90	18068.94
510.08	18178.94
510.25	18345.12
510.42	18223.41
510.60	18263.20
510.77	18319.37
510.95	18328.74
511.12	18462.15
511.30	18616.62
511.47	18618.96
511.64	18656.41
511.82	18960.68
511.99	18642.37
512.17	18827.27
512.34	18988.77
512.51	18970.04
512.69	19002.81
512.86	19171.33
513.04	19407.72
513.21	19051.96
513.38	19353.89
513.56	19459.21
513.73	19271.97
513.90	19091.75
514.08	19372.61
514.25	19131.54
514.43	19372.61
514.60	19545.81
514.77	19634.75
514.95	19646.46
515.12	19421.77
515.29	19740.08
515.47	19648.80
515.64	20093.50
515.81	19990.52
515.99	20042.01
516.16	19899.23
516.33	20301.81
516.51	20259.68
516.68	20046.69
516.85	20149.67
517.03	19882.85
517.20	20376.70
517.37	20423.51
517.54	20699.70
517.72	20404.79
517.89	20184.78
518.06	20315.85
518.24	20381.38
518.41	20395.43
518.58	20311.17
518.75	20964.18
518.93	20812.04
519.10	20603.74
519.27	20528.84
519.45	20858.85
519.62	20739.49
519.79	20858.85
519.96	21212.28
520.14	21212.28
520.31	21144.40
520.48	21142.06
520.65	21149.08
520.83	21448.67
521.00	21326.96
521.17	21071.84
521.34	21305.90
521.52	21455.69
521.69	21528.25
521.86	21502.50
522.03	21626.55
522.20	21570.38
522.38	21460.37
522.55	21518.89
522.72	21736.56
522.89	21874.65
523.07	21834.86
523.24	21888.69
523.41	22279.56
523.58	21898.05
523.75	22073.59
523.92	21830.18
524.10	21825.50
524.27	22188.28
524.44	22157.85
524.61	22050.19
524.78	22246.79
524.96	22270.20
525.13	22448.08
525.30	22335.73
525.47	22345.09
525.64	22691.49
525.81	22630.64
525.98	22298.28
526.16	22773.41
526.33	22611.92
526.50	22471.48
526.67	22347.44
526.84	22588.51
527.01	22906.82
527.18	22911.50
527.36	22817.88
527.53	22724.26
527.70	22960.66
527.87	23253.22
528.04	23173.64
528.21	23119.81
528.38	23194.71
528.55	23007.47
528.72	23098.75
528.89	23388.97
529.07	23168.96
529.24	23346.84
529.41	23466.21
529.58	23365.57
529.75	23297.69
529.92	23620.69
530.09	23276.63
530.26	23335.14
530.43	23211.09
530.60	23154.92
530.77	23583.24
530.94	23309.40
531.11	23620.69
531.28	23850.06
531.46	23728.35
531.63	23576.22
531.80	23800.91
531.97	23836.02
532.14	24023.26
532.31	23758.78
532.48	24056.03
532.65	24294.76
532.82	23625.37
532.99	24034.96
533.16	23770.48
533.33	24271.36
533.50	24512.43
533.67	24231.57
533.84	24002.19
534.01	24266.67
534.18	24252.63
534.35	24346.25
534.52	24095.82
534.69	24290.08
534.86	24570.94
535.03	24627.12
535.20	24369.66
535.37	24629.46
535.54	24474.98
535.71	24751.17
535.88	24519.45
536.05	24613.07
536.22	24566.26
536.38	24788.61
536.55	24472.64
536.72	24648.18
536.89	24898.62
537.06	24875.21
537.23	24802.66
537.40	24858.83
537.57	24879.89
537.74	24992.24
537.91	25034.37
538.08	25111.61
538.25	24954.79
538.42	24947.77
538.59	24957.13
538.75	24762.87
538.92	24891.60
539.09	25666.31
539.26	24926.71
539.43	25256.72
539.60	25404.17
539.77	25214.59
539.94	25441.62
540.11	25362.04
540.28	25443.96
540.44	25500.14
540.61	25441.62
540.78	25399.49
540.95	25867.60
541.12	25645.25
541.29	25582.06
541.46	25563.33
541.62	25249.70
541.79	25652.27
541.96	25350.34
542.13	25542.27
542.30	25521.20
542.47	25553.97
542.63	26001.01
542.80	26003.35
542.97	26143.78
543.14	26347.41
543.31	26134.42
543.48	26015.05
543.64	26071.23
543.81	26560.40
543.98	26228.04
544.15	26635.30
544.32	26593.17
544.48	26651.68
544.65	25888.67
544.82	26232.72
544.99	25984.63
545.16	26120.38
545.32	26366.13
545.49	26581.46
545.66	26707.85
545.83	26801.47
546.00	26857.65
546.16	26363.79
546.33	26298.26
546.50	26230.38
546.67	26773.39
546.83	25818.45
547.00	26878.71
547.17	26466.78
547.34	26551.04
547.50	26801.47
547.67	26969.99
547.84	26773.39
548.00	26927.86
548.17	27054.25
548.34	27307.03
548.51	26789.77
548.67	27180.64
548.84	27005.10
549.01	26883.39
549.18	27171.28
549.34	26656.36
549.51	27232.13
549.68	26838.92
549.84	27421.72
550.01	27360.86
550.18	26967.65
550.34	26881.05
550.51	27295.33
550.68	27480.23
550.84	27157.24
551.01	27372.57
551.18	26888.07
551.34	27234.47
551.51	27407.67
551.68	27683.86
551.84	27328.10
552.01	27138.51
552.18	27620.66
552.34	27463.85
552.51	27576.19
552.68	27810.25
552.84	27445.12
553.01	27641.73
553.18	27524.70
553.34	27487.25
553.51	27522.36
553.67	27747.05
553.84	28257.29
554.01	27950.68
554.17	28112.17
554.34	27754.07
554.51	27990.47
554.67	28156.64
554.84	27749.39
555.00	28072.39
555.17	27899.19
555.33	28203.46
555.50	27976.42
555.67	27852.38
555.83	28149.62
556.00	27927.27
556.16	28056.00
556.33	28182.39
556.50	28238.56
556.66	28105.15
556.83	27784.50
556.99	28638.80
557.16	28706.67
557.32	28325.16
557.49	28173.03
557.65	28135.58
557.82	28112.17
557.98	28224.52
558.15	28570.92
558.32	28173.03
558.48	28418.78
558.65	28706.67
558.81	28290.06
558.98	28348.57
559.14	28364.95
559.31	28191.75
559.47	28147.28
559.64	28669.22
559.80	28687.95
559.97	28762.84
560.13	28608.37
560.30	28245.58
560.46	28912.64
560.63	28348.57
560.79	28545.17
560.96	28940.72
561.12	28390.70
561.29	28568.58
561.45	28467.94
561.61	28875.19
561.78	28683.27
561.94	28989.88
562.11	28701.99
562.27	28624.75
562.44	28739.44
562.60	28772.21
562.77	28547.51
562.93	28589.64
563.10	28664.54
563.26	28570.92
563.42	29237.97
563.59	28800.29
563.75	28669.22
563.92	28877.53
564.08	28879.87
564.24	28704.33
564.41	28872.85
564.57	28507.72
564.74	28936.04
564.90	29174.78
565.07	28814.34
565.23	28861.15
565.39	28945.41
565.56	29191.16
565.72	28830.72
565.88	28713.69
566.05	28606.03
566.21	28797.95
566.38	29041.37
566.54	29357.34
566.70	28833.06
566.87	29123.29
567.03	29174.78
567.19	29453.30
567.36	29064.77
567.52	28947.75
567.68	29273.08
567.85	29048.39
568.01	29106.90
568.17	29116.26
568.34	29333.93
568.50	29240.31
568.66	29317.55
568.83	29228.61
568.99	28943.06
569.15	28840.08
569.32	28907.96
569.48	29097.54
569.64	29249.67
569.81	29130.31
569.97	28982.85
570.13	29413.51
570.30	28999.24
570.46	29579.69
570.62	29500.11
570.78	29338.62
570.95	29050.73
571.11	29469.69
571.27	28943.06
571.43	28922.00
571.60	29125.63
571.76	28793.27
571.92	29336.27
572.09	29450.96
572.25	29385.43
572.41	29507.13
572.57	29603.10
572.74	29046.05
572.90	29216.91
573.06	29013.28
573.22	29589.05
573.38	29273.08
573.55	29340.96
573.71	29923.75
573.87	29514.16
574.03	29137.33
574.20	29383.09
574.36	28978.17
574.52	29127.97
574.68	29095.20
574.84	29186.48
575.01	29525.86
575.17	29333.93
575.33	29336.27
575.49	29345.64
575.65	29373.72
575.82	29364.36
575.98	29209.89
576.14	29614.80
576.30	29443.94
576.46	29434.58
576.62	29291.80
576.79	29418.19
576.95	29661.61
577.11	29795.02
577.27	29315.21
577.43	29560.97
577.59	29710.76
577.75	29771.61
577.92	29390.11
578.08	29345.64
578.24	29572.67
578.40	29476.71
578.56	29462.66
578.72	29495.43
578.88	29715.44
579.04	30174.19
579.21	29565.65
579.37	29848.85
579.53	29647.57
579.69	29308.19
579.85	29357.34
580.01	29556.28
580.17	29010.94
580.33	29788.00
580.49	29867.58
580.65	29488.41
580.82	29661.61
580.98	29530.54
581.14	29645.23
581.30	30008.01
581.46	29401.81
581.62	29507.13
581.78	29610.12
581.94	29500.11
582.10	29567.99
582.26	29481.39
582.42	29710.76
582.58	29729.48
582.74	29708.42
582.90	29701.40
583.06	29465.00
583.22	29905.02
583.38	29764.59
583.54	29900.34
583.70	29446.28
583.86	29752.89
584.02	29399.47
584.18	29724.80
584.34	30022.05
584.50	29610.12
584.66	29729.48
584.82	29333.93
584.98	29912.05
585.14	29607.78
585.30	29247.33
585.46	29310.53
585.62	29457.98
585.78	29619.48
585.94	29872.26
586.10	30150.78
586.26	29612.46
586.42	29984.60
586.58	29483.73
586.74	29764.59
586.90	29532.88
587.06	29516.50
587.22	29425.22
587.38	29371.38
587.54	29865.24
587.70	30368.45
587.86	29895.66
588.02	29951.84
588.18	29879.28
588.34	29788.00
588.49	30045.46
588.65	29675.65
588.81	29661.61
588.97	29970.56
589.13	29703.74
589.29	29799.70
589.45	29738.85
589.61	29853.53
589.77	30272.49
589.93	30064.18
590.08	30057.16
590.24	29820.77
590.40	29975.24
590.56	29968.22
590.72	29769.27
590.88	29668.63
591.04	29841.83
591.20	29942.47
591.35	29893.32
591.51	30511.22
591.67	30122.69
591.83	30478.46
591.99	30162.48
