SpectraSuite Data File
++++++++++++++++++++++++++++++++++++
Date: Fri Oct 18 13:58:12 GMT-05:00 2013
User: bianchi
Dark Spectrum Present: No
Reference Spectrum Present: No
Number of Sampled Component Spectra: 1
Spectrometers: USB2+H05261
Integration Time (usec): 50000 (USB2+H05261)
Spectra Averaged: 1 (USB2+H05261)
Boxcar Smoothing: 0 (USB2+H05261)
Correct for Electrical Dark: No (USB2+H05261)
Strobe/Lamp Enabled: No (USB2+H05261)
Correct for Detector Non-linearity: No (USB2+H05261)
Correct for Stray Light: No (USB2+H05261)
Number of Pixels in Processed Spectrum: 2048
>>>>>Begin Processed Spectral Data<<<<<
365.73	0.00
365.92	0.00
366.12	0.00
366.32	0.00
366.52	0.00
366.72	0.00
366.91	0.00
367.11	0.00
367.31	0.00
367.51	0.00
367.70	0.00
367.90	0.00
368.10	0.00
368.30	0.00
368.49	0.00
368.69	0.00
368.89	0.00
369.09	0.00
369.28	0.00
369.48	0.00
369.68	0.00
369.87	0.00
370.07	0.00
370.27	0.00
370.47	0.00
370.66	117.03
370.86	180.22
371.06	147.45
371.25	147.45
371.45	112.35
371.65	194.26
371.84	177.88
372.04	180.22
372.24	170.86
372.44	243.42
372.63	189.58
372.83	182.56
373.03	175.54
373.22	196.60
373.42	208.31
373.62	198.95
373.81	205.97
374.01	269.16
374.21	248.10
374.40	212.99
374.60	252.78
374.79	238.73
374.99	292.57
375.19	203.63
375.38	229.37
375.58	187.24
375.78	245.76
375.97	285.55
376.17	297.25
376.37	262.14
376.56	208.31
376.76	236.39
376.95	243.42
377.15	238.73
377.35	283.20
377.54	327.68
377.74	257.46
377.93	308.95
378.13	229.37
378.33	262.14
378.52	297.25
378.72	287.89
378.91	308.95
379.11	304.27
379.31	304.27
379.50	280.86
379.70	280.86
379.89	273.84
380.09	411.93
380.28	330.02
380.48	304.27
380.68	358.10
380.87	297.25
381.07	276.18
381.26	297.25
381.46	339.38
381.65	346.40
381.85	374.49
382.04	367.46
382.24	414.27
382.43	306.61
382.63	348.74
382.83	360.44
383.02	358.10
383.22	327.68
383.41	381.51
383.61	381.51
383.80	362.78
384.00	339.38
384.19	416.62
384.39	365.12
384.58	379.17
384.78	386.19
384.97	369.80
385.17	416.62
385.36	447.04
385.56	437.68
385.75	369.80
385.95	327.68
386.14	346.40
386.34	409.59
386.53	470.45
386.72	503.22
386.92	409.59
387.11	372.15
387.31	397.89
387.50	388.53
387.70	440.02
387.89	472.79
388.09	390.87
388.28	444.70
388.48	463.43
388.67	454.06
388.86	409.59
389.06	395.55
389.25	472.79
389.45	451.72
389.64	463.43
389.84	550.03
390.03	512.58
390.22	587.47
390.42	533.64
390.61	482.15
390.81	468.11
391.00	512.58
391.19	550.03
391.39	571.09
391.58	514.92
391.78	571.09
391.97	589.82
392.16	535.98
392.36	589.82
392.55	603.86
392.75	503.22
392.94	561.73
393.13	552.37
393.33	564.07
393.52	547.69
393.71	545.34
393.91	685.78
394.10	585.13
394.29	561.73
394.49	622.58
394.68	634.29
394.88	578.11
395.07	643.65
395.26	594.50
395.46	578.11
395.65	676.41
395.84	634.29
396.04	601.52
396.23	695.14
396.42	697.48
396.62	617.90
396.81	631.94
397.00	634.29
397.19	636.63
397.39	671.73
397.58	645.99
397.77	699.82
397.97	711.52
398.16	699.82
398.35	777.06
398.55	653.01
398.74	737.27
398.93	772.38
399.12	718.54
399.32	688.12
399.51	779.40
399.70	732.59
399.90	730.25
400.09	873.02
400.28	905.79
400.47	664.71
400.67	861.32
400.86	758.33
401.05	849.61
401.24	840.25
401.44	802.80
401.63	826.21
401.82	830.89
402.01	791.10
402.21	774.72
402.40	835.57
402.59	844.93
402.78	870.68
402.97	819.19
403.17	898.77
403.36	821.53
403.55	833.23
403.74	1020.47
403.93	1015.79
404.13	973.66
404.32	1022.81
404.51	922.17
404.70	947.92
404.89	889.40
405.09	992.39
405.28	1015.79
405.47	978.34
405.66	1022.81
405.85	929.19
406.05	1039.20
406.24	964.30
406.43	1053.24
406.62	1043.88
406.81	1004.09
407.00	1006.43
407.20	1018.13
407.39	1076.65
407.58	1102.39
407.77	1153.88
407.96	1160.91
408.15	1111.75
408.34	1013.45
408.54	1027.50
408.73	1158.57
408.92	1128.14
409.11	1179.63
409.30	1275.59
409.49	1203.04
409.68	1149.20
409.87	1149.20
410.07	1219.42
410.26	1116.44
410.45	1233.46
410.64	1240.48
410.83	1224.10
411.02	1306.02
411.21	1266.23
411.40	1268.57
411.59	1287.29
411.78	1284.95
411.98	1401.98
412.17	1392.62
412.36	1317.72
412.55	1364.53
412.74	1315.38
412.93	1336.45
413.12	1327.08
413.31	1399.64
413.50	1357.51
413.69	1495.60
413.88	1444.11
414.07	1451.13
414.26	1430.07
414.45	1533.05
414.64	1586.88
414.83	1692.21
415.02	1561.14
415.22	1650.08
415.41	1629.01
415.60	1547.09
415.79	1619.65
415.98	1516.67
416.17	1633.69
416.36	1678.16
416.55	1703.91
416.74	1706.25
416.93	1694.55
417.12	1717.95
417.31	1781.15
417.50	1680.50
417.69	1734.34
417.88	1769.44
418.07	1834.98
418.26	1804.55
418.45	1727.32
418.64	1806.89
418.83	1827.96
419.02	1797.53
419.21	1900.52
419.39	1849.02
419.58	1776.47
419.77	1776.47
419.96	1963.71
420.15	1849.02
420.34	1851.36
420.53	1898.17
420.72	1961.37
420.91	1933.28
421.10	1942.64
421.29	2115.84
421.48	1994.14
421.67	1966.05
421.86	1944.99
422.05	1980.09
422.24	2057.33
422.43	2076.06
422.61	2092.44
422.80	2125.21
422.99	2165.00
423.18	2019.88
423.37	1933.28
423.56	2150.95
423.75	2047.97
423.94	2045.63
424.13	1907.54
424.32	1984.77
424.50	2083.08
424.69	2090.10
424.88	2211.81
425.07	2017.54
425.26	2008.18
425.45	2188.40
425.64	2174.36
425.83	2087.76
426.01	2167.34
426.20	2064.35
426.39	2052.65
426.58	2108.82
426.77	2099.46
426.96	2122.87
427.15	1996.48
427.33	2122.87
427.52	2146.27
427.71	2155.63
427.90	2106.48
428.09	2169.68
428.28	2291.38
428.46	2286.70
428.65	2253.94
428.84	2312.45
429.03	2331.17
429.22	2314.79
429.40	2319.47
429.59	2345.22
429.78	2258.62
429.97	2169.68
430.16	2359.26
430.34	2349.90
430.53	2408.41
430.72	2363.94
430.91	2260.96
431.10	2296.07
431.28	2413.09
431.47	2406.07
431.66	2464.58
431.85	2471.61
432.03	2424.80
432.22	2441.18
432.41	2506.71
432.60	2473.95
432.79	2640.12
432.97	2464.58
433.16	2581.61
433.35	2607.36
433.54	2597.99
433.72	2644.81
433.91	2569.91
434.10	2644.81
434.28	2579.27
434.47	2520.76
434.66	2693.96
434.85	2708.00
435.03	2670.55
435.22	2619.06
435.41	2696.30
435.59	2696.30
435.78	2715.02
435.97	2740.77
436.16	2761.83
436.34	2637.78
436.53	2708.00
436.72	2944.39
436.90	2665.87
437.09	2841.41
437.28	2848.43
437.46	2768.85
437.65	2792.26
437.84	2808.64
438.02	2733.75
438.21	2836.73
438.40	2806.30
438.58	2815.66
438.77	2967.80
438.96	3002.91
439.14	2988.86
439.33	3143.34
439.52	2998.23
439.70	3054.40
439.89	3014.61
440.08	3103.55
440.26	3194.83
440.45	3148.02
440.63	3108.23
440.82	3101.21
441.01	3213.56
441.19	3208.87
441.38	3232.28
441.57	3297.81
441.75	3213.56
441.94	3351.65
442.12	3370.37
442.31	3372.71
442.50	3335.26
442.68	3501.44
442.87	3487.40
443.05	3412.50
443.24	3503.78
443.43	3468.67
443.61	3496.76
443.80	3641.87
443.98	3372.71
444.17	3286.11
444.35	3452.29
444.54	3557.61
444.73	3576.34
444.91	3541.23
445.10	3412.50
445.28	3449.95
445.47	3400.80
445.65	3424.20
445.84	3604.42
446.02	3562.30
446.21	3606.77
446.39	3669.96
446.58	3581.02
446.77	3534.21
446.95	3592.72
447.14	3698.05
447.32	3606.77
447.51	3599.74
447.69	3510.80
447.88	3665.28
448.06	3733.15
448.25	3557.61
448.43	3574.00
448.62	3662.94
448.80	3501.44
448.99	3604.42
449.17	3698.05
449.36	3684.00
449.54	3674.64
449.73	3784.65
449.91	3789.33
450.10	3726.13
450.28	3955.51
450.46	3833.80
450.65	3733.15
450.83	3810.39
451.02	3918.06
451.20	3765.92
451.39	3932.10
451.57	3875.93
451.76	3833.80
451.94	3702.73
452.13	3885.29
452.31	3859.54
452.49	3822.09
452.68	3904.01
452.86	3988.27
453.05	3946.14
453.23	4119.34
453.42	3967.21
453.60	3882.95
453.78	3960.19
453.97	3946.14
454.15	3822.09
454.34	4037.42
454.52	4245.73
454.70	4098.28
454.89	4117.00
455.07	4170.83
455.26	4189.56
455.44	4257.43
455.62	4152.11
455.81	4112.32
455.99	4107.64
456.17	4194.24
456.36	4271.48
456.54	4306.59
456.73	4217.65
456.91	4479.79
457.09	4308.93
457.28	4397.87
457.46	4252.75
457.64	4386.16
457.83	4517.23
458.01	4407.23
458.19	4348.72
458.38	4407.23
458.56	4622.56
458.74	4545.32
458.93	4500.85
459.11	4573.41
459.29	4550.00
459.48	4514.89
459.66	4617.88
459.84	4585.11
460.03	4627.24
460.21	4629.58
460.39	4624.90
460.57	4688.09
460.76	4695.11
460.94	4697.46
461.12	4720.86
461.31	4772.35
461.49	4667.03
461.67	4720.86
461.85	4814.48
462.04	4924.49
462.22	4938.53
462.40	4840.23
462.59	4812.14
462.77	4858.95
462.95	4849.59
463.13	5074.28
463.32	4884.70
463.50	4947.89
463.68	5004.07
463.86	4741.93
464.05	4973.64
464.23	4917.47
464.41	5128.11
464.59	4940.87
464.78	5153.86
464.96	4950.23
465.14	5029.81
465.32	4952.57
465.50	5128.11
465.69	5093.01
465.87	5085.98
466.05	5268.55
466.23	5149.18
466.41	5163.22
466.60	5296.63
466.78	5121.09
466.96	5214.71
467.14	5217.05
467.32	5289.61
467.51	5343.44
467.69	5123.43
467.87	5270.89
468.05	5233.44
468.23	5212.37
468.41	5317.70
468.60	5259.18
468.78	5397.28
468.96	5334.08
469.14	5385.57
469.32	5493.24
469.50	5289.61
469.69	5369.19
469.87	5481.53
470.05	5530.69
470.23	5474.51
470.41	5544.73
470.59	5474.51
470.77	5495.58
470.95	5699.20
471.14	5750.70
471.32	5621.97
471.50	5820.91
471.68	5657.07
471.86	5757.72
472.04	5741.33
472.22	5905.17
472.40	5837.30
472.58	5942.62
472.77	5722.61
472.95	5994.11
473.13	6164.97
473.31	5886.45
473.49	6099.44
473.67	5898.15
473.85	6061.99
474.03	6132.20
474.21	6064.33
474.39	5963.68
474.57	6228.17
474.75	6277.32
474.93	6258.59
475.12	6373.28
475.30	6162.63
475.48	6246.89
475.66	6525.41
475.84	6464.56
476.02	6455.20
476.20	6485.62
476.38	6586.27
476.56	6780.53
476.74	6583.93
476.92	6747.76
477.10	6736.06
477.28	6930.33
477.46	6848.41
477.64	6918.62
477.82	7087.14
478.00	7115.23
478.18	7061.40
478.36	7169.06
478.54	7148.00
478.72	7318.86
478.90	7478.01
479.08	7325.88
479.26	7517.80
479.44	7489.71
479.62	7405.46
479.80	7597.38
479.98	7627.81
480.16	7609.08
480.34	7775.26
480.52	7918.03
480.70	7808.03
480.88	7850.16
481.06	7929.74
481.24	7866.54
481.41	8051.44
481.59	8147.40
481.77	8273.79
481.95	8280.82
482.13	8498.49
482.31	8086.55
482.49	8365.07
482.67	8400.18
482.85	8634.24
483.03	8835.52
483.21	8662.32
483.39	8713.81
483.57	8786.37
483.74	8758.28
483.92	8833.18
484.10	8943.19
484.28	9006.38
484.46	9238.09
484.64	9371.50
484.82	9273.20
485.00	9390.23
485.18	9198.31
485.35	9738.97
485.53	9458.10
485.71	9694.50
485.89	9898.13
486.07	9769.40
486.25	9914.51
486.43	9771.74
486.61	10019.83
486.78	10127.50
486.96	10066.64
487.14	10366.23
487.32	10284.31
487.50	10387.30
487.68	10429.43
487.85	10431.77
488.03	10850.72
488.21	10869.45
488.39	10710.29
488.57	10934.98
488.75	10626.03
488.92	11255.64
489.10	11248.61
489.28	11421.81
489.46	11314.15
489.64	11084.78
489.81	11520.12
489.99	11716.72
490.17	11644.17
490.35	11901.62
490.53	11885.24
490.70	11990.56
490.88	12020.99
491.06	12128.66
491.24	11833.75
491.41	12060.78
491.59	12308.88
491.77	12414.20
491.95	12535.91
492.13	12545.27
492.30	12524.21
492.48	12578.04
492.66	12580.38
492.84	12662.30
493.01	12685.70
493.19	13050.83
493.37	13034.44
493.54	13074.23
493.72	13366.80
493.90	13186.58
494.08	13284.88
494.25	13493.19
494.43	13364.46
494.61	13633.62
494.79	13612.56
494.96	13804.48
495.14	13846.61
495.32	13940.23
495.49	14012.79
495.67	13982.36
495.85	13724.90
496.02	14200.03
496.20	14148.54
496.38	14281.95
496.55	14373.23
496.73	14541.75
496.91	14490.26
497.09	14595.58
497.26	14672.82
497.44	14616.65
497.62	14970.07
497.79	14546.43
497.97	15087.09
498.14	14965.39
498.32	15557.54
498.50	15269.66
498.67	15293.06
498.85	15438.17
499.03	15424.13
499.20	15297.74
499.38	15316.47
499.56	15620.74
499.73	15733.08
499.91	15704.99
500.08	16042.03
500.26	15456.90
500.44	15903.94
500.61	16049.05
500.79	16027.99
500.97	16072.46
501.14	16395.45
501.32	16374.39
501.49	16407.16
501.67	15988.20
501.84	16147.36
502.02	16400.13
502.20	16554.61
502.37	16578.01
502.55	16449.28
502.72	16643.55
502.90	16695.04
503.07	16713.77
503.25	16746.53
503.43	16585.04
503.60	16624.83
503.78	17334.01
503.95	17018.04
504.13	16812.07
504.30	17055.48
504.48	16910.37
504.65	16837.81
504.83	17404.22
505.01	17628.92
505.18	17446.35
505.36	17802.11
505.53	17446.35
505.71	17734.24
505.88	17603.17
506.06	17326.99
506.23	17893.40
506.41	17813.82
506.58	17935.53
506.76	17869.99
506.93	18302.99
507.11	17767.01
507.28	18108.72
507.46	18258.52
507.63	18008.08
507.81	18310.01
507.98	18214.05
508.16	17994.04
508.33	18415.34
508.50	18251.50
508.68	18740.67
508.85	18785.14
509.03	18635.35
509.20	18415.34
509.38	18754.71
509.55	18445.76
509.73	18614.28
509.90	18738.33
510.08	18871.74
510.25	18881.10
510.42	18855.36
510.60	19133.88
510.77	19068.34
510.95	19342.19
511.12	19180.69
511.30	19250.91
511.47	19257.93
511.64	19180.69
511.82	19775.19
511.99	19374.95
512.17	19583.26
512.34	19435.81
512.51	19957.75
512.69	19878.17
512.86	19758.80
513.04	19850.08
513.21	19934.34
513.38	20018.60
513.56	19807.95
513.73	19873.49
513.90	20112.22
514.08	19957.75
514.25	20058.39
514.43	20463.30
514.60	20379.04
514.77	20556.93
514.95	20830.77
515.12	20472.67
515.29	20624.80
515.47	20390.75
515.64	20372.02
515.81	20566.29
515.99	20751.19
516.16	21280.15
516.33	20954.82
516.51	20758.21
516.68	20755.87
516.85	21006.31
517.03	20816.72
517.20	20816.72
517.37	21282.49
517.54	21301.22
517.72	21474.42
517.89	20858.85
518.06	21013.33
518.24	21167.80
518.41	21280.15
518.58	21502.50
518.75	21525.91
518.93	21415.90
519.10	21282.49
519.27	21656.98
519.45	21591.44
519.62	21757.62
519.79	21661.66
519.96	21619.53
520.14	21757.62
520.31	21722.51
520.48	21874.65
520.65	21984.65
520.83	21846.56
521.00	21958.91
521.17	21474.42
521.34	21860.60
521.52	21956.57
521.69	22120.40
521.86	22319.35
522.03	22546.38
522.20	22080.61
522.38	22588.51
522.55	22415.31
522.72	22419.99
522.89	22733.62
523.07	22450.42
523.24	22815.54
523.41	23098.75
523.58	22616.60
523.75	22958.31
523.92	22768.73
524.10	23096.41
524.27	22906.82
524.44	23211.09
524.61	23250.88
524.78	22981.72
524.96	23325.78
525.13	23300.03
525.30	23276.63
525.47	22860.01
525.64	23243.86
525.81	23681.54
525.98	23510.68
526.16	23246.20
526.33	23339.82
526.50	23761.12
526.67	23112.79
526.84	23498.98
527.01	23260.24
527.18	23885.17
527.36	23969.43
527.53	23681.54
527.70	24009.22
527.87	24027.94
528.04	23927.30
528.21	23779.84
528.38	23779.84
528.55	23838.36
528.72	23889.85
528.89	23995.17
529.07	24170.71
529.24	24025.60
529.41	24313.48
529.58	24500.73
529.75	24077.09
529.92	24067.73
530.09	24041.98
530.26	24503.07
530.43	24292.42
530.60	24189.44
530.77	24484.34
530.94	24676.27
531.11	24402.43
531.28	24486.68
531.46	24554.56
531.63	25032.03
531.80	24465.62
531.97	25003.94
532.14	24666.91
532.31	24652.86
532.48	24936.07
532.65	24837.76
532.82	24858.83
532.99	24898.62
533.16	24851.81
533.33	25174.80
533.50	25476.73
533.67	25254.38
533.84	25008.62
534.01	25085.86
534.18	25118.63
534.35	25090.54
534.52	25074.16
534.69	25385.45
534.86	25144.38
535.03	25600.78
535.20	25617.16
535.37	25411.20
535.54	25205.23
535.71	25593.76
535.88	25371.41
536.05	25296.51
536.22	25546.95
536.38	25488.43
536.55	25528.22
536.72	25687.38
536.89	25415.88
537.06	25778.66
537.23	26017.40
537.40	25811.43
537.57	25984.63
537.74	25593.76
537.91	26064.21
538.08	26017.40
538.25	25752.91
538.42	25818.45
538.59	26572.10
538.75	25656.95
538.92	26040.80
539.09	26101.65
539.26	26003.35
539.43	26380.18
539.60	26300.60
539.77	26309.96
539.94	26525.29
540.11	26244.43
540.28	26202.30
540.44	26333.37
540.61	26260.81
540.78	26609.55
540.95	26412.95
541.12	26628.27
541.29	26347.41
541.46	26434.01
541.62	26270.17
541.79	26380.18
541.96	26309.96
542.13	26665.72
542.30	26735.94
542.47	26843.60
542.63	26705.51
542.80	26984.04
542.97	26960.63
543.14	27087.02
543.31	27269.58
543.48	27023.83
543.64	27454.48
543.81	27321.07
543.98	27201.71
544.15	27721.30
544.32	27424.06
544.48	27447.46
544.65	27171.28
544.82	27218.09
544.99	26965.31
545.16	27365.54
545.32	27260.22
545.49	27583.21
545.66	27798.54
545.83	27374.91
546.00	27978.76
546.16	27524.70
546.33	27463.85
546.50	27676.83
546.67	27798.54
546.83	27536.40
547.00	27817.27
547.17	27477.89
547.34	27775.14
547.50	27765.78
547.67	28072.39
547.84	27718.96
548.00	27831.31
548.17	27721.30
548.34	28060.68
548.51	27852.38
548.67	28301.76
548.84	28147.28
549.01	28182.39
549.18	28048.98
549.34	28208.14
549.51	28065.36
549.68	28142.60
549.84	28203.46
550.01	28109.83
550.18	27969.40
550.34	28149.62
550.51	28409.42
550.68	28467.94
550.84	28606.03
551.01	28142.60
551.18	28690.29
551.34	27756.41
551.51	28371.97
551.68	28414.10
551.84	28496.02
552.01	28685.61
552.18	28535.81
552.34	28819.02
552.51	28741.78
552.68	28481.98
552.84	28718.37
553.01	28900.94
553.18	28650.50
553.34	28699.65
553.51	29088.18
553.67	28652.84
553.84	29041.37
554.01	28861.15
554.17	28769.86
554.34	29053.07
554.51	28926.68
554.67	28514.75
554.84	28748.80
555.00	29046.05
555.17	28486.66
555.33	28645.82
555.50	28992.22
555.67	28872.85
555.83	29221.59
556.00	29142.01
556.16	29303.51
556.33	29413.51
556.50	28926.68
556.66	29312.87
556.83	29378.40
556.99	29273.08
557.16	29343.30
557.32	29312.87
557.49	29425.22
557.65	29132.65
557.82	29193.50
557.98	29116.26
558.15	29575.01
558.32	29710.76
558.48	29436.92
558.65	29830.13
558.81	29427.56
558.98	29500.11
559.14	29546.92
559.31	29322.23
559.47	29376.06
559.64	29521.18
559.80	29757.57
559.97	29668.63
560.13	29472.03
560.30	29357.34
560.46	29546.92
560.63	29773.95
560.79	29893.32
560.96	29589.05
561.12	30017.37
561.29	29612.46
561.45	29392.45
561.61	29673.31
561.78	29715.44
561.94	29848.85
562.11	29401.81
562.27	30225.68
562.44	30092.27
562.60	29799.70
562.77	29692.04
562.93	29659.27
563.10	30160.14
563.26	30045.46
563.42	30211.64
563.59	30068.86
563.75	30323.98
563.92	30169.51
564.08	29986.94
564.24	29855.87
564.41	29944.81
564.57	29806.72
564.74	29914.39
564.90	30169.51
565.07	30216.32
565.23	29940.13
565.39	30396.54
565.56	30169.51
565.72	30125.04
565.88	30052.48
566.05	29708.42
566.21	30115.67
566.38	29853.53
566.54	30295.89
566.70	30384.83
566.87	30242.06
567.03	30132.06
567.19	30527.61
567.36	30560.37
567.52	30064.18
567.68	30003.33
567.85	30293.55
568.01	30127.38
568.17	30092.27
568.34	30382.49
568.50	30312.28
568.66	30387.18
568.83	30363.77
568.99	30466.75
569.15	30419.94
569.32	30628.25
569.48	30120.35
569.64	30164.82
569.81	30429.30
569.97	30452.71
570.13	30462.07
570.30	30089.93
570.46	30352.07
570.62	30384.83
570.78	30061.84
570.95	30305.26
571.11	30909.11
571.27	29799.70
571.43	30450.37
571.60	30623.57
571.76	30415.26
571.92	30195.25
572.09	30740.60
572.25	30728.89
572.41	30338.02
572.57	30579.10
572.74	30581.44
572.90	30441.01
573.06	30415.26
573.22	30665.70
573.38	30450.37
573.55	30698.47
573.71	30679.74
573.87	30890.39
574.03	30553.35
574.20	30703.15
574.36	30459.73
574.52	30871.67
574.68	30426.96
574.84	30768.68
575.01	30583.78
575.17	30661.02
575.33	30728.89
575.49	30572.08
575.65	30759.32
575.82	30628.25
575.98	30656.34
576.14	31012.10
576.30	30824.86
576.46	30632.93
576.62	30483.14
576.79	30815.49
576.95	30682.08
577.11	30778.04
577.27	30677.40
577.43	30756.98
577.59	31194.66
577.75	30604.84
577.92	30485.48
578.08	30614.21
578.24	30710.17
578.40	30525.27
578.56	30632.93
578.72	30803.79
578.88	31145.51
579.04	30979.33
579.21	30794.43
579.37	30668.04
579.53	30543.99
579.69	30892.73
579.85	30576.76
580.01	30661.02
580.17	31023.80
580.33	30824.86
580.49	30600.16
580.65	31012.10
580.82	30632.93
580.98	30801.45
581.14	31005.08
581.30	30761.66
581.46	30441.01
581.62	30684.42
581.78	30476.12
581.94	30883.37
582.10	30637.61
582.26	30602.50
582.42	30937.20
582.58	30939.54
582.74	30607.19
582.90	30710.17
583.06	30967.63
583.22	31292.96
583.38	30445.69
583.54	30941.88
583.70	30941.88
583.86	31044.87
584.02	30972.31
584.18	30808.47
584.34	30749.96
584.50	31075.29
584.66	31122.10
584.82	30969.97
584.98	30820.17
585.14	30864.64
585.30	30731.23
585.46	30656.34
585.62	30689.10
585.78	31044.87
585.94	30572.08
586.10	31077.63
586.26	30778.04
586.42	30866.98
586.58	31225.09
586.74	30841.24
586.90	31049.55
587.06	31061.25
587.22	31075.29
587.38	31218.07
587.54	30923.16
587.70	31365.52
587.86	31051.89
588.02	31208.70
588.18	31211.04
588.34	31342.11
588.49	31037.84
588.65	30745.28
588.81	31075.29
588.97	31101.04
589.13	31035.50
589.29	30820.17
589.45	31285.94
589.61	31342.11
589.77	31562.12
589.93	31276.58
590.08	31555.10
590.24	31239.13
590.40	31246.15
590.56	31307.01
590.72	31344.45
590.88	30759.32
591.04	31072.95
591.20	31866.39
591.35	31894.48
591.51	31735.32
591.67	31295.30
591.83	31969.38
