SpectraSuite Data File
++++++++++++++++++++++++++++++++++++
Date: Fri Oct 18 13:58:43 GMT-05:00 2013
User: bianchi
Dark Spectrum Present: No
Reference Spectrum Present: No
Number of Sampled Component Spectra: 1
Spectrometers: USB2+H05261
Integration Time (usec): 50000 (USB2+H05261)
Spectra Averaged: 1 (USB2+H05261)
Boxcar Smoothing: 0 (USB2+H05261)
Correct for Electrical Dark: No (USB2+H05261)
Strobe/Lamp Enabled: No (USB2+H05261)
Correct for Detector Non-linearity: No (USB2+H05261)
Correct for Stray Light: No (USB2+H05261)
Number of Pixels in Processed Spectrum: 2048
>>>>>Begin Processed Spectral Data<<<<<
365.73	21.06
365.92	21.06
366.12	21.06
366.32	0.00
366.52	0.00
366.72	0.00
366.91	0.00
367.11	0.00
367.31	0.00
367.51	0.00
367.70	0.00
367.90	0.00
368.10	0.00
368.30	0.00
368.49	0.00
368.69	0.00
368.89	0.00
369.09	0.00
369.28	0.00
369.48	0.00
369.68	0.00
369.87	0.00
370.07	0.00
370.27	0.00
370.47	0.00
370.66	65.54
370.86	98.30
371.06	91.28
371.25	81.92
371.45	156.82
371.65	161.50
371.84	159.16
372.04	180.22
372.24	201.29
372.44	175.54
372.63	142.77
372.83	168.52
373.03	252.78
373.22	238.73
373.42	175.54
373.62	231.71
373.81	182.56
374.01	196.60
374.21	236.39
374.40	231.71
374.60	264.48
374.79	189.58
374.99	290.23
375.19	220.01
375.38	262.14
375.58	283.20
375.78	287.89
375.97	231.71
376.17	255.12
376.37	241.08
376.56	241.08
376.76	201.29
376.95	222.35
377.15	283.20
377.35	280.86
377.54	304.27
377.74	299.59
377.93	283.20
378.13	285.55
378.33	238.73
378.52	259.80
378.72	241.08
378.91	304.27
379.11	215.33
379.31	236.39
379.50	325.33
379.70	280.86
379.89	358.10
380.09	283.20
380.28	250.44
380.48	273.84
380.68	215.33
380.87	332.36
381.07	318.31
381.26	290.23
381.46	315.97
381.65	283.20
381.85	360.44
382.04	290.23
382.24	351.08
382.43	276.18
382.63	330.02
382.83	301.93
383.02	372.15
383.22	397.89
383.41	379.17
383.61	337.04
383.80	248.10
384.00	397.89
384.19	367.46
384.39	388.53
384.58	330.02
384.78	447.04
384.97	379.17
385.17	395.55
385.36	325.33
385.56	351.08
385.75	358.10
385.95	397.89
386.14	390.87
386.34	341.72
386.53	433.00
386.72	369.80
386.92	428.32
387.11	409.59
387.31	400.23
387.50	470.45
387.70	411.93
387.89	425.98
388.09	421.30
388.28	341.72
388.48	461.09
388.67	470.45
388.86	456.40
389.06	458.74
389.25	418.96
389.45	421.30
389.64	397.89
389.84	472.79
390.03	517.26
390.22	585.13
390.42	519.60
390.61	418.96
390.81	458.74
391.00	477.47
391.19	514.92
391.39	514.92
391.58	498.53
391.78	552.37
391.97	489.17
392.16	521.94
392.36	550.03
392.55	510.24
392.75	533.64
392.94	528.96
393.13	557.05
393.33	489.17
393.52	507.90
393.71	582.79
393.91	568.75
394.10	543.00
394.29	561.73
394.49	552.37
394.68	578.11
394.88	608.54
395.07	575.77
395.26	613.22
395.46	617.90
395.65	568.75
395.84	585.13
396.04	512.58
396.23	601.52
396.42	622.58
396.62	617.90
396.81	606.20
397.00	620.24
397.19	596.84
397.39	566.41
397.58	648.33
397.77	688.12
397.97	660.03
398.16	657.69
398.35	678.76
398.55	718.54
398.74	613.22
398.93	744.29
399.12	704.50
399.32	730.25
399.51	716.20
399.70	669.39
399.90	767.70
400.09	695.14
400.28	713.86
400.47	755.99
400.67	690.46
400.86	844.93
401.05	802.80
401.24	809.83
401.44	823.87
401.63	727.91
401.82	793.44
402.01	809.83
402.21	767.70
402.40	777.06
402.59	828.55
402.78	812.17
402.97	823.87
403.17	887.06
403.36	835.57
403.55	837.91
403.74	915.15
403.93	910.47
404.13	823.87
404.32	896.43
404.51	931.53
404.70	936.21
404.89	929.19
405.09	875.36
405.28	903.45
405.47	966.64
405.66	966.64
405.85	978.34
406.05	968.98
406.24	931.53
406.43	976.00
406.62	1032.18
406.81	1074.31
407.00	905.79
407.20	999.41
407.39	1043.88
407.58	966.64
407.77	1034.52
407.96	1130.48
408.15	1064.94
408.34	1043.88
408.54	1118.78
408.73	1135.16
408.92	1109.41
409.11	1233.46
409.30	1149.20
409.49	1111.75
409.68	1100.05
409.87	1074.31
410.07	1027.50
410.26	1196.01
410.45	1254.53
410.64	1231.12
410.83	1315.38
411.02	1165.59
411.21	1226.44
411.40	1186.65
411.59	1291.98
411.78	1252.19
411.98	1280.27
412.17	1294.32
412.36	1233.46
412.55	1310.70
412.74	1427.73
412.93	1263.89
413.12	1310.70
413.31	1401.98
413.50	1371.55
413.69	1511.99
413.88	1455.81
414.07	1437.09
414.26	1409.00
414.45	1409.00
414.64	1507.30
414.83	1458.15
415.02	1556.46
415.22	1500.28
415.41	1645.40
415.60	1565.82
415.79	1533.05
415.98	1624.33
416.17	1607.95
416.36	1675.82
416.55	1577.52
416.74	1668.80
416.93	1572.84
417.12	1675.82
417.31	1610.29
417.50	1643.06
417.69	1673.48
417.88	1650.08
418.07	1802.21
418.26	1699.23
418.45	1645.40
418.64	1827.96
418.83	1657.10
419.02	1806.89
419.21	1818.60
419.39	1760.08
419.58	1659.44
419.77	1764.76
419.96	1715.61
420.15	1776.47
420.34	1846.68
420.53	1898.17
420.72	1900.52
420.91	2012.86
421.10	1902.86
421.29	1837.32
421.48	1987.11
421.67	1879.45
421.86	1907.54
422.05	1902.86
422.24	1926.26
422.43	1881.79
422.61	2029.24
422.80	1949.67
422.99	1853.70
423.18	1940.30
423.37	1982.43
423.56	1942.64
423.75	1935.62
423.94	1884.13
424.13	1909.88
424.32	1853.70
424.50	1998.82
424.69	2162.66
424.88	2099.46
425.07	2073.71
425.26	2059.67
425.45	2015.20
425.64	1966.05
425.83	2024.56
426.01	2050.31
426.20	1977.75
426.39	2101.80
426.58	2050.31
426.77	2127.55
426.96	2139.25
427.15	1991.80
427.33	2052.65
427.52	2097.12
427.71	2211.81
427.90	2043.29
428.09	2155.63
428.28	2232.87
428.46	2188.40
428.65	2223.51
428.84	2179.04
429.03	2155.63
429.22	2076.06
429.40	2298.41
429.59	2172.02
429.78	2120.53
429.97	2321.81
430.16	2165.00
430.34	2221.17
430.53	2275.00
430.72	2272.66
430.91	2321.81
431.10	2256.28
431.28	2321.81
431.47	2375.64
431.66	2396.71
431.85	2354.58
432.03	2541.82
432.22	2504.37
432.41	2342.88
432.60	2483.31
432.79	2413.09
432.97	2520.76
433.16	2558.21
433.35	2450.54
433.54	2537.14
433.72	2471.61
433.91	2532.46
434.10	2548.84
434.28	2394.37
434.47	2495.01
434.66	2532.46
434.85	2382.67
435.03	2502.03
435.22	2579.27
435.41	2612.04
435.59	2534.80
435.78	2708.00
435.97	2712.68
436.16	2642.46
436.34	2626.08
436.53	2651.83
436.72	2656.51
436.90	2574.59
437.09	2656.51
437.28	2663.53
437.46	2782.90
437.65	2778.22
437.84	2743.11
438.02	2754.81
438.21	2703.32
438.40	2597.99
438.58	2883.54
438.77	2832.05
438.96	2935.03
439.14	2970.14
439.33	2843.75
439.52	2995.89
439.70	2925.67
439.89	3007.59
440.08	3035.67
440.26	3019.29
440.45	3091.85
440.63	3094.19
440.82	3061.42
441.01	3119.93
441.19	3119.93
441.38	3253.34
441.57	3234.62
441.75	3225.26
441.94	3262.71
442.12	3178.45
442.31	3150.36
442.50	3335.26
442.68	3225.26
442.87	3325.90
443.05	3368.03
443.24	3311.86
443.43	3300.16
443.61	3279.09
443.80	3520.17
443.98	3311.86
444.17	3293.13
444.35	3351.65
444.54	3454.63
444.73	3471.01
444.91	3602.08
445.10	3337.60
445.28	3400.80
445.47	3403.14
445.65	3384.41
445.84	3428.88
446.02	3346.97
446.21	3522.51
446.39	3410.16
446.58	3555.27
446.77	3440.59
446.95	3426.54
447.14	3520.17
447.32	3461.65
447.51	3585.70
447.69	3368.03
447.88	3379.73
448.06	3433.57
448.25	3555.27
448.43	3508.46
448.62	3552.93
448.80	3562.30
448.99	3454.63
449.17	3522.51
449.36	3634.85
449.54	3625.49
449.73	3728.47
449.91	3627.83
450.10	3707.41
450.28	3775.28
450.46	3613.79
450.65	3651.24
450.83	3838.48
451.02	3632.51
451.20	3751.88
451.39	3681.66
451.57	3684.00
451.76	3658.26
451.94	3768.26
452.13	3808.05
452.31	3815.07
452.49	3786.99
452.68	3794.01
452.86	3878.27
453.05	3896.99
453.23	3866.56
453.42	3749.54
453.60	3824.44
453.78	3901.67
453.97	3866.56
454.15	3761.24
454.34	3918.06
454.52	3974.23
454.70	3950.82
454.89	4086.58
455.07	3957.85
455.26	4046.79
455.44	4095.94
455.62	4079.55
455.81	4058.49
455.99	4128.70
456.17	4093.60
456.36	4084.23
456.54	4098.28
456.73	4187.22
456.91	4498.51
457.09	4154.45
457.28	4325.31
457.46	4173.18
457.64	4325.31
457.83	4402.55
458.01	4201.26
458.19	4365.10
458.38	4318.29
458.56	4276.16
458.74	4402.55
458.93	4285.52
459.11	4381.48
459.29	4351.06
459.48	4414.25
459.66	4337.01
459.84	4463.40
460.03	4510.21
460.21	4662.35
460.39	4638.94
460.57	4451.70
460.76	4484.47
460.94	4535.96
461.12	4503.19
461.31	4568.73
461.49	4650.64
461.67	4475.10
461.85	4669.37
462.04	4601.49
462.22	4791.08
462.40	4781.71
462.59	4748.95
462.77	4667.03
462.95	4798.10
463.13	4809.80
463.32	4730.22
463.50	4791.08
463.68	4748.95
463.86	4793.42
464.05	4674.05
464.23	4816.82
464.41	4919.81
464.59	4793.42
464.78	4854.27
464.96	4821.50
465.14	4739.58
465.32	4945.55
465.50	4987.68
465.69	5048.54
465.87	4910.44
466.05	4964.28
466.23	5142.16
466.41	4870.65
466.60	5170.24
466.78	5090.67
466.96	4975.98
467.14	4983.00
467.32	5125.77
467.51	5078.96
467.69	4961.94
467.87	5179.61
468.05	5123.43
468.23	5013.43
468.41	5032.15
468.60	5217.05
468.78	5205.35
468.96	5118.75
469.14	5200.67
469.32	5432.38
469.50	5123.43
469.69	5228.76
469.87	5579.84
470.05	5303.65
470.23	5282.59
470.41	5430.04
470.59	5467.49
470.77	5305.99
470.95	5584.52
471.14	5439.40
471.32	5259.18
471.50	5617.29
471.68	5502.60
471.86	5668.78
472.04	5530.69
472.22	5661.76
472.40	5675.80
472.58	5750.70
472.77	5734.31
472.95	5720.27
473.13	5856.02
473.31	5757.72
473.49	5863.04
473.67	5731.97
473.85	5818.57
474.03	5881.77
474.21	5975.39
474.39	5987.09
474.57	6090.07
474.75	6134.54
474.93	6244.55
475.12	6108.80
475.30	6134.54
475.48	6202.42
475.66	6108.80
475.84	6434.13
476.02	6265.61
476.20	6263.27
476.38	6328.81
476.56	6333.49
476.74	6448.18
476.92	6499.67
477.10	6450.52
477.28	6628.40
477.46	6558.18
477.64	6736.06
477.82	6665.85
478.00	6832.02
478.18	6904.58
478.36	7000.54
478.54	6960.75
478.72	7049.69
478.90	6981.82
479.08	7178.42
479.26	7309.49
479.44	7155.02
479.62	7368.01
479.80	7260.34
479.98	7407.80
480.16	7576.31
480.34	7456.95
480.52	7456.95
480.70	7459.29
480.88	7716.75
481.06	7634.83
481.24	7557.59
481.41	7798.66
481.59	7918.03
481.77	7920.37
481.95	7974.21
482.13	7985.91
482.31	7824.41
482.49	8196.56
482.67	8397.84
482.85	8297.20
483.03	8397.84
483.21	8472.74
483.39	8482.10
483.57	8512.53
483.74	8678.71
483.92	8762.97
484.10	8535.93
484.28	8926.80
484.46	8767.65
484.64	8957.23
484.82	9018.08
485.00	9043.83
485.18	9226.39
485.35	9397.25
485.53	9132.77
485.71	9378.53
485.89	9507.26
486.07	9465.13
486.25	9502.58
486.43	9458.10
486.61	9738.97
486.78	9738.97
486.96	9760.03
487.14	10076.01
487.32	9907.49
487.50	10162.61
487.68	10052.60
487.85	10221.12
488.03	10441.13
488.21	10705.61
488.39	10635.39
488.57	10640.08
488.75	10518.37
488.92	10668.16
489.10	10705.61
489.28	10665.82
489.46	10918.60
489.64	10817.96
489.81	11105.84
489.99	10934.98
490.17	11302.45
490.35	11379.68
490.53	11307.13
490.70	11693.32
490.88	11571.61
491.06	11721.40
491.24	11861.84
491.41	11700.34
491.59	11737.79
491.77	12079.50
491.95	11899.28
492.13	11967.16
492.30	12187.17
492.48	12107.59
492.66	12187.17
492.84	12159.08
493.01	12313.56
493.19	12610.81
493.37	12631.87
493.54	12465.69
493.72	12716.13
493.90	12802.73
494.08	12692.73
494.25	13071.89
494.43	13179.56
494.61	13158.49
494.79	13240.41
494.96	13420.63
495.14	13336.37
495.32	13305.95
495.49	13497.87
495.67	13701.50
495.85	13514.25
496.02	13673.41
496.20	13654.69
496.38	13713.20
496.55	13888.74
496.73	13930.87
496.91	13973.00
497.09	14190.67
497.26	14115.77
497.44	14099.39
497.62	13935.55
497.79	14239.82
497.97	14207.05
498.14	14693.88
498.32	14773.46
498.50	14558.13
498.67	15014.54
498.85	14672.82
499.03	14909.21
499.20	14876.44
499.38	14560.47
499.56	15180.71
499.73	15360.94
499.91	15173.69
500.08	15328.17
500.26	15236.89
500.44	15176.03
500.61	15030.92
500.79	15229.87
500.97	15445.20
501.14	15777.55
501.32	15616.05
501.49	15564.56
501.67	15782.23
501.84	15915.64
502.02	15803.30
502.20	15960.11
502.37	15817.34
502.55	15969.48
502.72	16421.20
502.90	16074.80
503.07	15948.41
503.25	16095.86
503.43	16168.42
503.60	16119.27
503.78	16411.84
503.95	16215.23
504.13	16524.18
504.30	16702.06
504.48	16404.81
504.65	16638.87
504.83	16828.45
505.01	16917.39
505.18	16786.32
505.36	17041.44
505.53	16966.54
505.71	16908.03
505.88	16844.84
506.06	16762.92
506.23	17029.74
506.41	16992.29
506.58	17310.60
506.76	17507.21
506.93	16999.31
507.11	17291.88
507.28	17427.63
507.46	17334.01
507.63	17582.10
507.81	17708.49
507.98	17549.34
508.16	17797.43
508.33	17720.20
508.50	17839.56
508.68	17862.97
508.85	17905.10
509.03	18195.32
509.20	17947.23
509.38	17909.78
509.55	18097.02
509.73	18202.35
509.90	18349.80
510.08	18232.77
510.25	18113.41
510.42	18298.31
510.60	18462.15
510.77	18420.02
510.95	18616.62
511.12	18621.30
511.30	18312.35
511.47	18841.31
511.64	18618.96
511.82	18497.25
511.99	18871.74
512.17	19190.05
512.34	19028.56
512.51	18958.34
512.69	19145.58
512.86	18892.80
513.04	19206.44
513.21	19192.39
513.38	19267.29
513.56	19391.34
513.73	19527.09
513.90	19309.42
514.08	19290.70
514.25	19616.03
514.43	19735.40
514.60	19625.39
514.77	19800.93
514.95	19742.42
515.12	19779.87
515.29	19564.54
515.47	19704.97
515.64	20011.58
515.81	19721.35
515.99	19950.73
516.16	20318.19
516.33	19971.79
516.51	19901.58
516.68	20079.46
516.85	19999.88
517.03	20306.49
517.20	20446.92
517.37	20554.58
517.54	20482.03
517.72	20360.32
517.89	20423.51
518.06	20493.73
518.24	20332.23
518.41	20725.44
518.58	20465.64
518.75	20449.26
518.93	20919.71
519.10	20814.38
519.27	20765.23
519.45	20790.98
519.62	21247.38
519.79	20957.16
519.96	21348.03
520.14	20980.56
520.31	21422.92
520.48	21205.25
520.65	20730.12
520.83	21092.91
521.00	20945.45
521.17	21184.19
521.34	21289.51
521.52	21537.61
521.69	21209.93
521.86	21635.91
522.03	21514.20
522.20	21462.71
522.38	21682.72
522.55	21788.05
522.72	21415.90
522.89	21905.07
523.07	21972.95
523.24	21886.35
523.41	22101.68
523.58	21575.06
523.75	22015.08
523.92	21724.85
524.10	21942.52
524.27	22284.24
524.44	22221.05
524.61	22354.46
524.78	22232.75
524.96	22354.46
525.13	22036.14
525.30	22356.80
525.47	22309.99
525.64	22537.02
525.81	22405.95
525.98	22759.37
526.16	22827.24
526.33	22494.89
526.50	22890.44
526.67	22501.91
526.84	22829.59
527.01	22731.28
527.18	22635.32
527.36	23110.45
527.53	23019.17
527.70	22904.48
527.87	23021.51
528.04	23260.24
528.21	22691.49
528.38	22885.76
528.55	22963.00
528.72	23424.08
528.89	23012.15
529.07	22916.19
529.24	23185.35
529.41	23592.60
529.58	23166.62
529.75	23108.11
529.92	23337.48
530.09	23119.81
530.26	23318.76
530.43	23791.55
530.60	23487.28
530.77	23396.00
530.94	23234.50
531.11	23363.23
531.28	23487.28
531.46	23426.42
531.63	23510.68
531.80	23882.83
531.97	24013.90
532.14	24070.07
532.31	24100.50
532.48	24210.50
532.65	24177.73
532.82	24140.29
532.99	23964.75
533.16	23892.19
533.33	24212.84
533.50	24491.37
533.67	24177.73
533.84	24177.73
534.01	24180.07
534.18	24056.03
534.35	24409.45
534.52	24456.26
534.69	24009.22
534.86	24430.51
535.03	24474.98
535.20	24507.75
535.37	24725.42
535.54	24184.76
535.71	24404.77
535.88	24442.21
536.05	24769.89
536.22	25069.48
536.38	24795.64
536.55	24706.70
536.72	24830.74
536.89	24594.35
537.06	24931.39
537.23	24716.06
537.40	24514.77
537.57	25095.22
537.74	24797.98
537.91	25029.69
538.08	25167.78
538.25	24924.36
538.42	24980.54
538.59	25301.19
538.75	25097.56
538.92	25055.43
539.09	24868.19
539.26	25336.30
539.43	25324.60
539.60	25362.04
539.77	25366.73
539.94	25692.06
540.11	25191.19
540.28	25254.38
540.44	25488.43
540.61	25329.28
540.78	25027.35
540.95	25617.16
541.12	25453.33
541.29	25465.03
541.46	25607.80
541.62	25362.04
541.79	25593.76
541.96	25509.50
542.13	25425.24
542.30	25474.39
542.47	25675.68
542.63	25535.24
542.80	26277.19
542.97	25961.22
543.14	26012.71
543.31	25685.04
543.48	25797.38
543.64	26139.10
543.81	26349.75
543.98	26038.46
544.15	26391.88
544.32	26731.26
544.48	26274.85
544.65	26335.71
544.82	26604.87
544.99	26064.21
545.16	26026.76
545.32	26111.02
545.49	26436.35
545.66	26555.72
545.83	26639.98
546.00	26871.69
546.16	26218.68
546.33	26628.27
546.50	26377.84
546.67	26410.60
546.83	26490.18
547.00	26820.20
547.17	26684.45
547.34	26977.01
547.50	27131.49
547.67	26827.22
547.84	26969.99
548.00	26918.50
548.17	27264.90
548.34	27002.76
548.51	26630.62
548.67	27793.86
548.84	27220.43
549.01	27222.77
549.18	26836.58
549.34	26883.39
549.51	27178.30
549.68	26993.40
549.84	27037.87
550.01	27178.30
550.18	26906.80
550.34	27206.39
550.51	27372.57
550.68	27222.77
550.84	26663.38
551.01	27281.28
551.18	27175.96
551.34	27026.17
551.51	27220.43
551.68	27777.48
551.84	27529.38
552.01	27473.21
552.18	27587.89
552.34	27648.75
552.51	27445.12
552.68	27012.12
552.84	27445.12
553.01	27800.88
553.18	27250.86
553.34	27658.11
553.51	27733.01
553.67	27662.79
553.84	28065.36
554.01	27714.28
554.17	27761.09
554.34	27625.34
554.51	27679.18
554.67	27683.86
554.84	27964.72
555.00	27702.58
555.17	27751.73
555.33	28048.98
555.50	28268.99
555.67	27906.21
555.83	27913.23
556.00	28184.73
556.16	28168.35
556.33	27779.82
556.50	27742.37
556.66	28166.01
556.83	28119.20
556.99	28257.29
557.16	28425.81
557.32	28313.46
557.49	28336.87
557.65	28044.30
557.82	28009.19
557.98	28215.16
558.15	28304.10
558.32	28046.64
558.48	28084.09
558.65	28561.56
558.81	28381.34
558.98	28212.82
559.14	28177.71
559.31	28086.43
559.47	28147.28
559.64	28318.14
559.80	28243.24
559.97	28659.86
560.13	28432.83
560.30	28594.32
560.46	28217.50
560.63	28395.38
560.79	28439.85
560.96	29043.71
561.12	28348.57
561.29	28381.34
561.45	28507.72
561.61	28458.57
561.78	28680.92
561.94	28720.71
562.11	28479.64
562.27	28823.70
562.44	28744.12
562.60	28388.36
562.77	28360.27
562.93	28622.41
563.10	29083.50
563.26	28779.23
563.42	28950.09
563.59	28861.15
563.75	29008.60
563.92	28713.69
564.08	28423.47
564.24	28692.63
564.41	28512.41
564.57	28379.00
564.74	28844.76
564.90	28826.04
565.07	28882.21
565.23	29345.64
565.39	28751.14
565.56	28835.40
565.72	28629.43
565.88	28685.61
566.05	28898.59
566.21	29064.77
566.38	28830.72
566.54	29048.39
566.70	29134.99
566.87	29322.23
567.03	28919.66
567.19	29427.56
567.36	29046.05
567.52	29469.69
567.68	29085.84
567.85	29144.35
568.01	28989.88
568.17	28865.83
568.34	29340.96
568.50	29181.80
568.66	29315.21
568.83	29202.86
568.99	29064.77
569.15	29127.97
569.32	29088.18
569.48	28914.98
569.64	29383.09
569.81	29205.20
569.97	29237.97
570.13	29259.04
570.30	29228.61
570.46	29123.29
570.62	29453.30
570.78	29301.17
570.95	29181.80
571.11	29301.17
571.27	28823.70
571.43	29071.79
571.60	29502.45
571.76	29502.45
571.92	29537.56
572.09	29013.28
572.25	29380.74
572.41	29340.96
572.57	29448.62
572.74	29228.61
572.90	29193.50
573.06	29233.29
573.22	29067.11
573.38	29397.13
573.55	29020.30
573.71	29078.82
573.87	29696.72
574.03	29252.02
574.20	29394.79
574.36	29181.80
574.52	29326.91
574.68	29174.78
574.84	29422.87
575.01	29975.24
575.17	29518.84
575.33	29392.45
575.49	29322.23
575.65	29605.44
575.82	29369.04
575.98	29228.61
576.14	29713.10
576.30	29551.60
576.46	29516.50
576.62	29486.07
576.79	29762.25
576.95	29149.03
577.11	29441.60
577.27	29488.41
577.43	29376.06
577.59	29277.76
577.75	29867.58
577.92	28929.02
578.08	29289.46
578.24	29331.59
578.40	29118.60
578.56	29621.82
578.72	29806.72
578.88	29682.67
579.04	29465.00
579.21	29310.53
579.37	29879.28
579.53	29750.55
579.69	29535.22
579.85	29142.01
580.01	29670.97
580.17	29118.60
580.33	29818.42
580.49	29788.00
580.65	29429.90
580.82	29457.98
580.98	29748.21
581.14	29834.81
581.30	29654.59
581.46	29333.93
581.62	29483.73
581.78	29284.78
581.94	29523.52
582.10	29682.67
582.26	29825.45
582.42	29593.73
582.58	29773.95
582.74	30092.27
582.90	29575.01
583.06	29837.15
583.22	29802.04
583.38	29872.26
583.54	29612.46
583.70	29596.07
583.86	29352.66
584.02	29600.76
584.18	29750.55
584.34	29577.35
584.50	29696.72
584.66	29762.25
584.82	29546.92
584.98	29387.77
585.14	29867.58
585.30	29546.92
585.46	29806.72
585.62	29706.08
585.78	29336.27
585.94	29511.81
586.10	29764.59
586.26	29769.27
586.42	29692.04
586.58	30195.25
586.74	29654.59
586.90	29338.62
587.06	29432.24
587.22	30171.85
587.38	29631.18
587.54	29635.86
587.70	29668.63
587.86	29905.02
588.02	30258.45
588.18	30228.02
588.34	29951.84
588.49	30054.82
588.65	29745.87
588.81	29890.98
588.97	30052.48
589.13	29706.08
589.29	29624.16
589.45	29865.24
589.61	30033.75
589.77	29958.86
589.93	29921.41
590.08	30345.05
590.24	30213.98
590.40	29759.91
590.56	30221.00
590.72	30174.19
590.88	29895.66
591.04	30127.38
591.20	29748.21
591.35	30085.25
591.51	30375.47
591.67	30277.17
591.83	30448.03
591.99	30274.83
