SpectraSuite Data File
++++++++++++++++++++++++++++++++++++
Date: Fri Oct 18 13:58:27 GMT-05:00 2013
User: bianchi
Dark Spectrum Present: No
Reference Spectrum Present: No
Number of Sampled Component Spectra: 1
Spectrometers: USB2+H05261
Integration Time (usec): 50000 (USB2+H05261)
Spectra Averaged: 1 (USB2+H05261)
Boxcar Smoothing: 0 (USB2+H05261)
Correct for Electrical Dark: No (USB2+H05261)
Strobe/Lamp Enabled: No (USB2+H05261)
Correct for Detector Non-linearity: No (USB2+H05261)
Correct for Stray Light: No (USB2+H05261)
Number of Pixels in Processed Spectrum: 2048
>>>>>Begin Processed Spectral Data<<<<<
365.73	0.00
365.92	0.00
366.12	0.00
366.32	0.00
366.52	0.00
366.72	0.00
366.91	0.00
367.11	0.00
367.31	0.00
367.51	0.00
367.70	0.00
367.90	0.00
368.10	0.00
368.30	0.00
368.49	0.00
368.69	0.00
368.89	0.00
369.09	0.00
369.28	0.00
369.48	0.00
369.68	0.00
369.87	0.00
370.07	0.00
370.27	0.00
370.47	0.00
370.66	86.60
370.86	166.18
371.06	121.71
371.25	107.66
371.45	147.45
371.65	154.48
371.84	124.05
372.04	100.64
372.24	168.52
372.44	107.66
372.63	198.95
372.83	126.39
373.03	182.56
373.22	205.97
373.42	180.22
373.62	255.12
373.81	203.63
374.01	170.86
374.21	266.82
374.40	236.39
374.60	196.60
374.79	196.60
374.99	210.65
375.19	276.18
375.38	220.01
375.58	252.78
375.78	220.01
375.97	283.20
376.17	212.99
376.37	196.60
376.56	287.89
376.76	196.60
376.95	191.92
377.15	334.70
377.35	215.33
377.54	278.52
377.74	217.67
377.93	287.89
378.13	252.78
378.33	308.95
378.52	332.36
378.72	283.20
378.91	292.57
379.11	290.23
379.31	290.23
379.50	297.25
379.70	332.36
379.89	315.97
380.09	231.71
380.28	301.93
380.48	372.15
380.68	255.12
380.87	308.95
381.07	311.29
381.26	299.59
381.46	337.04
381.65	315.97
381.85	280.86
382.04	273.84
382.24	423.64
382.43	292.57
382.63	360.44
382.83	318.31
383.02	376.83
383.22	301.93
383.41	241.08
383.61	308.95
383.80	388.53
384.00	355.76
384.19	339.38
384.39	369.80
384.58	330.02
384.78	292.57
384.97	402.57
385.17	257.46
385.36	341.72
385.56	456.40
385.75	383.85
385.95	369.80
386.14	454.06
386.34	397.89
386.53	503.22
386.72	362.78
386.92	404.91
387.11	365.12
387.31	423.64
387.50	428.32
387.70	353.42
387.89	416.62
388.09	423.64
388.28	407.25
388.48	334.70
388.67	475.13
388.86	433.00
389.06	414.27
389.25	475.13
389.45	454.06
389.64	435.34
389.84	456.40
390.03	496.19
390.22	449.38
390.42	482.15
390.61	423.64
390.81	500.87
391.00	503.22
391.19	465.77
391.39	596.84
391.58	585.13
391.78	475.13
391.97	550.03
392.16	482.15
392.36	552.37
392.55	528.96
392.75	463.43
392.94	498.53
393.13	472.79
393.33	545.34
393.52	496.19
393.71	566.41
393.91	634.29
394.10	566.41
394.29	559.39
394.49	587.47
394.68	557.05
394.88	547.69
395.07	557.05
395.26	695.14
395.46	645.99
395.65	732.59
395.84	599.18
396.04	699.82
396.23	674.07
396.42	662.37
396.62	634.29
396.81	772.38
397.00	636.63
397.19	582.79
397.39	727.91
397.58	671.73
397.77	702.16
397.97	730.25
398.16	753.65
398.35	723.23
398.55	681.10
398.74	702.16
398.93	739.61
399.12	706.84
399.32	685.78
399.51	662.37
399.70	781.74
399.90	690.46
400.09	697.48
400.28	777.06
400.47	814.51
400.67	765.36
400.86	800.46
401.05	788.76
401.24	739.61
401.44	753.65
401.63	805.14
401.82	816.85
402.01	774.72
402.21	842.59
402.40	777.06
402.59	828.55
402.78	812.17
402.97	915.15
403.17	849.61
403.36	978.34
403.55	917.49
403.74	894.08
403.93	847.27
404.13	915.15
404.32	835.57
404.51	926.85
404.70	983.02
404.89	868.34
405.09	924.51
405.28	901.11
405.47	999.41
405.66	849.61
405.85	1001.75
406.05	994.73
406.24	938.55
406.43	978.34
406.62	1041.54
406.81	1095.37
407.00	971.32
407.20	1076.65
407.39	978.34
407.58	1036.86
407.77	1071.97
407.96	1078.99
408.15	1015.79
408.34	1078.99
408.54	1179.63
408.73	1158.57
408.92	997.07
409.11	1158.57
409.30	1055.58
409.49	1238.14
409.68	1114.10
409.87	1142.18
410.07	1160.91
410.26	1130.48
410.45	1132.82
410.64	1277.93
410.83	1165.59
411.02	1170.27
411.21	1252.19
411.40	1167.93
411.59	1266.23
411.78	1261.55
411.98	1186.65
412.17	1207.72
412.36	1308.36
412.55	1336.45
412.74	1294.32
412.93	1252.19
413.12	1273.25
413.31	1434.75
413.50	1345.81
413.69	1397.30
413.88	1425.39
414.07	1359.85
414.26	1451.13
414.45	1504.96
414.64	1481.56
414.83	1551.78
415.02	1542.41
415.22	1572.84
415.41	1514.33
415.60	1593.90
415.79	1507.30
415.98	1516.67
416.17	1530.71
416.36	1563.48
416.55	1565.82
416.74	1612.63
416.93	1563.48
417.12	1605.61
417.31	1680.50
417.50	1661.78
417.69	1842.00
417.88	1774.13
418.07	1629.01
418.26	1741.36
418.45	1760.08
418.64	1811.57
418.83	1748.38
419.02	1872.43
419.21	1703.91
419.39	1778.81
419.58	1898.17
419.77	1816.26
419.96	1816.26
420.15	1813.92
420.34	1792.85
420.53	1776.47
420.72	1867.75
420.91	1846.68
421.10	1923.92
421.29	1856.04
421.48	1888.81
421.67	1853.70
421.86	1909.88
422.05	2071.37
422.24	2003.50
422.43	1984.77
422.61	1954.35
422.80	2026.90
422.99	1991.80
423.18	1956.69
423.37	1975.41
423.56	1928.60
423.75	2080.74
423.94	1954.35
424.13	1912.22
424.32	1844.34
424.50	1956.69
424.69	1989.46
424.88	2062.01
425.07	1994.14
425.26	1989.46
425.45	2054.99
425.64	2066.69
425.83	2010.52
426.01	2043.29
426.20	1952.01
426.39	2129.89
426.58	2033.93
426.77	2148.61
426.96	2038.61
427.15	2101.80
427.33	2040.95
427.52	2017.54
427.71	2085.42
427.90	2003.50
428.09	2169.68
428.28	2183.72
428.46	2141.59
428.65	2225.85
428.84	2284.36
429.03	2296.07
429.22	2223.51
429.40	2279.68
429.59	2223.51
429.78	2094.78
429.97	2031.58
430.16	2260.96
430.34	2314.79
430.53	2267.98
430.72	2335.85
430.91	2244.57
431.10	2310.11
431.28	2291.38
431.47	2396.71
431.66	2324.15
431.85	2310.11
432.03	2347.56
432.22	2490.33
432.41	2523.10
432.60	2480.97
432.79	2476.29
432.97	2511.39
433.16	2452.88
433.35	2497.35
433.54	2469.27
433.72	2555.86
433.91	2448.20
434.10	2469.27
434.28	2480.97
434.47	2602.68
434.66	2399.05
434.85	2520.76
435.03	2626.08
435.22	2555.86
435.41	2530.12
435.59	2665.87
435.78	2602.68
435.97	2555.86
436.16	2525.44
436.34	2593.31
436.53	2693.96
436.72	2689.28
436.90	2637.78
437.09	2703.32
437.28	2715.02
437.46	2796.94
437.65	2712.68
437.84	2878.86
438.02	2724.38
438.21	2829.71
438.40	2675.23
438.58	2839.07
438.77	2829.71
438.96	2808.64
439.14	2895.24
439.33	2970.14
439.52	2986.52
439.70	2946.73
439.89	2972.48
440.08	3066.10
440.26	3049.72
440.45	3049.72
440.63	2953.76
440.82	3211.22
441.01	3133.98
441.19	3023.97
441.38	3145.68
441.57	3288.45
441.75	3232.28
441.94	3311.86
442.12	3234.62
442.31	3351.65
442.50	3199.51
442.68	3234.62
442.87	3183.13
443.05	3311.86
443.24	3417.18
443.43	3421.86
443.61	3323.56
443.80	3555.27
443.98	3229.94
444.17	3262.71
444.35	3440.59
444.54	3517.83
444.73	3356.33
444.91	3403.14
445.10	3398.46
445.28	3379.73
445.47	3456.97
445.65	3403.14
445.84	3449.95
446.02	3478.04
446.21	3501.44
446.39	3510.80
446.58	3459.31
446.77	3363.35
446.95	3251.00
447.14	3478.04
447.32	3583.36
447.51	3304.84
447.69	3501.44
447.88	3494.42
448.06	3520.17
448.25	3503.78
448.43	3482.72
448.62	3449.95
448.80	3538.89
448.99	3522.51
449.17	3632.51
449.36	3534.21
449.54	3508.46
449.73	3576.34
449.91	3705.07
450.10	3705.07
450.28	3655.92
450.46	3602.08
450.65	3669.96
450.83	3751.88
451.02	3716.77
451.20	3756.56
451.39	3770.60
451.57	3651.24
451.76	3768.26
451.94	3850.18
452.13	3819.75
452.31	3875.93
452.49	3747.20
452.68	3824.44
452.86	3756.56
453.05	3749.54
453.23	3878.27
453.42	3941.46
453.60	3906.35
453.78	3892.31
453.97	3768.26
454.15	3854.86
454.34	3887.63
454.52	3997.64
454.70	4011.68
454.89	3955.51
455.07	4098.28
455.26	4046.79
455.44	4121.68
455.62	4021.04
455.81	4009.34
455.99	4039.76
456.17	4049.13
456.36	4142.75
456.54	4248.07
456.73	4198.92
456.91	4238.71
457.09	4348.72
457.28	4266.80
457.46	4124.02
457.64	4262.12
457.83	4409.57
458.01	4393.19
458.19	4486.81
458.38	4355.74
458.56	4290.20
458.74	4360.42
458.93	4264.46
459.11	4329.99
459.29	4484.47
459.48	4449.36
459.66	4470.42
459.84	4580.43
460.03	4627.24
460.21	4519.57
460.39	4648.30
460.57	4599.15
460.76	4573.41
460.94	4580.43
461.12	4538.30
461.31	4601.49
461.49	4575.75
461.67	4765.33
461.85	4594.47
462.04	4674.05
462.22	4910.44
462.40	4868.31
462.59	4720.86
462.77	4676.39
462.95	4685.75
463.13	4772.35
463.32	4779.37
463.50	4767.67
463.68	4744.27
463.86	4868.31
464.05	4873.00
464.23	4788.74
464.41	4987.68
464.59	4788.74
464.78	4861.29
464.96	4887.04
465.14	4863.63
465.32	4882.36
465.50	4882.36
465.69	5008.75
465.87	4924.49
466.05	4933.85
466.23	4919.81
466.41	5053.22
466.60	5167.90
466.78	4940.87
466.96	5081.30
467.14	4882.36
467.32	5064.92
467.51	5167.90
467.69	4999.38
467.87	5053.22
468.05	5214.71
468.23	5018.11
468.41	5107.05
468.60	5219.39
468.78	5256.84
468.96	5249.82
469.14	5249.82
469.32	5238.12
469.50	5233.44
469.69	5259.18
469.87	5413.66
470.05	5467.49
470.23	5467.49
470.41	5380.89
470.59	5373.87
470.77	5298.97
470.95	5554.09
471.14	5500.26
471.32	5397.28
471.50	5507.28
471.68	5551.75
471.86	5633.67
472.04	5593.88
472.22	5867.72
472.40	5598.56
472.58	5755.38
472.77	5792.83
472.95	5762.40
473.13	5893.47
473.31	5710.91
473.49	5746.02
473.67	5743.67
473.85	5921.56
474.03	6083.05
474.21	5937.94
474.39	6134.54
474.57	6092.41
474.75	6092.41
474.93	6045.60
475.12	5968.37
475.30	6211.78
475.48	6001.13
475.66	6169.65
475.84	6303.06
476.02	6157.95
476.20	6368.60
476.38	6387.32
476.56	6476.26
476.74	6448.18
476.92	6473.92
477.10	6562.86
477.28	6698.61
477.46	6520.73
477.64	6546.48
477.82	6916.28
478.00	6876.49
478.18	6911.60
478.36	6930.33
478.54	7260.34
478.72	7096.50
478.90	7239.28
479.08	7211.19
479.26	7330.56
479.44	7330.56
479.62	7356.30
479.80	7356.30
479.98	7452.27
480.16	7590.36
480.34	7573.97
480.52	7599.72
480.70	7693.34
480.88	7728.45
481.06	7597.38
481.24	7613.76
481.41	7873.56
481.59	8009.31
481.77	7967.18
481.95	7852.50
482.13	8159.11
482.31	8058.46
482.49	8280.82
482.67	8191.88
482.85	8339.33
483.03	8344.01
483.21	8285.50
483.39	8430.61
483.57	8439.97
483.74	8594.45
483.92	8615.51
484.10	8725.52
484.28	8896.38
484.46	8947.87
484.64	9121.07
484.82	8952.55
485.00	8964.25
485.18	9219.37
485.35	9446.40
485.53	9376.19
485.71	9378.53
485.89	9568.11
486.07	9568.11
486.25	9645.35
486.43	9453.42
486.61	9664.07
486.78	9804.50
486.96	9799.82
487.14	10003.45
487.32	9970.68
487.50	10286.65
487.68	10033.88
487.85	10209.42
488.03	10274.95
488.21	10541.77
488.39	10607.31
488.57	10600.29
488.75	10609.65
488.92	10729.02
489.10	10803.91
489.28	10869.45
489.46	11000.52
489.64	10906.90
489.81	11059.03
489.99	11232.23
490.17	11166.70
490.35	11566.93
490.53	11496.71
490.70	11779.92
490.88	11630.12
491.06	11550.54
491.24	11639.48
491.41	11805.66
491.59	11826.73
491.77	11859.49
491.95	12072.48
492.13	12161.42
492.30	12219.94
492.48	12255.04
492.66	12168.45
492.84	12245.68
493.01	12465.69
493.19	12486.76
493.37	12716.13
493.54	12718.47
493.72	12638.89
493.90	12760.60
494.08	12830.82
494.25	12985.29
494.43	12996.99
494.61	13366.80
494.79	13144.45
494.96	13399.57
495.14	13586.81
495.32	13291.90
495.49	13476.80
495.67	13687.45
495.85	13706.18
496.02	13554.04
496.20	13652.34
496.38	13738.94
496.55	13802.14
496.73	14375.57
496.91	14209.39
497.09	14263.22
497.26	14108.75
497.44	14459.83
497.62	14260.88
497.79	14637.71
497.97	14537.07
498.14	14583.88
498.32	14815.59
498.50	14768.78
498.67	14752.40
498.85	14630.69
499.03	14614.30
499.20	14714.95
499.38	15037.94
499.56	15250.93
499.73	14988.79
499.91	15159.65
500.08	15176.03
500.26	15154.97
500.44	15257.95
500.61	15578.61
500.79	15531.80
500.97	15428.81
501.14	15630.10
501.32	15475.62
501.49	15676.91
501.67	15456.90
501.84	15838.41
502.02	15957.77
502.20	16105.23
502.37	16177.78
502.55	16238.64
502.72	16123.95
502.90	16336.94
503.07	16266.72
503.25	15854.79
503.43	16210.55
503.60	16587.38
503.78	16320.56
503.95	16313.53
504.13	16629.51
504.30	16470.35
504.48	16657.59
504.65	16772.28
504.83	16744.19
505.01	16966.54
505.18	17011.01
505.36	16891.65
505.53	16947.82
505.71	16931.44
505.88	16975.91
506.06	16858.88
506.23	16940.80
506.41	17177.19
506.58	17153.79
506.76	17441.67
506.93	17659.34
507.11	17446.35
507.28	17507.21
507.46	17500.19
507.63	17776.37
507.81	17776.37
507.98	17666.36
508.16	17509.55
508.33	17708.49
508.50	17961.27
508.68	17769.35
508.85	18157.88
509.03	17823.18
509.20	18115.75
509.38	18314.69
509.55	18171.92
509.73	17827.86
509.90	18195.32
510.08	18242.14
510.25	18310.01
510.42	18359.16
510.60	18633.00
510.77	18757.05
510.95	18707.90
511.12	18583.85
511.30	18740.67
511.47	18855.36
511.64	18424.70
511.82	19075.37
511.99	19016.85
512.17	18984.09
512.34	19129.20
512.51	19168.99
512.69	18897.49
512.86	19026.21
513.04	19215.80
513.21	19197.07
513.38	19126.86
513.56	19218.14
513.73	19288.35
513.90	19594.96
514.08	19222.82
514.25	19562.20
514.43	19592.62
514.60	19758.80
514.77	19632.41
514.95	19826.68
515.12	19601.99
515.29	19489.64
515.47	19625.39
515.64	19985.83
515.81	19948.39
515.99	19810.29
516.16	20411.81
516.33	20257.34
516.51	20140.31
516.68	20072.43
516.85	19936.68
517.03	20123.93
517.20	20432.88
517.37	20400.11
517.54	20463.30
517.72	20671.61
517.89	20465.64
518.06	20680.97
518.24	20343.94
518.41	20563.95
518.58	20716.08
518.75	20500.75
518.93	20886.94
519.10	20489.05
519.27	20816.72
519.45	20713.74
519.62	20985.24
519.79	20893.96
519.96	20943.11
520.14	21308.24
520.31	20816.72
520.48	21104.61
520.65	21270.79
520.83	21397.18
521.00	21319.94
521.17	21495.48
521.34	21481.44
521.52	21261.43
521.69	21514.20
521.86	21589.10
522.03	21642.93
522.20	21390.16
522.38	21413.56
522.55	21502.50
522.72	21642.93
522.89	21954.22
523.07	21949.54
523.24	22038.48
523.41	21900.39
523.58	21909.75
523.75	21722.51
523.92	21664.00
524.10	22108.70
524.27	21944.86
524.44	22214.02
524.61	22267.86
524.78	22349.78
524.96	22244.45
525.13	22506.59
525.30	22239.77
525.47	22457.44
525.64	22359.14
525.81	22232.75
525.98	22827.24
526.16	22675.11
526.33	22703.20
526.50	22703.20
526.67	22539.36
526.84	22640.00
527.01	22649.36
527.18	22492.55
527.36	22918.53
527.53	23091.73
527.70	23461.53
527.87	22963.00
528.04	23187.69
528.21	23388.97
528.38	23016.83
528.55	22991.08
528.72	22817.88
528.89	23278.97
529.07	23234.50
529.24	23009.81
529.41	23562.17
529.58	23098.75
529.75	23318.76
529.92	23314.08
530.09	23365.57
530.26	23330.46
530.43	23351.52
530.60	23414.72
530.77	23517.70
530.94	23426.42
531.11	23625.37
531.28	23754.10
531.46	23831.33
531.63	23452.17
531.80	23859.42
531.97	23833.68
532.14	23836.02
532.31	23988.15
532.48	24039.64
532.65	23697.92
532.82	23747.08
532.99	23894.53
533.16	23555.15
533.33	24313.48
533.50	24570.94
533.67	24690.31
533.84	23957.72
534.01	24276.04
534.18	23819.63
534.35	24386.04
534.52	24390.72
534.69	24306.46
534.86	24666.91
535.03	24121.56
535.20	24634.14
535.37	24687.97
535.54	24683.29
535.71	24432.85
535.88	24809.68
536.05	24685.63
536.22	24706.70
536.38	24786.27
536.55	25067.14
536.72	24961.81
536.89	24795.64
537.06	24744.14
537.23	24950.11
537.40	24643.50
537.57	24648.18
537.74	25113.95
537.91	25017.99
538.08	24865.85
538.25	24865.85
538.42	25228.63
538.59	25319.92
538.75	25020.33
538.92	25371.41
539.09	25118.63
539.26	25146.72
539.43	25565.67
539.60	25245.02
539.77	25247.36
539.94	25366.73
540.11	25352.68
540.28	25202.89
540.44	25605.46
540.61	25656.95
540.78	25308.21
540.95	25586.74
541.12	25532.90
541.29	25673.34
541.46	25387.79
541.62	25731.85
541.79	25338.64
541.96	25266.08
542.13	25277.79
542.30	25692.06
542.47	26249.11
542.63	25717.81
542.80	26394.22
542.97	26405.92
543.14	26185.91
543.31	26307.62
543.48	26148.46
543.64	26295.92
543.81	26279.54
543.98	26221.02
544.15	26394.22
544.32	26473.80
544.48	26656.36
544.65	26281.88
544.82	26312.30
544.99	26085.27
545.16	26560.40
545.32	26375.50
545.49	26761.69
545.66	26810.84
545.83	26525.29
546.00	26661.04
546.16	26555.72
546.33	26328.69
546.50	26602.53
546.67	26597.85
546.83	26307.62
547.00	26621.25
547.17	26466.78
547.34	26845.94
547.50	27002.76
547.67	27082.34
547.84	27103.40
548.00	26925.52
548.17	26967.65
548.34	26611.89
548.51	27040.21
548.67	27173.62
548.84	26892.76
549.01	27321.07
549.18	26904.46
549.34	26969.99
549.51	26977.01
549.68	27124.47
549.84	26878.71
550.01	26705.51
550.18	27103.40
550.34	27372.57
550.51	27227.45
550.68	27651.09
550.84	27314.05
551.01	27447.46
551.18	26719.56
551.34	27274.26
551.51	27337.46
551.68	27108.08
551.84	27672.15
552.01	27131.49
552.18	27754.07
552.34	27676.83
552.51	27374.91
552.68	27665.13
552.84	27578.53
553.01	27791.52
553.18	27683.86
553.34	28032.60
553.51	27917.91
553.67	27683.86
553.84	28053.66
554.01	27789.18
554.17	27768.12
554.34	27871.10
554.51	27735.35
554.67	27845.35
554.84	27852.38
555.00	28116.86
555.17	28177.71
555.33	27878.12
555.50	28259.63
555.67	28236.22
555.83	28065.36
556.00	28074.73
556.16	28074.73
556.33	27915.57
556.50	28098.13
556.66	28421.13
556.83	28102.81
556.99	28074.73
557.16	28919.66
557.32	28318.14
557.49	28723.05
557.65	28306.44
557.82	28093.45
557.98	28196.43
558.15	28247.93
558.32	28261.97
558.48	28011.53
558.65	28760.50
558.81	28730.08
558.98	28257.29
559.14	28081.75
559.31	28446.87
559.47	28599.01
559.64	28353.25
559.80	28278.35
559.97	28730.08
560.13	28458.57
560.30	28505.38
560.46	28783.91
560.63	28636.45
560.79	28804.97
560.96	28746.46
561.12	28449.21
561.29	28451.55
561.45	28650.50
561.61	28725.39
561.78	28734.76
561.94	29062.43
562.11	28664.54
562.27	28559.22
562.44	28561.56
562.60	28709.01
562.77	28439.85
562.93	28568.58
563.10	28692.63
563.26	28161.33
563.42	29263.72
563.59	28797.95
563.75	28903.28
563.92	28500.70
564.08	28496.02
564.24	28762.84
564.41	28577.94
564.57	28493.68
564.74	28889.23
564.90	28982.85
565.07	28924.34
565.23	28966.47
565.39	29408.83
565.56	28992.22
565.72	29039.03
565.88	28886.89
566.05	28835.40
566.21	28783.91
566.38	29085.84
566.54	28875.19
566.70	29448.62
566.87	29305.85
567.03	28732.42
567.19	29390.11
567.36	29069.45
567.52	28783.91
567.68	29062.43
567.85	28797.95
568.01	28957.11
568.17	28959.45
568.34	29448.62
568.50	29284.78
568.66	29347.98
568.83	29280.10
568.99	29256.70
569.15	29376.06
569.32	28840.08
569.48	28819.02
569.64	29362.02
569.81	29553.94
569.97	28924.34
570.13	29546.92
570.30	28912.64
570.46	29645.23
570.62	29504.79
570.78	29214.57
570.95	29041.37
571.11	29287.12
571.27	28929.02
571.43	29165.42
571.60	29163.08
571.76	29156.05
571.92	29282.44
572.09	29479.05
572.25	29579.69
572.41	29579.69
572.57	29710.76
572.74	29174.78
572.90	29081.16
573.06	29359.68
573.22	29193.50
573.38	29355.00
573.55	29376.06
573.71	29642.88
573.87	29364.36
574.03	29542.24
574.20	29769.27
574.36	29268.40
574.52	29284.78
574.68	29448.62
574.84	29280.10
575.01	29434.58
575.17	29542.24
575.33	29455.64
575.49	29504.79
575.65	29406.49
575.82	29626.50
575.98	29130.31
576.14	29434.58
576.30	29233.29
576.46	29362.02
576.62	29502.45
576.79	29738.85
576.95	29406.49
577.11	29572.67
577.27	29631.18
577.43	29584.37
577.59	29450.96
577.75	29457.98
577.92	29076.48
578.08	29214.57
578.24	29776.30
578.40	29596.07
578.56	29256.70
578.72	29240.31
578.88	29867.58
579.04	30089.93
579.21	29748.21
579.37	29603.10
579.53	29479.05
579.69	29130.31
579.85	29142.01
580.01	29551.60
580.17	29378.40
580.33	29532.88
580.49	29858.21
580.65	29553.94
580.82	29624.16
580.98	30003.33
581.14	29525.86
581.30	29921.41
581.46	29252.02
581.62	29642.88
581.78	29523.52
581.94	29326.91
582.10	29542.24
582.26	29266.06
582.42	29795.02
582.58	29830.13
582.74	29593.73
582.90	29680.33
583.06	29762.25
583.22	29743.53
583.38	29752.89
583.54	29645.23
583.70	29645.23
583.86	29734.17
584.02	29336.27
584.18	29895.66
584.34	29689.70
584.50	29762.25
584.66	29776.30
584.82	29881.62
584.98	29509.47
585.14	29605.44
585.30	29263.72
585.46	29357.34
585.62	29748.21
585.78	29961.20
585.94	29685.01
586.10	29820.77
586.26	29722.46
586.42	30008.01
586.58	30171.85
586.74	29663.95
586.90	29350.32
587.06	29804.38
587.22	29729.48
587.38	29996.31
587.54	30246.74
587.70	30050.14
587.86	29900.34
588.02	30096.95
588.18	29682.67
588.34	29680.33
588.49	29804.38
588.65	29596.07
588.81	29703.74
588.97	30237.38
589.13	30089.93
589.29	29804.38
589.45	30010.35
589.61	29996.31
589.77	30162.48
589.93	29949.50
590.08	30394.20
590.24	30295.89
590.40	29848.85
590.56	30153.12
590.72	29996.31
590.88	29982.26
591.04	29752.89
591.20	30171.85
591.35	30010.35
591.51	30398.88
591.67	30424.62
591.83	30312.28
591.99	29996.31
