SpectraSuite Data File
++++++++++++++++++++++++++++++++++++
Date: Fri Oct 18 13:58:17 GMT-05:00 2013
User: bianchi
Dark Spectrum Present: No
Reference Spectrum Present: No
Number of Sampled Component Spectra: 1
Spectrometers: USB2+H05261
Integration Time (usec): 50000 (USB2+H05261)
Spectra Averaged: 1 (USB2+H05261)
Boxcar Smoothing: 0 (USB2+H05261)
Correct for Electrical Dark: No (USB2+H05261)
Strobe/Lamp Enabled: No (USB2+H05261)
Correct for Detector Non-linearity: No (USB2+H05261)
Correct for Stray Light: No (USB2+H05261)
Number of Pixels in Processed Spectrum: 2048
>>>>>Begin Processed Spectral Data<<<<<
365.73	0.00
365.92	0.00
366.12	0.00
366.32	0.00
366.52	0.00
366.72	0.00
366.91	0.00
367.11	0.00
367.31	0.00
367.51	0.00
367.70	0.00
367.90	0.00
368.10	0.00
368.30	0.00
368.49	0.00
368.69	0.00
368.89	0.00
369.09	0.00
369.28	0.00
369.48	0.00
369.68	0.00
369.87	0.00
370.07	0.00
370.27	0.00
370.47	0.00
370.66	147.45
370.86	79.58
371.06	107.66
371.25	184.90
371.45	110.01
371.65	147.45
371.84	100.64
372.04	128.73
372.24	161.50
372.44	187.24
372.63	156.82
372.83	234.05
373.03	224.69
373.22	198.95
373.42	205.97
373.62	220.01
373.81	224.69
374.01	241.08
374.21	154.48
374.40	184.90
374.60	220.01
374.79	222.35
374.99	220.01
375.19	283.20
375.38	285.55
375.58	203.63
375.78	175.54
375.97	241.08
376.17	278.52
376.37	180.22
376.56	184.90
376.76	241.08
376.95	271.50
377.15	238.73
377.35	262.14
377.54	313.63
377.74	236.39
377.93	285.55
378.13	257.46
378.33	308.95
378.52	243.42
378.72	229.37
378.91	203.63
379.11	255.12
379.31	320.65
379.50	210.65
379.70	348.74
379.89	264.48
380.09	278.52
380.28	236.39
380.48	294.91
380.68	344.06
380.87	229.37
381.07	397.89
381.26	348.74
381.46	346.40
381.65	390.87
381.85	351.08
382.04	351.08
382.24	362.78
382.43	322.99
382.63	269.16
382.83	290.23
383.02	365.12
383.22	318.31
383.41	292.57
383.61	318.31
383.80	369.80
384.00	322.99
384.19	313.63
384.39	353.42
384.58	320.65
384.78	332.36
384.97	372.15
385.17	416.62
385.36	468.11
385.56	374.49
385.75	383.85
385.95	383.85
386.14	365.12
386.34	430.66
386.53	322.99
386.72	369.80
386.92	388.53
387.11	423.64
387.31	440.02
387.50	367.46
387.70	425.98
387.89	393.21
388.09	402.57
388.28	402.57
388.48	456.40
388.67	416.62
388.86	409.59
389.06	369.80
389.25	395.55
389.45	440.02
389.64	447.04
389.84	468.11
390.03	465.77
390.22	435.34
390.42	514.92
390.61	496.19
390.81	482.15
391.00	505.56
391.19	528.96
391.39	566.41
391.58	461.09
391.78	500.87
391.97	442.36
392.16	510.24
392.36	571.09
392.55	533.64
392.75	592.16
392.94	498.53
393.13	575.77
393.33	535.98
393.52	650.67
393.71	568.75
393.91	617.90
394.10	622.58
394.29	662.37
394.49	573.43
394.68	575.77
394.88	615.56
395.07	610.88
395.26	613.22
395.46	526.62
395.65	688.12
395.84	575.77
396.04	606.20
396.23	599.18
396.42	599.18
396.62	664.71
396.81	660.03
397.00	720.88
397.19	634.29
397.39	660.03
397.58	669.39
397.77	622.58
397.97	603.86
398.16	645.99
398.35	725.57
398.55	692.80
398.74	695.14
398.93	732.59
399.12	753.65
399.32	664.71
399.51	760.67
399.70	732.59
399.90	706.84
400.09	819.19
400.28	748.97
400.47	751.31
400.67	765.36
400.86	711.52
401.05	884.72
401.24	826.21
401.44	753.65
401.63	800.46
401.82	802.80
402.01	767.70
402.21	767.70
402.40	793.44
402.59	847.27
402.78	844.93
402.97	844.93
403.17	802.80
403.36	861.32
403.55	833.23
403.74	915.15
403.93	870.68
404.13	875.36
404.32	943.24
404.51	947.92
404.70	926.85
404.89	919.83
405.09	926.85
405.28	994.73
405.47	929.19
405.66	863.66
405.85	987.71
406.05	894.08
406.24	870.68
406.43	968.98
406.62	997.07
406.81	1048.56
407.00	1015.79
407.20	973.66
407.39	971.32
407.58	1064.94
407.77	987.71
407.96	1067.28
408.15	1111.75
408.34	1083.67
408.54	1071.97
408.73	1158.57
408.92	1118.78
409.11	1146.86
409.30	1076.65
409.49	1224.10
409.68	1121.12
409.87	1114.10
410.07	1128.14
410.26	1158.57
410.45	1153.88
410.64	1186.65
410.83	1179.63
411.02	1170.27
411.21	1252.19
411.40	1233.46
411.59	1247.51
411.78	1270.91
411.98	1177.29
412.17	1301.34
412.36	1306.02
412.55	1355.17
412.74	1310.70
412.93	1348.15
413.12	1406.66
413.31	1369.21
413.50	1411.34
413.69	1284.95
413.88	1406.66
414.07	1329.42
414.26	1324.74
414.45	1444.11
414.64	1504.96
414.83	1467.52
415.02	1448.79
415.22	1526.03
415.41	1514.33
415.60	1488.58
415.79	1490.92
415.98	1551.78
416.17	1645.40
416.36	1645.40
416.55	1591.56
416.74	1589.22
416.93	1643.06
417.12	1586.88
417.31	1673.48
417.50	1603.27
417.69	1654.76
417.88	1724.97
418.07	1687.53
418.26	1736.68
418.45	1699.23
418.64	1753.06
418.83	1781.15
419.02	1673.48
419.21	1867.75
419.39	1830.30
419.58	1689.87
419.77	1760.08
419.96	1944.99
420.15	1856.04
420.34	1762.42
420.53	1753.06
420.72	1912.22
420.91	1792.85
421.10	1816.26
421.29	1900.52
421.48	1870.09
421.67	1844.34
421.86	1961.37
422.05	1909.88
422.24	1963.71
422.43	1898.17
422.61	1933.28
422.80	1947.33
422.99	1984.77
423.18	2008.18
423.37	2029.24
423.56	1921.58
423.75	2031.58
423.94	1881.79
424.13	1867.75
424.32	1959.03
424.50	2040.95
424.69	2064.35
424.88	2045.63
425.07	2012.86
425.26	1991.80
425.45	2026.90
425.64	1952.01
425.83	2010.52
426.01	2101.80
426.20	2031.58
426.39	2050.31
426.58	2036.27
426.77	1998.82
426.96	1998.82
427.15	2043.29
427.33	2057.33
427.52	2054.99
427.71	2127.55
427.90	2190.74
428.09	2155.63
428.28	2265.64
428.46	2186.06
428.65	2169.68
428.84	2246.91
429.03	2275.00
429.22	2113.50
429.40	2225.85
429.59	2188.40
429.78	2010.52
429.97	2113.50
430.16	2190.74
430.34	2289.04
430.53	2319.47
430.72	2228.19
430.91	2265.64
431.10	2284.36
431.28	2263.30
431.47	2478.63
431.66	2403.73
431.85	2204.78
432.03	2389.69
432.22	2408.41
432.41	2389.69
432.60	2429.48
432.79	2279.68
432.97	2466.92
433.16	2466.92
433.35	2352.24
433.54	2537.14
433.72	2452.88
433.91	2427.14
434.10	2464.58
434.28	2438.84
434.47	2448.20
434.66	2448.20
434.85	2483.31
435.03	2537.14
435.22	2553.52
435.41	2710.34
435.59	2607.36
435.78	2654.17
435.97	2541.82
436.16	2597.99
436.34	2487.99
436.53	2553.52
436.72	2759.49
436.90	2644.81
437.09	2703.32
437.28	2642.46
437.46	2717.36
437.65	2719.70
437.84	2789.92
438.02	2785.24
438.21	2775.88
438.40	2787.58
438.58	2820.35
438.77	2775.88
438.96	2768.85
439.14	2855.45
439.33	2909.29
439.52	2920.99
439.70	3002.91
439.89	3101.21
440.08	2958.44
440.26	3063.76
440.45	3061.42
440.63	3098.87
440.82	3197.17
441.01	3033.33
441.19	2979.50
441.38	3038.02
441.57	3112.91
441.75	3253.34
441.94	3180.79
442.12	3260.37
442.31	3220.58
442.50	3222.92
442.68	3382.07
442.87	3344.63
443.05	3318.88
443.24	3349.31
443.43	3398.46
443.61	3377.39
443.80	3419.52
443.98	3370.37
444.17	3262.71
444.35	3391.44
444.54	3463.99
444.73	3431.23
444.91	3475.70
445.10	3459.31
445.28	3391.44
445.47	3262.71
445.65	3318.88
445.84	3517.83
446.02	3400.80
446.21	3471.01
446.39	3290.79
446.58	3463.99
446.77	3454.63
446.95	3447.61
447.14	3459.31
447.32	3496.76
447.51	3435.91
447.69	3428.88
447.88	3375.05
448.06	3447.61
448.25	3449.95
448.43	3599.74
448.62	3576.34
448.80	3496.76
448.99	3552.93
449.17	3686.34
449.36	3604.42
449.54	3630.17
449.73	3581.02
449.91	3801.03
450.10	3726.13
450.28	3740.18
450.46	3569.32
450.65	3714.43
450.83	3719.11
451.02	3747.20
451.20	3770.60
451.39	3889.97
451.57	3693.37
451.76	3756.56
451.94	3803.37
452.13	3875.93
452.31	3901.67
452.49	3770.60
452.68	3889.97
452.86	3845.50
453.05	3779.97
453.23	3868.91
453.42	3836.14
453.60	3784.65
453.78	3908.69
453.97	3882.95
454.15	3833.80
454.34	3885.29
454.52	3873.59
454.70	3941.46
454.89	4009.34
455.07	4009.34
455.26	4053.81
455.44	4037.42
455.62	4114.66
455.81	4128.70
455.99	4072.53
456.17	4215.30
456.36	4037.42
456.54	4224.67
456.73	4264.46
456.91	4238.71
457.09	4182.54
457.28	4470.42
457.46	4311.27
457.64	4451.70
457.83	4372.12
458.01	4255.09
458.19	4379.14
458.38	4442.34
458.56	4491.49
458.74	4374.46
458.93	4325.31
459.11	4346.37
459.29	4444.68
459.48	4421.27
459.66	4468.08
459.84	4533.62
460.03	4636.60
460.21	4641.28
460.39	4561.70
460.57	4587.45
460.76	4496.17
460.94	4603.83
461.12	4671.71
461.31	4627.24
461.49	4655.33
461.67	4486.81
461.85	4667.03
462.04	4678.73
462.22	4863.63
462.40	4826.18
462.59	4854.27
462.77	4798.10
462.95	4557.02
463.13	4774.69
463.32	4952.57
463.50	4695.11
463.68	4819.16
463.86	4755.97
464.05	4748.95
464.23	4795.76
464.41	4807.46
464.59	4739.58
464.78	4924.49
464.96	4758.31
465.14	4954.91
465.32	4971.30
465.50	4868.31
465.69	5020.45
465.87	4851.93
466.05	5018.11
466.23	4931.51
466.41	4945.55
466.60	5006.41
466.78	4980.66
466.96	4994.70
467.14	5097.69
467.32	5102.37
467.51	5121.09
467.69	5114.07
467.87	5022.79
468.05	5029.81
468.23	5142.16
468.41	5121.09
468.60	5039.17
468.78	5252.16
468.96	5205.35
469.14	5219.39
469.32	5188.97
469.50	5226.42
469.69	5397.28
469.87	5214.71
470.05	5373.87
470.23	5336.42
470.41	5315.36
470.59	5427.70
470.77	5383.23
470.95	5535.37
471.14	5453.45
471.32	5502.60
471.50	5589.20
471.68	5338.76
471.86	5530.69
472.04	5547.07
472.22	5788.14
472.40	5483.88
472.58	5591.54
472.77	5877.09
472.95	5458.13
473.13	5846.66
473.31	5860.70
473.49	5685.16
473.67	5710.91
473.85	5846.66
474.03	5963.68
474.21	5874.74
474.39	6113.48
474.57	6029.22
474.75	6073.69
474.93	6279.66
475.12	6141.57
475.30	6286.68
475.48	6069.01
475.66	6263.27
475.84	6284.34
476.02	6307.74
476.20	6195.40
476.38	6499.67
476.56	6347.53
476.74	6534.78
476.92	6672.87
477.10	6429.45
477.28	6736.06
477.46	6490.31
477.64	6771.17
477.82	6733.72
478.00	6878.83
478.18	6789.89
478.36	6956.07
478.54	6935.01
478.72	6890.54
478.90	7023.95
479.08	7112.89
479.26	7241.62
479.44	7098.84
479.62	7201.83
479.80	7372.69
479.98	7379.71
480.16	7630.15
480.34	7573.97
480.52	7719.09
480.70	7524.82
480.88	7449.93
481.06	7508.44
481.24	7590.36
481.41	7672.28
481.59	7758.88
481.77	7960.16
481.95	7826.75
482.13	7922.71
482.31	8128.68
482.49	8109.96
482.67	8074.85
482.85	8430.61
483.03	8505.51
483.21	8521.89
483.39	8451.67
483.57	8535.93
483.74	8664.66
483.92	8638.92
484.10	8571.04
484.28	8828.50
484.46	8924.46
484.64	9153.84
484.82	8926.80
485.00	9011.06
485.18	9226.39
485.35	9296.61
485.53	9221.71
485.71	9357.46
485.89	9504.92
486.07	9408.95
486.25	9493.21
486.43	9589.17
486.61	9650.03
486.78	9877.06
486.96	9881.74
487.14	9856.00
487.32	10115.80
487.50	9823.23
487.68	10087.71
487.85	10431.77
488.03	10200.05
488.21	10698.59
488.39	10506.66
488.57	10544.11
488.75	10665.82
488.92	10881.15
489.10	10782.85
489.28	10864.77
489.46	11042.65
489.64	10871.79
489.81	11201.80
489.99	11269.68
490.17	11463.94
490.35	11721.40
490.53	11365.64
490.70	11431.18
490.88	11520.12
491.06	11651.19
491.24	11637.14
491.41	11756.51
491.59	12030.35
491.77	11957.80
491.95	12035.03
492.13	12091.21
492.30	12233.98
492.48	12028.01
492.66	12278.45
492.84	12339.30
493.01	12463.35
493.19	12255.04
493.37	12482.08
493.54	12807.41
493.72	12781.67
493.90	12678.68
494.08	12905.71
494.25	13198.28
494.43	12917.42
494.61	13259.13
494.79	13315.31
494.96	13221.69
495.14	13277.86
495.32	13350.42
495.49	13549.36
495.67	13827.88
495.85	13673.41
496.02	13834.91
496.20	13781.07
496.38	13642.98
496.55	13703.84
496.73	14293.65
496.91	14193.01
497.09	14190.67
497.26	14291.31
497.44	14200.03
497.62	14326.42
497.79	14490.26
497.97	14298.33
498.14	14658.78
498.32	14724.31
498.50	14743.03
498.67	15044.96
498.85	14834.32
499.03	14967.73
499.20	15068.37
499.38	15051.99
499.56	14775.80
499.73	14998.15
499.91	14839.00
500.08	15377.32
500.26	15316.47
500.44	15075.39
500.61	15360.94
500.79	15407.75
500.97	15552.86
501.14	15810.32
501.32	15810.32
501.49	15744.78
501.67	15550.52
501.84	15901.60
502.02	15917.98
502.20	15974.16
502.37	16030.33
502.55	16042.03
502.72	15882.88
502.90	15836.06
503.07	15985.86
503.25	15978.84
503.43	16222.25
503.60	16341.62
503.78	16458.65
503.95	16542.91
504.13	16355.66
504.30	16610.78
504.48	16355.66
504.65	16292.47
504.83	16613.12
505.01	16727.81
505.18	16575.67
505.36	17076.55
505.53	16884.62
505.71	17088.25
505.88	16690.36
506.06	17053.14
506.23	17165.49
506.41	17209.96
506.58	17240.39
506.76	17380.82
506.93	17315.28
507.11	17200.60
507.28	17373.80
507.46	17439.33
507.63	17741.26
507.81	17619.55
507.98	17523.59
508.16	17717.86
508.33	17877.01
508.50	17561.04
508.68	17755.30
508.85	17881.69
509.03	17453.37
509.20	17825.52
509.38	18036.17
509.55	17998.72
509.73	18513.64
509.90	18377.89
510.08	18132.13
510.25	18497.25
510.42	18431.72
510.60	18576.83
510.77	18698.54
510.95	18841.31
511.12	18485.55
511.30	18150.85
511.47	18679.82
511.64	18796.84
511.82	18841.31
511.99	18611.94
512.17	18668.11
512.34	18717.26
512.51	19220.48
512.69	18869.40
512.86	19080.05
513.04	19147.92
513.21	19014.51
513.38	19283.67
513.56	19332.82
513.73	19386.66
513.90	19323.46
514.08	19470.92
514.25	19463.90
514.43	19482.62
514.60	19669.86
514.77	19831.36
514.95	20126.27
515.12	19707.31
515.29	19477.94
515.47	19583.26
515.64	20210.53
515.81	19548.15
515.99	20058.39
516.16	20109.88
516.33	20285.42
516.51	20353.30
516.68	20285.42
516.85	20123.93
517.03	19892.21
517.20	20388.41
517.37	20484.37
517.54	20568.63
517.72	20601.40
517.89	20360.32
518.06	20456.28
518.24	20809.70
518.41	20596.71
518.58	20664.59
518.75	20589.69
518.93	20418.83
519.10	20758.21
519.27	20929.07
519.45	20690.34
519.62	20837.79
519.79	20709.06
519.96	20975.88
520.14	21142.06
520.31	21167.80
520.48	21195.89
520.65	21303.56
520.83	21050.78
521.00	20987.58
521.17	21373.77
521.34	21565.70
521.52	21338.66
521.69	21530.59
521.86	21656.98
522.03	21252.06
522.20	21701.45
522.38	21736.56
522.55	21638.25
522.72	21757.62
522.89	21675.70
523.07	22202.32
523.24	21694.43
523.41	21991.67
523.58	21614.85
523.75	22228.07
523.92	21855.92
524.10	21921.46
524.27	22097.00
524.44	22501.91
524.61	22104.02
524.78	22108.70
524.96	22141.47
525.13	22462.12
525.30	22464.46
525.47	22445.74
525.64	22490.21
525.81	22452.76
525.98	22705.54
526.16	22623.62
526.33	22429.35
526.50	22806.18
526.67	22656.39
526.84	22677.45
527.01	22459.78
527.18	22738.30
527.36	22412.97
527.53	22939.59
527.70	23014.49
527.87	23131.51
528.04	22948.95
528.21	23150.24
528.38	22937.25
528.55	23218.11
528.72	23213.43
528.89	23058.96
529.07	23377.27
529.24	23253.22
529.41	23211.09
529.58	23339.82
529.75	23243.86
529.92	23215.77
530.09	23087.04
530.26	23590.26
530.43	23515.36
530.60	23824.31
530.77	23531.75
530.94	23714.31
531.11	23599.62
531.28	23639.41
531.46	23590.26
531.63	23957.72
531.80	23917.93
531.97	23924.96
532.14	24004.53
532.31	23974.11
532.48	23782.18
532.65	24154.33
532.82	23763.46
532.99	23974.11
533.16	24002.19
533.33	24297.10
533.50	24257.31
533.67	24482.00
533.84	23880.49
534.01	24156.67
534.18	24105.18
534.35	24402.43
534.52	24306.46
534.69	24650.52
534.86	24889.26
535.03	24657.54
535.20	24566.26
535.37	24283.06
535.54	24751.17
535.71	24479.66
535.88	24910.32
536.05	24510.09
536.22	24547.54
536.38	24800.32
536.55	25064.80
536.72	24741.80
536.89	24711.38
537.06	25046.07
537.23	24758.19
537.40	24912.66
537.57	25017.99
537.74	24870.53
537.91	25352.68
538.08	25207.57
538.25	25209.91
538.42	24978.20
538.59	24933.73
538.75	24758.19
538.92	25081.18
539.09	25071.82
539.26	25144.38
539.43	25500.14
539.60	25319.92
539.77	25308.21
539.94	25713.13
540.11	25458.01
540.28	25230.98
540.44	25392.47
540.61	25476.73
540.78	25348.00
540.95	25303.53
541.12	25205.23
541.29	25544.61
541.46	25504.82
541.62	25708.44
541.79	25858.24
541.96	25607.80
542.13	25514.18
542.30	25696.74
542.47	25680.36
542.63	25926.11
542.80	26164.85
542.97	26054.84
543.14	25926.11
543.31	25853.56
543.48	26202.30
543.64	26363.79
543.81	26642.32
543.98	26450.39
544.15	26448.05
544.32	26735.94
544.48	26567.42
544.65	26536.99
544.82	26382.52
544.99	25891.01
545.16	26401.24
545.32	26356.77
545.49	26611.89
545.66	26504.23
545.83	26590.83
546.00	26848.29
546.16	26534.65
546.33	26471.46
546.50	26431.67
546.67	26604.87
546.83	26258.47
547.00	26553.38
547.17	26438.69
547.34	26948.93
547.50	26836.58
547.67	26679.77
547.84	26757.00
548.00	27002.76
548.17	26979.36
548.34	27005.10
548.51	27178.30
548.67	26988.72
548.84	27206.39
549.01	27061.27
549.18	27241.50
549.34	27110.43
549.51	27197.02
549.68	26836.58
549.84	27129.15
550.01	27061.27
550.18	26939.57
550.34	27227.45
550.51	27342.14
550.68	27271.92
550.84	27171.28
551.01	27145.53
551.18	27056.59
551.34	27012.12
551.51	27243.84
551.68	27440.44
551.84	27281.28
552.01	27318.73
552.18	27489.59
552.34	27716.62
552.51	27840.67
552.68	27414.69
552.84	27976.42
553.01	27704.92
553.18	27527.04
553.34	27723.65
553.51	27520.02
553.67	27723.65
553.84	27938.97
554.01	28020.89
554.17	27835.99
554.34	27810.25
554.51	27887.48
554.67	27704.92
554.84	27550.45
555.00	28404.74
555.17	28299.42
555.33	28077.07
555.50	27892.16
555.67	27882.80
555.83	27761.09
556.00	28020.89
556.16	28151.96
556.33	27936.63
556.50	27913.23
556.66	28182.39
556.83	28084.09
556.99	28395.38
557.16	28519.43
557.32	28341.55
557.49	28292.40
557.65	28016.21
557.82	27889.82
557.98	28102.81
558.15	28308.78
558.32	28591.98
558.48	28437.51
558.65	28563.90
558.81	28638.80
558.98	28294.74
559.14	28388.36
559.31	28332.18
559.47	28526.45
559.64	28683.27
559.80	28659.86
559.97	28863.49
560.13	28329.84
560.30	28400.06
560.46	28650.50
560.63	28397.72
560.79	28746.46
560.96	28540.49
561.12	28245.58
561.29	28577.94
561.45	28404.74
561.61	29116.26
561.78	28741.78
561.94	28732.42
562.11	28802.63
562.27	28936.04
562.44	28290.06
562.60	28648.16
562.77	28793.27
562.93	28617.73
563.10	28994.56
563.26	28676.24
563.42	29017.96
563.59	29282.44
563.75	28992.22
563.92	28914.98
564.08	28720.71
564.24	28861.15
564.41	29118.60
564.57	28608.37
564.74	28907.96
564.90	29130.31
565.07	29247.33
565.23	28982.85
565.39	29137.33
565.56	29184.14
565.72	28840.08
565.88	29172.44
566.05	28755.82
566.21	28737.10
566.38	28917.32
566.54	28872.85
566.70	29139.67
566.87	29179.46
567.03	29064.77
567.19	29481.39
567.36	28833.06
567.52	29001.58
567.68	29130.31
567.85	29181.80
568.01	29446.28
568.17	29039.03
568.34	29415.85
568.50	29310.53
568.66	29429.90
568.83	29493.09
568.99	29102.22
569.15	29076.48
569.32	29071.79
569.48	28723.05
569.64	29200.52
569.81	29111.58
569.97	29106.90
570.13	29493.09
570.30	29336.27
570.46	29455.64
570.62	29422.87
570.78	29502.45
570.95	29347.98
571.11	29223.93
571.27	29076.48
571.43	29397.13
571.60	29312.87
571.76	29315.21
571.92	29252.02
572.09	29397.13
572.25	29816.08
572.41	29617.14
572.57	29125.63
572.74	29401.81
572.90	29048.39
573.06	29373.72
573.22	29259.04
573.38	29502.45
573.55	29219.25
573.71	29996.31
573.87	29883.96
574.03	29427.56
574.20	29432.24
574.36	29179.46
574.52	29610.12
574.68	29139.67
574.84	29558.63
575.01	29736.51
575.17	29390.11
575.33	29303.51
575.49	29497.77
575.65	29200.52
575.82	29558.63
575.98	29661.61
576.14	29677.99
576.30	29738.85
576.46	29415.85
576.62	29462.66
576.79	29193.50
576.95	29502.45
577.11	29469.69
577.27	29553.94
577.43	29682.67
577.59	29802.04
577.75	29635.86
577.92	29345.64
578.08	29968.22
578.24	29432.24
578.40	29425.22
578.56	29883.96
578.72	29743.53
578.88	29476.71
579.04	29371.38
579.21	29249.67
579.37	29273.08
579.53	29507.13
579.69	29783.32
579.85	29500.11
580.01	29685.01
580.17	29287.12
580.33	29453.30
580.49	29570.33
580.65	29631.18
580.82	29633.52
580.98	29816.08
581.14	29654.59
581.30	29703.74
581.46	29418.19
581.62	29556.28
581.78	29406.49
581.94	29886.30
582.10	29350.32
582.26	29570.33
582.42	29567.99
582.58	29750.55
582.74	29720.12
582.90	29804.38
583.06	29893.32
583.22	29408.83
583.38	29898.00
583.54	29542.24
583.70	29788.00
583.86	29610.12
584.02	29692.04
584.18	29752.89
584.34	29867.58
584.50	29907.37
584.66	30026.73
584.82	29855.87
584.98	29811.40
585.14	29209.89
585.30	29708.42
585.46	29465.00
585.62	29687.36
585.78	29516.50
585.94	29663.95
586.10	29390.11
586.26	29649.91
586.42	29958.86
586.58	29614.80
586.74	29390.11
586.90	29584.37
587.06	29869.92
587.22	29844.17
587.38	29490.75
587.54	29958.86
587.70	30370.79
587.86	29865.24
588.02	29926.09
588.18	30143.76
588.34	29979.92
588.49	29942.47
588.65	29858.21
588.81	30192.91
588.97	29720.12
589.13	30199.93
589.29	30075.88
589.45	30040.78
589.61	29783.32
589.77	30309.94
589.93	30286.53
590.08	30157.80
590.24	30127.38
590.40	30099.29
590.56	30235.04
590.72	30008.01
590.88	30017.37
591.04	29935.45
591.20	30155.46
591.35	30157.80
591.51	30595.48
591.67	30579.10
591.83	30338.02
591.99	29979.92
