SpectraSuite Data File
++++++++++++++++++++++++++++++++++++
Date: Fri Oct 18 13:58:13 GMT-05:00 2013
User: bianchi
Dark Spectrum Present: No
Reference Spectrum Present: No
Number of Sampled Component Spectra: 1
Spectrometers: USB2+H05261
Integration Time (usec): 50000 (USB2+H05261)
Spectra Averaged: 1 (USB2+H05261)
Boxcar Smoothing: 0 (USB2+H05261)
Correct for Electrical Dark: No (USB2+H05261)
Strobe/Lamp Enabled: No (USB2+H05261)
Correct for Detector Non-linearity: No (USB2+H05261)
Correct for Stray Light: No (USB2+H05261)
Number of Pixels in Processed Spectrum: 2048
>>>>>Begin Processed Spectral Data<<<<<
365.73	0.00
365.92	0.00
366.12	0.00
366.32	0.00
366.52	0.00
366.72	0.00
366.91	0.00
367.11	0.00
367.31	0.00
367.51	0.00
367.70	0.00
367.90	0.00
368.10	0.00
368.30	0.00
368.49	0.00
368.69	0.00
368.89	0.00
369.09	0.00
369.28	0.00
369.48	0.00
369.68	0.00
369.87	0.00
370.07	0.00
370.27	0.00
370.47	0.00
370.66	107.66
370.86	107.66
371.06	138.09
371.25	184.90
371.45	154.48
371.65	196.60
371.84	147.45
372.04	196.60
372.24	163.84
372.44	229.37
372.63	191.92
372.83	264.48
373.03	259.80
373.22	203.63
373.42	175.54
373.62	210.65
373.81	236.39
374.01	168.52
374.21	184.90
374.40	236.39
374.60	278.52
374.79	180.22
374.99	271.50
375.19	238.73
375.38	322.99
375.58	234.05
375.78	255.12
375.97	287.89
376.17	318.31
376.37	245.76
376.56	269.16
376.76	280.86
376.95	304.27
377.15	337.04
377.35	301.93
377.54	205.97
377.74	191.92
377.93	287.89
378.13	276.18
378.33	231.71
378.52	407.25
378.72	285.55
378.91	369.80
379.11	311.29
379.31	203.63
379.50	308.95
379.70	327.68
379.89	376.83
380.09	271.50
380.28	308.95
380.48	351.08
380.68	313.63
380.87	388.53
381.07	353.42
381.26	311.29
381.46	264.48
381.65	388.53
381.85	238.73
382.04	379.17
382.24	351.08
382.43	358.10
382.63	353.42
382.83	327.68
383.02	294.91
383.22	339.38
383.41	390.87
383.61	362.78
383.80	442.36
384.00	435.34
384.19	327.68
384.39	337.04
384.58	362.78
384.78	339.38
384.97	402.57
385.17	454.06
385.36	416.62
385.56	393.21
385.75	374.49
385.95	388.53
386.14	414.27
386.34	367.46
386.53	479.81
386.72	379.17
386.92	465.77
387.11	435.34
387.31	397.89
387.50	407.25
387.70	360.44
387.89	486.83
388.09	425.98
388.28	444.70
388.48	444.70
388.67	526.62
388.86	421.30
389.06	482.15
389.25	470.45
389.45	475.13
389.64	440.02
389.84	498.53
390.03	414.27
390.22	540.66
390.42	465.77
390.61	507.90
390.81	547.69
391.00	486.83
391.19	517.26
391.39	543.00
391.58	603.86
391.78	521.94
391.97	599.18
392.16	524.28
392.36	636.63
392.55	479.81
392.75	568.75
392.94	521.94
393.13	566.41
393.33	580.45
393.52	592.16
393.71	596.84
393.91	521.94
394.10	538.32
394.29	566.41
394.49	524.28
394.68	592.16
394.88	631.94
395.07	634.29
395.26	683.44
395.46	557.05
395.65	660.03
395.84	627.26
396.04	678.76
396.23	667.05
396.42	669.39
396.62	716.20
396.81	711.52
397.00	613.22
397.19	774.72
397.39	636.63
397.58	727.91
397.77	655.35
397.97	798.12
398.16	781.74
398.35	683.44
398.55	732.59
398.74	809.83
398.93	725.57
399.12	699.82
399.32	620.24
399.51	702.16
399.70	793.44
399.90	795.78
400.09	702.16
400.28	734.93
400.47	802.80
400.67	795.78
400.86	763.01
401.05	877.70
401.24	779.40
401.44	826.21
401.63	800.46
401.82	851.96
402.01	800.46
402.21	744.29
402.40	870.68
402.59	800.46
402.78	826.21
402.97	919.83
403.17	910.47
403.36	973.66
403.55	947.92
403.74	917.49
403.93	889.40
404.13	922.17
404.32	931.53
404.51	950.26
404.70	868.34
404.89	898.77
405.09	1008.77
405.28	952.60
405.47	980.68
405.66	1062.60
405.85	976.00
406.05	959.62
406.24	1086.01
406.43	950.26
406.62	1104.73
406.81	1123.46
407.00	983.02
407.20	983.02
407.39	1057.92
407.58	1125.80
407.77	1125.80
407.96	1125.80
408.15	1128.14
408.34	1172.61
408.54	1064.94
408.73	1102.39
408.92	1086.01
409.11	1203.04
409.30	1109.41
409.49	1170.27
409.68	1247.51
409.87	1125.80
410.07	1306.02
410.26	1343.47
410.45	1261.55
410.64	1266.23
410.83	1270.91
411.02	1228.78
411.21	1348.15
411.40	1284.95
411.59	1263.89
411.78	1296.66
411.98	1310.70
412.17	1355.17
412.36	1385.60
412.55	1301.34
412.74	1235.80
412.93	1359.85
413.12	1308.36
413.31	1526.03
413.50	1404.32
413.69	1437.09
413.88	1451.13
414.07	1409.00
414.26	1521.35
414.45	1467.52
414.64	1469.86
414.83	1603.27
415.02	1544.75
415.22	1423.05
415.41	1598.59
415.60	1537.73
415.79	1577.52
415.98	1537.73
416.17	1600.93
416.36	1577.52
416.55	1621.99
416.74	1710.93
416.93	1617.31
417.12	1647.74
417.31	1764.76
417.50	1729.66
417.69	1753.06
417.88	1804.55
418.07	1830.30
418.26	1811.57
418.45	1879.45
418.64	1792.85
418.83	1771.79
419.02	1809.23
419.21	1849.02
419.39	2019.88
419.58	1790.51
419.77	1858.39
419.96	1973.07
420.15	1987.11
420.34	1877.11
420.53	1923.92
420.72	1963.71
420.91	1909.88
421.10	1991.80
421.29	2019.88
421.48	2029.24
421.67	1877.11
421.86	1952.01
422.05	2024.56
422.24	2019.88
422.43	2036.27
422.61	2069.03
422.80	1977.75
422.99	2054.99
423.18	2066.69
423.37	2160.31
423.56	1982.43
423.75	2052.65
423.94	2073.71
424.13	1902.86
424.32	1853.70
424.50	2094.78
424.69	2162.66
424.88	2052.65
425.07	2083.08
425.26	2062.01
425.45	2033.93
425.64	2083.08
425.83	2057.33
426.01	2106.48
426.20	2003.50
426.39	2033.93
426.58	2087.76
426.77	2115.84
426.96	2148.61
427.15	2015.20
427.33	2230.53
427.52	2097.12
427.71	2284.36
427.90	2195.42
428.09	2291.38
428.28	2256.28
428.46	2186.06
428.65	2237.55
428.84	2275.00
429.03	2275.00
429.22	2204.78
429.40	2321.81
429.59	2300.75
429.78	2221.17
429.97	2141.59
430.16	2232.87
430.34	2375.64
430.53	2417.77
430.72	2359.26
430.91	2473.95
431.10	2312.45
431.28	2394.37
431.47	2427.14
431.66	2443.52
431.85	2359.26
432.03	2443.52
432.22	2410.75
432.41	2452.88
432.60	2597.99
432.79	2553.52
432.97	2548.84
433.16	2539.48
433.35	2466.92
433.54	2452.88
433.72	2684.59
433.91	2644.81
434.10	2619.06
434.28	2443.52
434.47	2525.44
434.66	2626.08
434.85	2562.89
435.03	2703.32
435.22	2682.25
435.41	2782.90
435.59	2647.15
435.78	2731.41
435.97	2745.45
436.16	2679.91
436.34	2712.68
436.53	2705.66
436.72	2745.45
436.90	2829.71
437.09	2801.62
437.28	2789.92
437.46	2700.98
437.65	2771.19
437.84	2771.19
438.02	2850.77
438.21	2813.32
438.40	2960.78
438.58	3021.63
438.77	3045.04
438.96	2902.26
439.14	3023.97
439.33	2953.76
439.52	3068.44
439.70	3066.10
439.89	3129.30
440.08	3133.98
440.26	3206.53
440.45	3040.36
440.63	3061.42
440.82	3162.06
441.01	3234.62
441.19	3183.13
441.38	3375.05
441.57	3335.26
441.75	3295.47
441.94	3393.78
442.12	3391.44
442.31	3407.82
442.50	3304.84
442.68	3503.78
442.87	3510.80
443.05	3508.46
443.24	3571.66
443.43	3426.54
443.61	3552.93
443.80	3576.34
443.98	3323.56
444.17	3183.13
444.35	3435.91
444.54	3559.95
444.73	3492.08
444.91	3496.76
445.10	3438.25
445.28	3559.95
445.47	3550.59
445.65	3501.44
445.84	3501.44
446.02	3524.85
446.21	3468.67
446.39	3475.70
446.58	3604.42
446.77	3545.91
446.95	3403.14
447.14	3550.59
447.32	3503.78
447.51	3520.17
447.69	3531.87
447.88	3644.21
448.06	3637.19
448.25	3625.49
448.43	3623.15
448.62	3637.19
448.80	3552.93
448.99	3665.28
449.17	3674.64
449.36	3606.77
449.54	3744.86
449.73	3833.80
449.91	3700.39
450.10	3719.11
450.28	3812.73
450.46	3815.07
450.65	3798.69
450.83	3894.65
451.02	3777.62
451.20	3740.18
451.39	3847.84
451.57	3864.22
451.76	3896.99
451.94	3882.95
452.13	3950.82
452.31	3901.67
452.49	3932.10
452.68	3981.25
452.86	3997.64
453.05	3997.64
453.23	3997.64
453.42	3960.19
453.60	3932.10
453.78	4039.76
453.97	3922.74
454.15	4107.64
454.34	3915.72
454.52	4203.60
454.70	4074.87
454.89	4124.02
455.07	4072.53
455.26	4105.30
455.44	4231.69
455.62	4210.62
455.81	4194.24
455.99	4297.22
456.17	4205.94
456.36	4236.37
456.54	4301.90
456.73	4386.16
456.91	4327.65
457.09	4339.35
457.28	4489.15
457.46	4353.40
457.64	4608.51
457.83	4430.63
458.01	4147.43
458.19	4489.15
458.38	4432.97
458.56	4748.95
458.74	4545.32
458.93	4432.97
459.11	4545.32
459.29	4585.11
459.48	4606.17
459.66	4582.77
459.84	4573.41
460.03	4802.78
460.21	4547.66
460.39	4493.83
460.57	4638.94
460.76	4643.62
460.94	4774.69
461.12	4870.65
461.31	4702.14
461.49	4737.24
461.67	4770.01
461.85	4957.25
462.04	4770.01
462.22	5074.28
462.40	4919.81
462.59	4847.25
462.77	5032.15
462.95	4926.83
463.13	4861.29
463.32	5100.03
463.50	4917.47
463.68	5004.07
463.86	4861.29
464.05	4980.66
464.23	5048.54
464.41	5144.50
464.59	4891.72
464.78	5093.01
464.96	5022.79
465.14	5036.83
465.32	5006.41
465.50	5170.24
465.69	5111.73
465.87	5088.32
466.05	5095.35
466.23	5095.35
466.41	5235.78
466.60	5392.59
466.78	5263.86
466.96	5118.75
467.14	5219.39
467.32	5224.08
467.51	5509.62
467.69	5188.97
467.87	5294.29
468.05	5172.58
468.23	5390.25
468.41	5195.99
468.60	5378.55
468.78	5366.85
468.96	5317.70
469.14	5336.42
469.32	5521.32
469.50	5390.25
469.69	5518.98
469.87	5598.56
470.05	5610.26
470.23	5628.99
470.41	5549.41
470.59	5767.08
470.77	5689.84
470.95	5603.24
471.14	5640.69
471.32	5708.57
471.50	5888.79
471.68	5731.97
471.86	5664.10
472.04	5795.17
472.22	5792.83
472.40	5893.47
472.58	5963.68
472.77	5849.00
472.95	5996.45
473.13	6094.76
473.31	5914.53
473.49	6061.99
473.67	5984.75
473.85	6073.69
474.03	6047.94
474.21	6169.65
474.39	6111.14
474.57	6209.44
474.75	6328.81
474.93	6363.92
475.12	6197.74
475.30	6427.11
475.48	6277.32
475.66	6452.86
475.84	6396.68
476.02	6328.81
476.20	6401.37
476.38	6689.25
476.56	6668.19
476.74	6579.25
476.92	6764.15
477.10	6796.92
477.28	6754.79
477.46	6813.30
477.64	6733.72
477.82	7059.06
478.00	7040.33
478.18	7183.10
478.36	7140.97
478.54	7115.23
478.72	7232.26
478.90	7255.66
479.08	7478.01
479.26	7620.78
479.44	7433.54
479.62	7424.18
479.80	7478.01
479.98	7550.57
480.16	7604.40
480.34	7728.45
480.52	7913.35
480.70	7936.76
480.88	7749.51
481.06	7861.86
481.24	8056.12
481.41	8042.08
481.59	8212.94
481.77	8456.36
481.95	8360.39
482.13	8346.35
482.31	8154.43
482.49	8418.91
482.67	8311.24
482.85	8456.36
483.03	8631.90
483.21	8751.26
483.39	8912.76
483.57	8879.99
483.74	8917.44
483.92	8936.17
484.10	8924.46
484.28	9172.56
484.46	9146.81
484.64	9224.05
484.82	9352.78
485.00	9277.88
485.18	9497.89
485.35	9745.99
485.53	9713.22
485.71	9640.67
485.89	9989.41
486.07	9973.02
486.25	9635.99
486.43	9884.08
486.61	10052.60
486.78	10097.07
486.96	10129.84
487.14	10401.34
487.32	10258.57
487.50	10497.30
487.68	10604.97
487.85	10761.78
488.03	10696.25
488.21	10778.17
488.39	10909.24
488.57	10986.47
488.75	10839.02
488.92	10944.34
489.10	11000.52
489.28	10998.18
489.46	11393.73
489.64	11398.41
489.81	11625.44
489.99	11559.91
490.17	11580.97
490.35	11974.18
490.53	11854.81
490.70	11946.09
490.88	11749.49
491.06	12039.72
491.24	11943.75
491.41	12304.20
491.59	12264.41
491.77	12173.13
491.95	12294.83
492.13	12643.57
492.30	12601.44
492.48	12671.66
492.66	12587.40
492.84	12793.37
493.01	12725.49
493.19	12877.63
493.37	13013.38
493.54	12957.21
493.72	13170.19
493.90	13289.56
494.08	13315.31
494.25	13497.87
494.43	13570.43
494.61	13359.78
494.79	13701.50
494.96	13722.56
495.14	13865.33
495.32	13788.10
495.49	14097.05
495.67	13823.20
495.85	14043.21
496.02	14246.84
496.20	14345.14
496.38	14293.65
496.55	14113.43
496.73	14567.49
496.91	14574.52
497.09	14600.26
497.26	14707.93
497.44	14623.67
497.62	14691.54
497.79	14934.96
497.97	15073.05
498.14	15178.37
498.32	15157.31
498.50	15124.54
498.67	15503.71
498.85	15283.70
499.03	15215.82
499.20	15314.13
499.38	15655.84
499.56	15529.45
499.73	15751.81
499.91	15740.10
500.08	16093.52
500.26	15613.71
500.44	15789.25
500.61	15833.72
500.79	15587.97
500.97	16191.83
501.14	16407.16
501.32	16301.83
501.49	16285.45
501.67	16259.70
501.84	16512.48
502.02	16292.47
502.20	16245.66
502.37	16610.78
502.55	16407.16
502.72	16664.61
502.90	16547.59
503.07	16741.85
503.25	16727.81
503.43	16812.07
503.60	16950.16
503.78	17039.10
503.95	16994.63
504.13	17106.98
504.30	17085.91
504.48	17048.46
504.65	16924.41
504.83	17287.20
505.01	17341.03
505.18	17355.07
505.36	17647.64
505.53	17289.54
505.71	17497.84
505.88	17436.99
506.06	17429.97
506.23	17795.09
506.41	17891.06
506.58	17727.22
506.76	17748.28
506.93	17666.36
507.11	17827.86
507.28	18118.09
507.46	17996.38
507.63	18190.64
507.81	18356.82
507.98	18242.14
508.16	18031.49
508.33	18345.12
508.50	18242.14
508.68	18452.78
508.85	18888.12
509.03	18614.28
509.20	18483.21
509.38	18750.03
509.55	18696.20
509.73	18555.77
509.90	18616.62
510.08	18618.96
510.25	19136.22
510.42	18817.91
510.60	19164.31
510.77	19264.95
510.95	19232.18
511.12	19105.79
511.30	19154.94
511.47	19246.23
511.64	19449.85
511.82	19557.52
511.99	19297.72
512.17	19777.53
512.34	19829.02
512.51	19630.07
512.69	19822.00
512.86	19981.15
513.04	20133.29
513.21	19955.41
513.38	20201.16
513.56	19995.20
513.73	19791.57
513.90	19978.81
514.08	20133.29
514.25	20327.55
514.43	20552.24
514.60	20453.94
514.77	20243.29
514.95	20386.07
515.12	20184.78
515.29	20308.83
515.47	20570.97
515.64	20685.65
515.81	20540.54
515.99	20950.14
516.16	20755.87
516.33	20996.95
516.51	20926.73
516.68	20561.61
516.85	20493.73
517.03	21238.02
517.20	20814.38
517.37	21116.31
517.54	21219.30
517.72	21193.55
517.89	21329.30
518.06	21139.72
518.24	21205.25
518.41	21289.51
518.58	21448.67
518.75	21432.29
518.93	21724.85
519.10	21397.18
519.27	21851.24
519.45	21439.31
519.62	21605.49
519.79	21722.51
519.96	21553.99
520.14	22033.80
520.31	21816.13
520.48	21774.00
520.65	21844.22
520.83	22202.32
521.00	21954.22
521.17	21729.53
521.34	21867.63
521.52	22022.10
521.69	22160.19
521.86	22293.60
522.03	22649.36
522.20	22445.74
522.38	22396.59
522.55	22431.69
522.72	22169.55
522.89	22569.79
523.07	22768.73
523.24	22424.67
523.41	22733.62
523.58	22462.12
523.75	22628.30
523.92	22478.50
524.10	22862.35
524.27	22913.84
524.44	23222.80
524.61	22862.35
524.78	23138.54
524.96	23222.80
525.13	23091.73
525.30	23035.55
525.47	23101.09
525.64	23070.66
525.81	23168.96
525.98	23456.85
526.16	23510.68
526.33	23370.25
526.50	23655.79
526.67	23353.87
526.84	23328.12
527.01	23644.09
527.18	23653.45
527.36	23786.86
527.53	23845.38
527.70	23955.38
527.87	24063.05
528.04	24034.96
528.21	24053.69
528.38	23431.10
528.55	24086.45
528.72	24081.77
528.89	24063.05
529.07	24121.56
529.24	24049.00
529.41	24381.36
529.58	24212.84
529.75	24020.92
529.92	24299.44
530.09	24245.61
530.26	24112.20
530.43	24313.48
530.60	24140.29
530.77	24175.39
530.94	24524.13
531.11	24135.60
531.28	24704.35
531.46	25017.99
531.63	24360.30
531.80	24648.18
531.97	24584.99
532.14	24929.05
532.31	24554.56
532.48	24898.62
532.65	25053.09
532.82	24704.35
532.99	24947.77
533.16	24954.79
533.33	24994.58
533.50	25413.54
533.67	24877.55
533.84	24851.81
534.01	25057.78
534.18	25127.99
534.35	25546.95
534.52	25296.51
534.69	25195.87
534.86	25474.39
535.03	25214.59
535.20	25476.73
535.37	25242.68
535.54	25661.63
535.71	25626.53
535.88	25771.64
536.05	25425.24
536.22	25708.44
536.38	25977.61
536.55	25626.53
536.72	25926.11
536.89	25703.76
537.06	25699.08
537.23	26010.37
537.40	25656.95
537.57	25652.27
537.74	25638.23
537.91	26288.90
538.08	26197.62
538.25	26101.65
538.42	26225.70
538.59	25968.24
538.75	25736.53
538.92	25855.90
539.09	26022.08
539.26	25921.43
539.43	26061.87
539.60	25968.24
539.77	26295.92
539.94	26345.07
540.11	25986.97
540.28	26171.87
540.44	26403.58
540.61	26583.80
540.78	26127.40
540.95	26560.40
541.12	26527.63
541.29	26342.73
541.46	26291.24
541.62	26670.40
541.79	26572.10
541.96	26338.05
542.13	26445.71
542.30	26700.83
542.47	26628.27
542.63	26794.45
542.80	26941.91
542.97	27180.64
543.14	27000.42
543.31	27089.36
543.48	27070.64
543.64	27344.48
543.81	27241.50
543.98	27758.75
544.15	27283.62
544.32	27211.07
544.48	27496.61
544.65	27398.31
544.82	27248.52
544.99	26960.63
545.16	27147.87
545.32	27117.45
545.49	27845.35
545.66	27487.25
545.83	27477.89
546.00	27618.32
546.16	27393.63
546.33	27241.50
546.50	27391.29
546.67	27672.15
546.83	27484.91
547.00	27704.92
547.17	27505.98
547.34	27718.96
547.50	27679.18
547.67	27908.55
547.84	27990.47
548.00	27569.17
548.17	27943.66
548.34	28112.17
548.51	27978.76
548.67	28245.58
548.84	28343.89
549.01	27934.29
549.18	28034.94
549.34	28240.90
549.51	28730.08
549.68	28163.67
549.84	27962.38
550.01	28191.75
550.18	28027.92
550.34	28643.48
550.51	28147.28
550.68	28208.14
550.84	28168.35
551.01	28348.57
551.18	28554.54
551.34	27992.81
551.51	28334.53
551.68	28231.54
551.84	28528.79
552.01	28374.31
552.18	28491.34
552.34	28297.08
552.51	28945.41
552.68	28556.88
552.84	28716.03
553.01	28666.88
553.18	28900.94
553.34	28830.72
553.51	28737.10
553.67	28673.90
553.84	28528.79
554.01	28889.23
554.17	28737.10
554.34	28966.47
554.51	28388.36
554.67	29266.06
554.84	28868.17
555.00	28985.19
555.17	28800.29
555.33	29060.09
555.50	28573.26
555.67	28858.81
555.83	29163.08
556.00	29039.03
556.16	29221.59
556.33	28900.94
556.50	29277.76
556.66	29553.94
556.83	29209.89
556.99	29057.75
557.16	29408.83
557.32	29771.61
557.49	29621.82
557.65	29511.81
557.82	29289.46
557.98	29315.21
558.15	29479.05
558.32	29244.99
558.48	29460.32
558.65	29497.77
558.81	29359.68
558.98	29228.61
559.14	29907.37
559.31	29694.38
559.47	29640.54
559.64	29474.37
559.80	29294.14
559.97	29659.27
560.13	29359.68
560.30	29537.56
560.46	29694.38
560.63	29549.26
560.79	29886.30
560.96	29600.76
561.12	29729.48
561.29	29347.98
561.45	29308.19
561.61	29893.32
561.78	29837.15
561.94	29612.46
562.11	30197.59
562.27	29699.06
562.44	29809.06
562.60	29577.35
562.77	30094.61
562.93	29488.41
563.10	30129.72
563.26	29928.43
563.42	29991.62
563.59	29647.57
563.75	30024.39
563.92	30118.01
564.08	29879.28
564.24	29926.09
564.41	29839.49
564.57	30005.67
564.74	29795.02
564.90	30258.45
565.07	30396.54
565.23	30068.86
565.39	30340.36
565.56	30047.80
565.72	29867.58
565.88	30246.74
566.05	30089.93
566.21	29809.06
566.38	30221.00
566.54	30113.33
566.70	30293.55
566.87	30354.41
567.03	30576.76
567.19	30527.61
567.36	30092.27
567.52	30345.05
567.68	30136.74
567.85	30272.49
568.01	30043.12
568.17	30082.91
568.34	30375.47
568.50	30202.27
568.66	30450.37
568.83	30579.10
568.99	30534.63
569.15	30122.69
569.32	30092.27
569.48	30167.16
569.64	30548.67
569.81	30293.55
569.97	30216.32
570.13	30146.10
570.30	30436.33
570.46	30211.64
570.62	30588.46
570.78	30539.31
570.95	30366.11
571.11	30579.10
571.27	30012.69
571.43	30345.05
571.60	30422.28
571.76	30480.80
571.92	30244.40
572.09	30494.84
572.25	30555.69
572.41	30717.19
572.57	30644.63
572.74	30651.66
572.90	30352.07
573.06	30162.48
573.22	30532.29
573.38	30401.22
573.55	30515.90
573.71	30955.93
573.87	30881.03
574.03	30169.51
574.20	30958.27
574.36	30415.26
574.52	30548.67
574.68	30464.41
574.84	30623.57
575.01	30738.26
575.17	30939.54
575.33	30525.27
575.49	30426.96
575.65	30679.74
575.82	31290.62
575.98	30768.68
576.14	31239.13
576.30	30349.73
576.46	30555.69
576.62	30422.28
576.79	30649.32
576.95	30822.51
577.11	30946.56
577.27	30696.13
577.43	30656.34
577.59	30611.87
577.75	30698.47
577.92	30532.29
578.08	30548.67
578.24	30862.30
578.40	30953.58
578.56	30941.88
578.72	30862.30
578.88	30773.36
579.04	31119.76
579.21	30883.37
579.37	30930.18
579.53	30813.15
579.69	30731.23
579.85	30937.20
580.01	30684.42
580.17	30515.90
580.33	30312.28
580.49	30558.03
580.65	30841.24
580.82	31096.36
580.98	30991.03
581.14	30960.61
581.30	30607.19
581.46	30572.08
581.62	30646.97
581.78	30902.09
581.94	30651.66
582.10	30675.06
582.26	30728.89
582.42	30869.33
582.58	30845.92
582.74	30852.94
582.90	31124.44
583.06	30988.69
583.22	31002.74
583.38	30946.56
583.54	30948.90
583.70	30883.37
583.86	30625.91
584.02	30483.14
584.18	31026.14
584.34	31241.47
584.50	31206.36
584.66	30780.39
584.82	30806.13
584.98	30913.80
585.14	30796.77
585.30	30574.42
585.46	30773.36
585.62	31061.25
585.78	30618.89
585.94	30794.43
586.10	30979.33
586.26	30998.06
586.42	31178.28
586.58	31108.06
586.74	31264.88
586.90	30852.94
587.06	30756.98
587.22	30967.63
587.38	30714.85
587.54	30976.99
587.70	31267.22
587.86	30946.56
588.02	31175.94
588.18	31049.55
588.34	31178.28
588.49	30897.41
588.65	30834.22
588.81	30735.92
588.97	31173.60
589.13	30756.98
589.29	31166.57
589.45	30866.98
589.61	31094.02
589.77	31431.05
589.93	31316.37
590.08	31295.30
590.24	31044.87
590.40	31370.20
590.56	31239.13
590.72	31096.36
590.88	30848.26
591.04	31136.15
591.20	31447.44
591.35	31295.30
591.51	31817.24
591.67	31564.46
591.83	31566.81
