SpectraSuite Data File
++++++++++++++++++++++++++++++++++++
Date: Fri Oct 18 13:58:06 GMT-05:00 2013
User: bianchi
Dark Spectrum Present: No
Reference Spectrum Present: No
Number of Sampled Component Spectra: 1
Spectrometers: USB2+H05261
Integration Time (usec): 50000 (USB2+H05261)
Spectra Averaged: 1 (USB2+H05261)
Boxcar Smoothing: 0 (USB2+H05261)
Correct for Electrical Dark: No (USB2+H05261)
Strobe/Lamp Enabled: No (USB2+H05261)
Correct for Detector Non-linearity: No (USB2+H05261)
Correct for Stray Light: No (USB2+H05261)
Number of Pixels in Processed Spectrum: 2048
>>>>>Begin Processed Spectral Data<<<<<
365.73	0.00
365.92	0.00
366.12	0.00
366.32	0.00
366.52	0.00
366.72	0.00
366.91	0.00
367.11	0.00
367.31	0.00
367.51	0.00
367.70	0.00
367.90	0.00
368.10	0.00
368.30	0.00
368.49	0.00
368.69	0.00
368.89	0.00
369.09	0.00
369.28	0.00
369.48	0.00
369.68	0.00
369.87	0.00
370.07	0.00
370.27	0.00
370.47	0.00
370.66	32.77
370.86	152.13
371.06	149.79
371.25	161.50
371.45	81.92
371.65	170.86
371.84	98.30
372.04	159.16
372.24	170.86
372.44	163.84
372.63	140.43
372.83	229.37
373.03	248.10
373.22	184.90
373.42	166.18
373.62	264.48
373.81	248.10
374.01	271.50
374.21	252.78
374.40	222.35
374.60	266.82
374.79	257.46
374.99	220.01
375.19	318.31
375.38	248.10
375.58	271.50
375.78	205.97
375.97	269.16
376.17	231.71
376.37	250.44
376.56	322.99
376.76	276.18
376.95	259.80
377.15	278.52
377.35	308.95
377.54	290.23
377.74	229.37
377.93	255.12
378.13	341.72
378.33	334.70
378.52	236.39
378.72	245.76
378.91	348.74
379.11	224.69
379.31	271.50
379.50	330.02
379.70	294.91
379.89	238.73
380.09	243.42
380.28	348.74
380.48	243.42
380.68	285.55
380.87	250.44
381.07	367.46
381.26	365.12
381.46	252.78
381.65	330.02
381.85	346.40
382.04	395.55
382.24	372.15
382.43	353.42
382.63	379.17
382.83	393.21
383.02	512.58
383.22	374.49
383.41	353.42
383.61	386.19
383.80	409.59
384.00	313.63
384.19	433.00
384.39	454.06
384.58	411.93
384.78	386.19
384.97	362.78
385.17	381.51
385.36	407.25
385.56	388.53
385.75	362.78
385.95	409.59
386.14	449.38
386.34	381.51
386.53	456.40
386.72	486.83
386.92	510.24
387.11	381.51
387.31	404.91
387.50	395.55
387.70	346.40
387.89	425.98
388.09	456.40
388.28	493.85
388.48	510.24
388.67	472.79
388.86	402.57
389.06	475.13
389.25	440.02
389.45	404.91
389.64	517.26
389.84	475.13
390.03	543.00
390.22	425.98
390.42	437.68
390.61	421.30
390.81	486.83
391.00	475.13
391.19	442.36
391.39	545.34
391.58	545.34
391.78	451.72
391.97	531.30
392.16	599.18
392.36	550.03
392.55	557.05
392.75	582.79
392.94	475.13
393.13	550.03
393.33	507.90
393.52	517.26
393.71	624.92
393.91	589.82
394.10	643.65
394.29	564.07
394.49	589.82
394.68	596.84
394.88	624.92
395.07	596.84
395.26	641.31
395.46	631.94
395.65	697.48
395.84	615.56
396.04	655.35
396.23	704.50
396.42	683.44
396.62	638.97
396.81	690.46
397.00	704.50
397.19	718.54
397.39	683.44
397.58	662.37
397.77	695.14
397.97	631.94
398.16	767.70
398.35	699.82
398.55	641.31
398.74	814.51
398.93	746.63
399.12	734.93
399.32	849.61
399.51	711.52
399.70	685.78
399.90	772.38
400.09	751.31
400.28	741.95
400.47	676.41
400.67	763.01
400.86	748.97
401.05	755.99
401.24	746.63
401.44	807.48
401.63	786.42
401.82	854.30
402.01	777.06
402.21	791.10
402.40	847.27
402.59	786.42
402.78	772.38
402.97	926.85
403.17	929.19
403.36	908.13
403.55	943.24
403.74	952.60
403.93	938.55
404.13	933.87
404.32	889.40
404.51	936.21
404.70	943.24
404.89	903.45
405.09	966.64
405.28	997.07
405.47	997.07
405.66	945.58
405.85	1057.92
406.05	1022.81
406.24	966.64
406.43	980.68
406.62	1095.37
406.81	1174.95
407.00	1064.94
407.20	1132.82
407.39	1109.41
407.58	1032.18
407.77	1095.37
407.96	1071.97
408.15	1090.69
408.34	1149.20
408.54	1043.88
408.73	1174.95
408.92	1125.80
409.11	1167.93
409.30	1071.97
409.49	1121.12
409.68	1097.71
409.87	1144.52
410.07	1116.44
410.26	1191.33
410.45	1188.99
410.64	1210.06
410.83	1123.46
411.02	1212.40
411.21	1308.36
411.40	1301.34
411.59	1306.02
411.78	1301.34
411.98	1294.32
412.17	1345.81
412.36	1242.82
412.55	1371.55
412.74	1352.83
412.93	1268.57
413.12	1329.42
413.31	1390.28
413.50	1446.45
413.69	1416.02
413.88	1523.69
414.07	1507.30
414.26	1563.48
414.45	1369.21
414.64	1507.30
414.83	1544.75
415.02	1533.05
415.22	1570.50
415.41	1514.33
415.60	1657.10
415.79	1617.31
415.98	1645.40
416.17	1647.74
416.36	1734.34
416.55	1643.06
416.74	1687.53
416.93	1692.21
417.12	1720.29
417.31	1767.10
417.50	1652.42
417.69	1783.49
417.88	1689.87
418.07	1685.19
418.26	1795.19
418.45	1811.57
418.64	1781.15
418.83	1851.36
419.02	1778.81
419.21	1823.28
419.39	1827.96
419.58	1755.40
419.77	1834.98
419.96	1851.36
420.15	1898.17
420.34	1877.11
420.53	1884.13
420.72	1961.37
420.91	2043.29
421.10	1982.43
421.29	2045.63
421.48	1952.01
421.67	2012.86
421.86	1959.03
422.05	1975.41
422.24	2033.93
422.43	1909.88
422.61	1949.67
422.80	2111.16
422.99	2127.55
423.18	2019.88
423.37	2087.76
423.56	2101.80
423.75	2047.97
423.94	2047.97
424.13	1881.79
424.32	2022.22
424.50	2033.93
424.69	2104.14
424.88	1921.58
425.07	1987.11
425.26	2134.57
425.45	1989.46
425.64	2106.48
425.83	2078.40
426.01	2122.87
426.20	1996.48
426.39	2085.42
426.58	2078.40
426.77	2150.95
426.96	2239.89
427.15	2141.59
427.33	2204.78
427.52	2165.00
427.71	2174.36
427.90	2277.34
428.09	2202.44
428.28	2172.02
428.46	2242.23
428.65	2188.40
428.84	2373.30
429.03	2275.00
429.22	2270.32
429.40	2190.74
429.59	2408.41
429.78	2270.32
429.97	2092.44
430.16	2228.19
430.34	2331.17
430.53	2429.48
430.72	2487.99
430.91	2373.30
431.10	2471.61
431.28	2382.67
431.47	2370.96
431.66	2555.86
431.85	2417.77
432.03	2415.43
432.22	2539.48
432.41	2462.24
432.60	2544.16
432.79	2434.16
432.97	2574.59
433.16	2459.90
433.35	2457.56
433.54	2445.86
433.72	2630.76
433.91	2516.08
434.10	2516.08
434.28	2527.78
434.47	2593.31
434.66	2635.44
434.85	2656.51
435.03	2534.80
435.22	2548.84
435.41	2686.94
435.59	2794.60
435.78	2567.57
435.97	2612.04
436.16	2822.69
436.34	2733.75
436.53	2869.50
436.72	2782.90
436.90	2708.00
437.09	2876.52
437.28	2647.15
437.46	2822.69
437.65	2696.30
437.84	2747.79
438.02	2874.18
438.21	2808.64
438.40	2881.20
438.58	3002.91
438.77	2974.82
438.96	2892.90
439.14	3033.33
439.33	2949.08
439.52	2958.44
439.70	3136.32
439.89	2937.37
440.08	3157.38
440.26	3030.99
440.45	3133.98
440.63	3040.36
440.82	3215.90
441.01	3075.46
441.19	3283.77
441.38	3180.79
441.57	3318.88
441.75	3281.43
441.94	3337.60
442.12	3180.79
442.31	3283.77
442.50	3391.44
442.68	3272.07
442.87	3379.73
443.05	3391.44
443.24	3403.14
443.43	3468.67
443.61	3386.76
443.80	3403.14
443.98	3363.35
444.17	3204.19
444.35	3559.95
444.54	3503.78
444.73	3487.40
444.91	3543.57
445.10	3501.44
445.28	3576.34
445.47	3466.33
445.65	3449.95
445.84	3468.67
446.02	3463.99
446.21	3543.57
446.39	3545.91
446.58	3534.21
446.77	3510.80
446.95	3426.54
447.14	3531.87
447.32	3578.68
447.51	3576.34
447.69	3749.54
447.88	3552.93
448.06	3658.26
448.25	3604.42
448.43	3588.04
448.62	3548.25
448.80	3466.33
448.99	3648.90
449.17	3620.81
449.36	3536.55
449.54	3691.02
449.73	3665.28
449.91	3845.50
450.10	3826.78
450.28	3843.16
450.46	3868.91
450.65	3824.44
450.83	3892.31
451.02	3843.16
451.20	3894.65
451.39	3728.47
451.57	3833.80
451.76	3943.80
451.94	3861.88
452.13	3967.21
452.31	4042.11
452.49	3854.86
452.68	3941.46
452.86	3908.69
453.05	3861.88
453.23	4053.81
453.42	3955.51
453.60	3962.53
453.78	4035.08
453.97	3985.93
454.15	3983.59
454.34	4004.66
454.52	4133.39
454.70	4077.21
454.89	4126.36
455.07	4234.03
455.26	4074.87
455.44	4147.43
455.62	4208.28
455.81	4208.28
455.99	4297.22
456.17	4215.30
456.36	4290.20
456.54	4367.44
456.73	4236.37
456.91	4423.61
457.09	4381.48
457.28	4341.69
457.46	4402.55
457.64	4400.21
457.83	4404.89
458.01	4299.56
458.19	4491.49
458.38	4472.76
458.56	4671.71
458.74	4510.21
458.93	4636.60
459.11	4475.10
459.29	4566.39
459.48	4596.81
459.66	4535.96
459.84	4575.75
460.03	4681.07
460.21	4500.85
460.39	4613.20
460.57	4631.92
460.76	4751.29
460.94	4798.10
461.12	4599.15
461.31	4683.41
461.49	4667.03
461.67	4688.09
461.85	4833.21
462.04	4802.78
462.22	5048.54
462.40	5018.11
462.59	5015.77
462.77	4748.95
462.95	4964.28
463.13	4884.70
463.32	4938.53
463.50	5069.60
463.68	5032.15
463.86	5163.22
464.05	4760.65
464.23	4973.64
464.41	5093.01
464.59	4858.95
464.78	4980.66
464.96	4978.32
465.14	5085.98
465.32	5039.17
465.50	5085.98
465.69	5121.09
465.87	5081.30
466.05	5104.71
466.23	4994.70
466.41	5214.71
466.60	5207.69
466.78	5128.11
466.96	5118.75
467.14	5114.07
467.32	5198.33
467.51	5235.78
467.69	5064.92
467.87	5128.11
468.05	5245.14
468.23	5203.01
468.41	5399.62
468.60	5334.08
468.78	5411.32
468.96	5193.65
469.14	5432.38
469.32	5547.07
469.50	5411.32
469.69	5451.11
469.87	5408.98
470.05	5465.15
470.23	5621.97
470.41	5472.17
470.59	5645.37
470.77	5497.92
470.95	5774.10
471.14	5678.14
471.32	5444.09
471.50	5736.65
471.68	5589.20
471.86	5659.42
472.04	5753.04
472.22	5760.06
472.40	5874.74
472.58	5886.45
472.77	5898.15
472.95	5951.98
473.13	5994.11
473.31	6017.52
473.49	5942.62
473.67	6029.22
473.85	6059.65
474.03	6097.10
474.21	6179.01
474.39	6157.95
474.57	6279.66
474.75	6314.77
474.93	6132.20
475.12	6164.97
475.30	6293.70
475.48	6270.30
475.66	6375.62
475.84	6347.53
476.02	6537.12
476.20	6356.90
476.38	6647.12
476.56	6766.49
476.74	6628.40
476.92	6654.14
477.10	6726.70
477.28	6876.49
477.46	6789.89
477.64	6909.26
477.82	6972.46
478.00	7056.72
478.18	7084.80
478.36	7070.76
478.54	7218.21
478.72	7162.04
478.90	7405.46
479.08	7375.03
479.26	7461.63
479.44	7456.95
479.62	7482.69
479.80	7506.10
479.98	7538.87
480.16	7618.44
480.34	7485.03
480.52	7644.19
480.70	7805.69
480.88	7873.56
481.06	8032.72
481.24	7873.56
481.41	8002.29
481.59	8140.38
481.77	8095.91
481.95	8124.00
482.13	8285.50
482.31	8280.82
482.49	8437.63
482.67	8390.82
482.85	8629.56
483.03	8566.36
483.21	8688.07
483.39	8648.28
483.57	8786.37
483.74	8950.21
483.92	9025.11
484.10	8947.87
484.28	9022.77
484.46	9308.31
484.64	9488.53
484.82	9139.79
485.00	9128.09
485.18	9500.23
485.35	9657.05
485.53	9425.34
485.71	9610.24
485.89	9729.61
486.07	9720.24
486.25	9745.99
486.43	9973.02
486.61	9914.51
486.78	10012.81
486.96	10064.30
487.14	10286.65
487.32	10242.18
487.50	10420.06
487.68	10459.85
487.85	10815.62
488.03	10644.76
488.21	10911.58
488.39	10703.27
488.57	11012.22
488.75	11112.86
488.92	10991.16
489.10	11197.12
489.28	11194.78
489.46	11510.75
489.64	11248.61
489.81	11580.97
489.99	11536.50
490.17	11630.12
490.35	11733.11
490.53	11655.87
490.70	11850.13
490.88	11873.54
491.06	12002.27
491.24	11974.18
491.41	11978.86
491.59	12362.71
491.77	12470.37
491.95	12493.78
492.13	12547.61
492.30	12535.91
492.48	12496.12
492.66	12582.72
492.84	12798.05
493.01	12964.23
493.19	12837.84
493.37	12985.29
493.54	12975.93
493.72	13125.72
493.90	13118.70
494.08	13345.73
494.25	13458.08
494.43	13310.63
494.61	13500.21
494.79	13387.86
494.96	13675.75
495.14	13877.04
495.32	13937.89
495.49	13783.41
495.67	14073.64
495.85	14188.33
496.02	14288.97
496.20	14356.85
496.38	14270.25
496.55	14335.78
496.73	14408.34
496.91	14445.79
497.09	14459.83
497.26	14523.02
497.44	14661.12
497.62	14721.97
497.79	15117.52
497.97	14754.74
498.14	15059.01
498.32	15033.26
498.50	15026.24
498.67	15335.19
498.85	15159.65
499.03	15206.46
499.20	15363.28
499.38	15314.13
499.56	15421.79
499.73	15719.04
499.91	15857.13
500.08	15957.77
500.26	15803.30
500.44	15927.35
500.61	15936.71
500.79	15920.32
500.97	16142.67
501.14	16460.99
501.32	16465.67
501.49	16449.28
501.67	16100.55
501.84	16285.45
502.02	16400.13
502.20	16367.37
502.37	16788.66
502.55	16615.46
502.72	16510.14
502.90	16449.28
503.07	16189.49
503.25	16816.75
503.43	16428.22
503.60	16760.58
503.78	16908.03
503.95	16643.55
504.13	17106.98
504.30	17013.35
504.48	17184.21
504.65	17481.46
504.83	17497.84
505.01	17741.26
505.18	17392.52
505.36	17525.93
505.53	17425.29
505.71	17565.72
505.88	17558.70
506.06	17633.60
506.23	17923.82
506.41	17781.05
506.58	17905.10
506.76	17809.14
506.93	17743.60
507.11	17661.68
507.28	17834.88
507.46	17998.72
507.63	18001.06
507.81	18148.51
507.98	18267.88
508.16	18071.28
508.33	18214.05
508.50	18415.34
508.68	18302.99
508.85	18546.40
509.03	18487.89
509.20	18604.92
509.38	18768.76
509.55	18867.06
509.73	18700.88
509.90	19009.83
510.08	18352.14
510.25	18817.91
510.42	19157.28
510.60	19220.48
510.77	18913.87
510.95	19246.23
511.12	19253.25
511.30	19047.28
511.47	19260.27
511.64	19293.04
511.82	19440.49
511.99	19381.98
512.17	19487.30
512.34	19461.55
512.51	19316.44
512.69	19882.85
512.86	19910.94
513.04	19873.49
513.21	19836.04
513.38	19955.41
513.56	19950.73
513.73	20091.16
513.90	20212.87
514.08	19618.37
514.25	20301.81
514.43	20215.21
514.60	20575.65
514.77	20245.63
514.95	20128.61
515.12	20273.72
515.29	20329.89
515.47	20631.82
515.64	20507.77
515.81	20404.79
515.99	20753.53
516.16	20671.61
516.33	20999.29
516.51	20688.00
516.68	21020.35
516.85	20748.85
517.03	21109.29
517.20	21151.42
517.37	21018.01
517.54	20711.40
517.72	21020.35
517.89	21343.35
518.06	21099.93
518.24	21273.13
518.41	20912.69
518.58	21149.08
518.75	21142.06
518.93	21556.33
519.10	21823.16
519.27	21596.12
519.45	21369.09
519.62	21572.72
519.79	21600.80
519.96	21607.83
520.14	21797.41
520.31	21591.44
520.48	21706.13
520.65	22047.85
520.83	22019.76
521.00	21947.20
521.17	22075.93
521.34	22059.55
521.52	21717.83
521.69	22373.18
521.86	22115.72
522.03	22375.52
522.20	22541.70
522.38	22375.52
522.55	22841.29
522.72	22150.83
522.89	22621.28
523.07	22726.60
523.24	22728.94
523.41	22890.44
523.58	22974.70
523.75	22602.55
523.92	22515.95
524.10	22850.65
524.27	22998.10
524.44	22998.10
524.61	23225.14
524.78	23054.28
524.96	23180.67
525.13	23082.36
525.30	23417.06
525.47	22937.25
525.64	23091.73
525.81	23337.48
525.98	23726.01
526.16	23325.78
526.33	23653.45
526.50	23545.79
526.67	23290.67
526.84	23772.82
527.01	23344.50
527.18	23414.72
527.36	23466.21
527.53	23454.51
527.70	23744.73
527.87	23826.65
528.04	23585.58
528.21	23754.10
528.38	23765.80
528.55	23852.40
528.72	24250.29
528.89	23772.82
529.07	23805.59
529.24	23882.83
529.41	24063.05
529.58	23964.75
529.75	24067.73
529.92	24175.39
530.09	24084.11
530.26	24423.49
530.43	24318.17
530.60	24446.90
530.77	24540.52
530.94	24627.12
531.11	24318.17
531.28	24491.37
531.46	24376.68
531.63	24624.78
531.80	24849.47
531.97	24732.44
532.14	24868.19
532.31	24779.25
532.48	24938.41
532.65	24638.82
532.82	24732.44
532.99	24776.91
533.16	24973.52
533.33	25099.90
533.50	25238.00
533.67	25139.69
533.84	24907.98
534.01	24734.78
534.18	24762.87
534.35	25816.11
534.52	25298.85
534.69	25481.41
534.86	25387.79
535.03	25249.70
535.20	25521.20
535.37	25516.52
535.54	25539.93
535.71	25481.41
535.88	25539.93
536.05	25565.67
536.22	25551.63
536.38	25275.45
536.55	25560.99
536.72	25507.16
536.89	25598.44
537.06	25504.82
537.23	25827.81
537.40	25685.04
537.57	25589.08
537.74	25923.77
537.91	25916.75
538.08	25937.82
538.25	26288.90
538.42	26075.91
538.59	25848.88
538.75	26162.51
538.92	25970.58
539.09	26185.91
539.26	25678.02
539.43	26258.47
539.60	26272.51
539.77	26099.31
539.94	26162.51
540.11	26239.75
540.28	26136.76
540.44	26043.14
540.61	25947.18
540.78	26005.69
540.95	26387.20
541.12	26546.36
541.29	26630.62
541.46	26780.41
541.62	26443.37
541.79	26295.92
541.96	26380.18
542.13	26361.45
542.30	26665.72
542.47	26930.20
542.63	26738.28
542.80	26724.24
542.97	27054.25
543.14	26986.38
543.31	26916.16
543.48	26672.74
543.64	27072.98
543.81	27152.55
543.98	27498.95
544.15	27108.08
544.32	27316.39
544.48	27323.41
544.65	27318.73
544.82	27023.83
544.99	26930.20
545.16	26969.99
545.32	27028.51
545.49	27250.86
545.66	27632.36
545.83	27623.00
546.00	27697.90
546.16	27454.48
546.33	27391.29
546.50	27342.14
546.67	27557.47
546.83	27676.83
547.00	27494.27
547.17	27536.40
547.34	27613.64
547.50	28048.98
547.67	28128.56
547.84	28023.23
548.00	27992.81
548.17	27796.20
548.34	28102.81
548.51	28126.22
548.67	28063.02
548.84	27964.72
549.01	28177.71
549.18	28215.16
549.34	28004.51
549.51	27899.19
549.68	28191.75
549.84	27934.29
550.01	28051.32
550.18	27920.25
550.34	28004.51
550.51	28151.96
550.68	28545.17
550.84	28135.58
551.01	28318.14
551.18	28430.49
551.34	28741.78
551.51	28318.14
551.68	28484.32
551.84	28369.63
552.01	28318.14
552.18	28599.01
552.34	28521.77
552.51	28570.92
552.68	28627.09
552.84	28680.92
553.01	28711.35
553.18	28968.81
553.34	28561.56
553.51	28723.05
553.67	28856.46
553.84	29146.69
554.01	28676.24
554.17	28601.35
554.34	28847.10
554.51	28474.96
554.67	28811.99
554.84	28748.80
555.00	29160.73
555.17	28952.43
555.33	28945.41
555.50	28975.83
555.67	28730.08
555.83	29106.90
556.00	28975.83
556.16	29287.12
556.33	28734.76
556.50	28769.86
556.66	29022.64
556.83	29216.91
556.99	29427.56
557.16	29741.19
557.32	29537.56
557.49	29226.27
557.65	29397.13
557.82	29106.90
557.98	29015.62
558.15	29336.27
558.32	28957.11
558.48	29535.22
558.65	29523.52
558.81	29795.02
558.98	29825.45
559.14	29560.97
559.31	29692.04
559.47	29289.46
559.64	29703.74
559.80	29502.45
559.97	29855.87
560.13	29551.60
560.30	29647.57
560.46	29855.87
560.63	29663.95
560.79	29790.34
560.96	29776.30
561.12	29446.28
561.29	29666.29
561.45	29790.34
561.61	30050.14
561.78	29895.66
561.94	29727.14
562.11	29638.20
562.27	29919.07
562.44	29968.22
562.60	30026.73
562.77	29521.18
562.93	29687.36
563.10	29596.07
563.26	29596.07
563.42	30263.13
563.59	29951.84
563.75	29837.15
563.92	29879.28
564.08	30073.54
564.24	29823.11
564.41	29455.64
564.57	30071.20
564.74	30012.69
564.90	30223.34
565.07	30064.18
565.23	29954.18
565.39	30008.01
565.56	30546.33
565.72	29972.90
565.88	30204.61
566.05	29935.45
566.21	29951.84
566.38	30061.84
566.54	30391.86
566.70	30497.18
566.87	30223.34
567.03	30106.31
567.19	30593.14
567.36	30462.07
567.52	30050.14
567.68	30443.35
567.85	30174.19
568.01	30518.25
568.17	30031.41
568.34	30319.30
568.50	30382.49
568.66	30604.84
568.83	30796.77
568.99	30235.04
569.15	30511.22
569.32	30309.94
569.48	30181.21
569.64	30064.18
569.81	30590.80
569.97	30560.37
570.13	30415.26
570.30	30195.25
570.46	30511.22
570.62	30520.59
570.78	30274.83
570.95	30075.88
571.11	30754.64
571.27	30309.94
571.43	30312.28
571.60	30314.62
571.76	30288.87
571.92	30408.24
572.09	30497.18
572.25	30796.77
572.41	30536.97
572.57	30789.75
572.74	30611.87
572.90	30661.02
573.06	30843.58
573.22	30333.34
573.38	31000.40
573.55	30588.46
573.71	30684.42
573.87	30796.77
574.03	30483.14
574.20	30766.34
574.36	30101.63
574.52	30862.30
574.68	30682.08
574.84	30637.61
575.01	30347.39
575.17	30646.97
575.33	30323.98
575.49	30508.88
575.65	30782.73
575.82	31023.80
575.98	30555.69
576.14	30607.19
576.30	30656.34
576.46	30438.67
576.62	30459.73
576.79	30618.89
576.95	30426.96
577.11	30651.66
577.27	30838.90
577.43	30553.35
577.59	30721.87
577.75	30946.56
577.92	30251.42
578.08	30328.66
578.24	30499.52
578.40	30682.08
578.56	30773.36
578.72	30675.06
578.88	30675.06
579.04	30728.89
579.21	30703.15
579.37	30817.83
579.53	30862.30
579.69	30780.39
579.85	30787.41
580.01	30607.19
580.17	30625.91
580.33	30792.09
580.49	30848.26
580.65	30881.03
580.82	30462.07
580.98	31075.29
581.14	30899.75
581.30	31023.80
581.46	30881.03
581.62	30771.02
581.78	30515.90
581.94	30637.61
582.10	30792.09
582.26	30574.42
582.42	30747.62
582.58	31194.66
582.74	30721.87
582.90	31192.32
583.06	30705.49
583.22	30806.13
583.38	31105.72
583.54	30778.04
583.70	30672.72
583.86	30988.69
584.02	30778.04
584.18	30976.99
584.34	31112.74
584.50	31063.59
584.66	31070.61
584.82	30668.04
584.98	30871.67
585.14	30639.95
585.30	31033.16
585.46	31105.72
585.62	30712.51
585.78	31122.10
585.94	30834.22
586.10	30831.88
586.26	31082.31
586.42	31381.90
586.58	31215.72
586.74	30920.82
586.90	30728.89
587.06	30787.41
587.22	30738.26
587.38	30988.69
587.54	31054.23
587.70	31213.38
587.86	31377.22
588.02	31211.04
588.18	31304.67
588.34	31295.30
588.49	31094.02
588.65	30792.09
588.81	30932.52
588.97	31222.75
589.13	31119.76
589.29	31023.80
589.45	30883.37
589.61	31307.01
589.77	31304.67
589.93	31026.14
590.08	31084.65
590.24	31384.24
590.40	31414.67
590.56	31405.31
590.72	30941.88
590.88	31154.87
591.04	31033.16
591.20	31318.71
591.35	31758.73
591.51	31377.22
591.67	31356.16
591.83	31697.88
591.99	31337.43
