SpectraSuite Data File
++++++++++++++++++++++++++++++++++++
Date: Fri Oct 18 13:58:25 GMT-05:00 2013
User: bianchi
Dark Spectrum Present: No
Reference Spectrum Present: No
Number of Sampled Component Spectra: 1
Spectrometers: USB2+H05261
Integration Time (usec): 50000 (USB2+H05261)
Spectra Averaged: 1 (USB2+H05261)
Boxcar Smoothing: 0 (USB2+H05261)
Correct for Electrical Dark: No (USB2+H05261)
Strobe/Lamp Enabled: No (USB2+H05261)
Correct for Detector Non-linearity: No (USB2+H05261)
Correct for Stray Light: No (USB2+H05261)
Number of Pixels in Processed Spectrum: 2048
>>>>>Begin Processed Spectral Data<<<<<
365.73	0.00
365.92	0.00
366.12	0.00
366.32	0.00
366.52	0.00
366.72	0.00
366.91	0.00
367.11	0.00
367.31	0.00
367.51	0.00
367.70	0.00
367.90	0.00
368.10	0.00
368.30	0.00
368.49	0.00
368.69	0.00
368.89	0.00
369.09	0.00
369.28	0.00
369.48	0.00
369.68	0.00
369.87	0.00
370.07	0.00
370.27	0.00
370.47	0.00
370.66	84.26
370.86	173.20
371.06	42.13
371.25	98.30
371.45	63.19
371.65	163.84
371.84	86.60
372.04	121.71
372.24	180.22
372.44	191.92
372.63	180.22
372.83	175.54
373.03	198.95
373.22	264.48
373.42	201.29
373.62	159.16
373.81	166.18
374.01	294.91
374.21	330.02
374.40	161.50
374.60	245.76
374.79	236.39
374.99	201.29
375.19	217.67
375.38	215.33
375.58	205.97
375.78	334.70
375.97	212.99
376.17	255.12
376.37	273.84
376.56	283.20
376.76	203.63
376.95	271.50
377.15	297.25
377.35	257.46
377.54	224.69
377.74	337.04
377.93	252.78
378.13	236.39
378.33	280.86
378.52	243.42
378.72	276.18
378.91	301.93
379.11	229.37
379.31	327.68
379.50	327.68
379.70	290.23
379.89	299.59
380.09	269.16
380.28	299.59
380.48	390.87
380.68	287.89
380.87	304.27
381.07	294.91
381.26	264.48
381.46	327.68
381.65	294.91
381.85	339.38
382.04	365.12
382.24	358.10
382.43	360.44
382.63	248.10
382.83	344.06
383.02	243.42
383.22	402.57
383.41	362.78
383.61	365.12
383.80	365.12
384.00	283.20
384.19	306.61
384.39	418.96
384.58	402.57
384.78	339.38
384.97	315.97
385.17	369.80
385.36	365.12
385.56	355.76
385.75	430.66
385.95	386.19
386.14	330.02
386.34	390.87
386.53	379.17
386.72	477.47
386.92	437.68
387.11	449.38
387.31	367.46
387.50	414.27
387.70	367.46
387.89	395.55
388.09	465.77
388.28	468.11
388.48	418.96
388.67	479.81
388.86	458.74
389.06	355.76
389.25	463.43
389.45	397.89
389.64	521.94
389.84	498.53
390.03	489.17
390.22	500.87
390.42	447.04
390.61	456.40
390.81	411.93
391.00	447.04
391.19	472.79
391.39	507.90
391.58	468.11
391.78	500.87
391.97	479.81
392.16	543.00
392.36	568.75
392.55	538.32
392.75	538.32
392.94	482.15
393.13	498.53
393.33	496.19
393.52	531.30
393.71	631.94
393.91	533.64
394.10	442.36
394.29	517.26
394.49	589.82
394.68	589.82
394.88	596.84
395.07	634.29
395.26	648.33
395.46	528.96
395.65	561.73
395.84	528.96
396.04	744.29
396.23	645.99
396.42	603.86
396.62	671.73
396.81	587.47
397.00	653.01
397.19	566.41
397.39	697.48
397.58	624.92
397.77	674.07
397.97	702.16
398.16	667.05
398.35	697.48
398.55	734.93
398.74	671.73
398.93	758.33
399.12	695.14
399.32	765.36
399.51	706.84
399.70	746.63
399.90	755.99
400.09	723.23
400.28	755.99
400.47	737.27
400.67	774.72
400.86	770.04
401.05	826.21
401.24	847.27
401.44	678.76
401.63	873.02
401.82	760.67
402.01	746.63
402.21	880.04
402.40	826.21
402.59	816.85
402.78	877.70
402.97	798.12
403.17	882.38
403.36	854.30
403.55	793.44
403.74	887.06
403.93	877.70
404.13	901.11
404.32	936.21
404.51	870.68
404.70	952.60
404.89	950.26
405.09	873.02
405.28	898.77
405.47	912.81
405.66	938.55
405.85	929.19
406.05	875.36
406.24	926.85
406.43	1034.52
406.62	980.68
406.81	978.34
407.00	999.41
407.20	992.39
407.39	938.55
407.58	1093.03
407.77	1125.80
407.96	1069.62
408.15	1011.11
408.34	980.68
408.54	1071.97
408.73	1151.54
408.92	1083.67
409.11	1163.25
409.30	1167.93
409.49	1165.59
409.68	1125.80
409.87	1163.25
410.07	1254.53
410.26	1149.20
410.45	1114.10
410.64	1233.46
410.83	1174.95
411.02	1144.52
411.21	1268.57
411.40	1207.72
411.59	1287.29
411.78	1345.81
411.98	1268.57
412.17	1406.66
412.36	1121.12
412.55	1327.08
412.74	1446.45
412.93	1451.13
413.12	1397.30
413.31	1451.13
413.50	1427.73
413.69	1420.71
413.88	1430.07
414.07	1359.85
414.26	1404.32
414.45	1472.20
414.64	1451.13
414.83	1493.26
415.02	1458.15
415.22	1554.12
415.41	1549.43
415.60	1533.05
415.79	1584.54
415.98	1572.84
416.17	1540.07
416.36	1526.03
416.55	1598.59
416.74	1586.88
416.93	1636.03
417.12	1619.65
417.31	1675.82
417.50	1694.55
417.69	1692.21
417.88	1736.68
418.07	1778.81
418.26	1760.08
418.45	1715.61
418.64	1809.23
418.83	1774.13
419.02	1937.96
419.21	1764.76
419.39	1816.26
419.58	1837.32
419.77	1844.34
419.96	1813.92
420.15	1944.99
420.34	1825.62
420.53	1886.47
420.72	1956.69
420.91	1959.03
421.10	1935.62
421.29	2012.86
421.48	1928.60
421.67	1942.64
421.86	1991.80
422.05	1872.43
422.24	1914.56
422.43	1937.96
422.61	2022.22
422.80	2005.84
422.99	2099.46
423.18	1996.48
423.37	2078.40
423.56	2047.97
423.75	1949.67
423.94	1937.96
424.13	1834.98
424.32	1928.60
424.50	1996.48
424.69	2015.20
424.88	2052.65
425.07	2033.93
425.26	1963.71
425.45	1963.71
425.64	2001.16
425.83	2024.56
426.01	2069.03
426.20	2029.24
426.39	1968.39
426.58	2214.15
426.77	2106.48
426.96	2090.10
427.15	2012.86
427.33	2132.23
427.52	2083.08
427.71	2204.78
427.90	2146.27
428.09	2249.25
428.28	2228.19
428.46	2211.81
428.65	2193.08
428.84	2277.34
429.03	2326.49
429.22	2181.38
429.40	2389.69
429.59	2258.62
429.78	2132.23
429.97	2134.57
430.16	2214.15
430.34	2211.81
430.53	2373.30
430.72	2394.37
430.91	2277.34
431.10	2232.87
431.28	2345.22
431.47	2403.73
431.66	2403.73
431.85	2377.98
432.03	2424.80
432.22	2485.65
432.41	2422.45
432.60	2403.73
432.79	2436.50
432.97	2476.29
433.16	2567.57
433.35	2417.77
433.54	2518.42
433.72	2504.37
433.91	2518.42
434.10	2469.27
434.28	2548.84
434.47	2539.48
434.66	2497.35
434.85	2633.10
435.03	2663.53
435.22	2658.85
435.41	2682.25
435.59	2530.12
435.78	2731.41
435.97	2757.15
436.16	2708.00
436.34	2677.57
436.53	2693.96
436.72	2649.49
436.90	2572.25
437.09	2731.41
437.28	2691.62
437.46	2719.70
437.65	2696.30
437.84	2810.98
438.02	2836.73
438.21	2890.56
438.40	2789.92
438.58	2780.56
438.77	2787.58
438.96	2960.78
439.14	2946.73
439.33	3012.27
439.52	3063.76
439.70	3028.65
439.89	3016.95
440.08	3016.95
440.26	3045.04
440.45	3084.83
440.63	3035.67
440.82	3080.14
441.01	3122.27
441.19	3061.42
441.38	3110.57
441.57	3150.36
441.75	3304.84
441.94	3290.79
442.12	3248.66
442.31	3204.19
442.50	3330.58
442.68	3272.07
442.87	3349.31
443.05	3330.58
443.24	3452.29
443.43	3314.20
443.61	3421.86
443.80	3564.64
443.98	3321.22
444.17	3117.59
444.35	3438.25
444.54	3541.23
444.73	3386.76
444.91	3433.57
445.10	3393.78
445.28	3410.16
445.47	3365.69
445.65	3389.10
445.84	3424.20
446.02	3571.66
446.21	3421.86
446.39	3496.76
446.58	3688.68
446.77	3459.31
446.95	3440.59
447.14	3515.48
447.32	3468.67
447.51	3501.44
447.69	3311.86
447.88	3489.74
448.06	3508.46
448.25	3520.17
448.43	3550.59
448.62	3494.42
448.80	3513.14
448.99	3503.78
449.17	3602.08
449.36	3543.57
449.54	3702.73
449.73	3627.83
449.91	3641.87
450.10	3684.00
450.28	3775.28
450.46	3707.41
450.65	3747.20
450.83	3791.67
451.02	3772.94
451.20	3861.88
451.39	3782.31
451.57	3726.13
451.76	3684.00
451.94	3646.55
452.13	3896.99
452.31	3822.09
452.49	3719.11
452.68	3744.86
452.86	3840.82
453.05	3997.64
453.23	3960.19
453.42	3894.65
453.60	3742.52
453.78	4021.04
453.97	3981.25
454.15	3779.97
454.34	3829.12
454.52	3889.97
454.70	4039.76
454.89	4091.26
455.07	3920.40
455.26	3911.04
455.44	4018.70
455.62	4187.22
455.81	4128.70
455.99	4135.73
456.17	4018.70
456.36	4105.30
456.54	4156.79
456.73	4159.13
456.91	4283.18
457.09	4159.13
457.28	4252.75
457.46	4393.19
457.64	4393.19
457.83	4264.46
458.01	4351.06
458.19	4479.79
458.38	4484.47
458.56	4381.48
458.74	4451.70
458.93	4440.00
459.11	4503.19
459.29	4411.91
459.48	4475.10
459.66	4528.94
459.84	4491.49
460.03	4587.45
460.21	4526.60
460.39	4470.42
460.57	4456.38
460.76	4599.15
460.94	4601.49
461.12	4622.56
461.31	4622.56
461.49	4582.77
461.67	4554.68
461.85	4788.74
462.04	4638.94
462.22	4664.69
462.40	4791.08
462.59	4741.93
462.77	4667.03
462.95	4854.27
463.13	4823.84
463.32	4786.40
463.50	4720.86
463.68	5029.81
463.86	4781.71
464.05	4788.74
464.23	4699.80
464.41	4851.93
464.59	4774.69
464.78	5015.77
464.96	4781.71
465.14	4873.00
465.32	4964.28
465.50	4793.42
465.69	5060.24
465.87	5057.90
466.05	4826.18
466.23	5022.79
466.41	4971.30
466.60	5172.58
466.78	5018.11
466.96	5008.75
467.14	4919.81
467.32	5090.67
467.51	5128.11
467.69	5034.49
467.87	5041.51
468.05	5006.41
468.23	5064.92
468.41	5008.75
468.60	5160.88
468.78	5238.12
468.96	5090.67
469.14	5348.12
469.32	5390.25
469.50	5156.20
469.69	5235.78
469.87	5383.23
470.05	5437.06
470.23	5418.34
470.41	5364.51
470.59	5476.85
470.77	5451.11
470.95	5568.13
471.14	5425.36
471.32	5570.48
471.50	5589.20
471.68	5621.97
471.86	5462.81
472.04	5547.07
472.22	5692.18
472.40	5689.84
472.58	5877.09
472.77	5717.93
472.95	5956.66
473.13	5823.25
473.31	5788.14
473.49	5994.11
473.67	5640.69
473.85	6061.99
474.03	6033.90
474.21	5802.19
474.39	6260.93
474.57	6141.57
474.75	6211.78
474.93	6366.26
475.12	6043.26
475.30	6092.41
475.48	6162.63
475.66	6249.23
475.84	6136.88
476.02	6375.62
476.20	6338.17
476.38	6307.74
476.56	6658.82
476.74	6628.40
476.92	6473.92
477.10	6640.10
477.28	6637.76
477.46	6492.65
477.64	6736.06
477.82	6817.98
478.00	6916.28
478.18	7077.78
478.36	7124.59
478.54	7094.16
478.72	7000.54
478.90	7309.49
479.08	7330.56
479.26	7178.42
479.44	7162.04
479.62	7335.24
479.80	7379.71
479.98	7407.80
480.16	7599.72
480.34	7372.69
480.52	7616.10
480.70	7562.27
480.88	7623.12
481.06	7686.32
481.24	7569.29
481.41	7845.48
481.59	7894.63
481.77	8138.04
481.95	8222.30
482.13	8208.26
482.31	8231.66
482.49	8217.62
482.67	8311.24
482.85	8367.42
483.03	8187.19
483.21	8552.32
483.39	8662.32
483.57	8542.96
483.74	8587.43
483.92	8912.76
484.10	8496.14
484.28	8732.54
484.46	9067.24
484.64	9142.13
484.82	9046.17
485.00	9142.13
485.18	9123.41
485.35	9366.82
485.53	9336.40
485.71	9509.60
485.89	9614.92
486.07	9577.47
486.25	9657.05
486.43	9448.74
486.61	9558.75
486.78	9750.67
486.96	9720.24
487.14	10148.56
487.32	10036.22
487.50	10113.45
487.68	10122.82
487.85	10204.74
488.03	10466.88
488.21	10670.50
488.39	10567.52
488.57	10705.61
488.75	10703.27
488.92	10740.72
489.10	10789.87
489.28	10853.06
489.46	10934.98
489.64	11126.91
489.81	11335.21
489.99	11339.90
490.17	11389.05
490.35	11496.71
490.53	11379.68
490.70	11702.68
490.88	11506.07
491.06	11819.71
491.24	11571.61
491.41	11721.40
491.59	12023.33
491.77	11740.13
491.95	12088.87
492.13	11971.84
492.30	12182.49
492.48	12217.60
492.66	12271.43
492.84	12547.61
493.01	12608.47
493.19	12702.09
493.37	12957.21
493.54	12439.95
493.72	12683.36
493.90	12798.05
494.08	12847.20
494.25	13121.04
494.43	12762.94
494.61	13263.82
494.79	13352.76
494.96	13364.46
495.14	13336.37
495.32	13319.99
495.49	13429.99
495.67	13586.81
495.85	13734.26
496.02	13724.90
496.20	13926.19
496.38	13928.53
496.55	13816.18
496.73	14230.46
496.91	14083.00
497.09	14209.39
497.26	14171.94
497.44	14256.20
497.62	14401.32
497.79	14679.84
497.97	14279.61
498.14	14429.40
498.32	14988.79
498.50	14719.63
498.67	14906.87
498.85	14834.32
499.03	15005.17
499.20	14754.74
499.38	14827.29
499.56	15208.80
499.73	15183.06
499.91	15475.62
500.08	15508.39
500.26	15194.76
500.44	15236.89
500.61	15379.66
500.79	15428.81
500.97	15562.22
501.14	15538.82
501.32	15623.08
501.49	15770.53
501.67	15920.32
501.84	15660.52
502.02	15744.78
502.20	16032.67
502.37	16100.55
502.55	15941.39
502.72	15981.18
502.90	16126.29
503.07	16128.63
503.25	16126.29
503.43	16252.68
503.60	16402.47
503.78	16580.36
503.95	16559.29
504.13	16306.51
504.30	16446.94
504.48	16535.88
504.65	16821.43
504.83	17067.19
505.01	16936.12
505.18	16826.11
505.36	17003.99
505.53	16709.08
505.71	16936.12
505.88	16856.54
506.06	16985.27
506.23	17071.87
506.41	17158.47
506.58	16886.97
506.76	17476.78
506.93	17399.54
507.11	17214.64
507.28	17586.79
507.46	17558.70
507.63	17764.67
507.81	17539.97
507.98	17607.85
508.16	17685.09
508.33	17881.69
508.50	17724.88
508.68	17678.07
508.85	18094.68
509.03	17956.59
509.20	18232.77
509.38	18160.22
509.55	18295.97
509.73	18373.21
509.90	18403.63
510.08	17884.03
510.25	18302.99
510.42	18422.36
510.60	18820.25
510.77	18831.95
510.95	18799.18
511.12	18630.66
511.30	18417.68
511.47	18766.42
511.64	18902.17
511.82	18892.80
511.99	18766.42
512.17	19063.66
512.34	19089.41
512.51	19176.01
512.69	19290.70
512.86	19398.36
513.04	19665.18
513.21	19201.76
513.38	19470.92
513.56	19328.14
513.73	19445.17
513.90	19452.19
514.08	19367.93
514.25	19524.75
514.43	19463.90
514.60	19831.36
514.77	20058.39
514.95	19812.63
515.12	19814.98
515.29	19592.62
515.47	20042.01
515.64	19901.58
515.81	19814.98
515.99	19800.93
516.16	19967.11
516.33	20376.70
516.51	20266.70
516.68	20357.98
516.85	20187.12
517.03	20563.95
517.20	20292.44
517.37	20386.07
517.54	20585.01
517.72	20655.23
517.89	20409.47
518.06	20517.14
518.24	20732.47
518.41	20489.05
518.58	20526.50
518.75	20786.30
518.93	20680.97
519.10	20767.57
519.27	21305.90
519.45	20931.41
519.62	20936.09
519.79	21106.95
519.96	21137.38
520.14	21254.40
520.31	20898.64
520.48	21280.15
520.65	21050.78
520.83	21635.91
521.00	21343.35
521.17	21050.78
521.34	21642.93
521.52	21422.92
521.69	21338.66
521.86	21387.82
522.03	21568.04
522.20	21329.30
522.38	21563.36
522.55	21902.73
522.72	21898.05
522.89	21766.98
523.07	21717.83
523.24	21860.60
523.41	22019.76
523.58	21619.53
523.75	22005.72
523.92	21926.14
524.10	22122.74
524.27	22342.75
524.44	22324.03
524.61	22513.61
524.78	22607.23
524.96	22345.09
525.13	22562.76
525.30	22267.86
525.47	22558.08
525.64	22457.44
525.81	22476.16
525.98	22829.59
526.16	22707.88
526.33	22757.03
526.50	22644.68
526.67	22719.58
526.84	22684.47
527.01	22799.16
527.18	22750.01
527.36	22944.27
527.53	22972.36
527.70	23323.44
527.87	23236.84
528.04	23578.56
528.21	23281.31
528.38	23278.97
528.55	23297.69
528.72	23068.32
528.89	23307.05
529.07	23323.44
529.24	23257.90
529.41	23419.40
529.58	23056.62
529.75	23463.87
529.92	23524.72
530.09	23410.04
530.26	23590.26
530.43	23491.96
530.60	23435.78
530.77	23580.90
530.94	24032.62
531.11	23587.92
531.28	23679.20
531.46	23613.66
531.63	23709.63
531.80	23789.20
531.97	24072.41
532.14	24013.90
532.31	24030.28
532.48	23941.34
532.65	24116.88
532.82	23768.14
532.99	24163.69
533.16	23868.78
533.33	24233.91
533.50	24381.36
533.67	24285.40
533.84	24142.63
534.01	24299.44
534.18	24163.69
534.35	24554.56
534.52	24215.18
534.69	24592.01
534.86	24603.71
535.03	24381.36
535.20	24608.39
535.37	24418.81
535.54	24517.11
535.71	24645.84
535.88	24807.34
536.05	24893.94
536.22	24582.65
536.38	24999.26
536.55	25032.03
536.72	24720.74
536.89	24821.38
537.06	24694.99
537.23	24891.60
537.40	24812.02
537.57	25085.86
537.74	25144.38
537.91	25268.42
538.08	25069.48
538.25	25310.55
538.42	25223.95
538.59	25284.81
538.75	25060.12
538.92	25376.09
539.09	25249.70
539.26	25509.50
539.43	25399.49
539.60	25383.11
539.77	25235.66
539.94	25706.10
540.11	25469.71
540.28	25738.87
540.44	25390.13
540.61	25532.90
540.78	25486.09
540.95	25626.53
541.12	25802.07
541.29	25472.05
541.46	26008.03
541.62	25649.93
541.79	25448.64
541.96	25268.42
542.13	25659.29
542.30	25685.04
542.47	25888.67
542.63	25876.96
542.80	26141.44
542.97	26260.81
543.14	26504.23
543.31	26125.06
543.48	26272.51
543.64	26167.19
543.81	26876.37
543.98	26183.57
544.15	26281.88
544.32	26515.93
544.48	26742.96
544.65	26225.70
544.82	26511.25
544.99	26501.89
545.16	26647.00
545.32	26740.62
545.49	26595.51
545.66	26820.20
545.83	26885.73
546.00	26710.19
546.16	26548.70
546.33	26408.26
546.50	26434.01
546.67	27056.59
546.83	26438.69
547.00	26511.25
547.17	27094.04
547.34	26934.88
547.50	26965.31
547.67	27145.53
547.84	26782.75
548.00	27152.55
548.17	27300.01
548.34	26761.69
548.51	27082.34
548.67	27253.20
548.84	27145.53
549.01	27054.25
549.18	27136.17
549.34	27056.59
549.51	27318.73
549.68	27087.02
549.84	27087.02
550.01	27260.22
550.18	26843.60
550.34	27133.83
550.51	27550.45
550.68	27449.80
550.84	27236.81
551.01	27133.83
551.18	27243.84
551.34	27187.66
551.51	27257.88
551.68	27470.87
551.84	27524.70
552.01	27541.08
552.18	27391.29
552.34	27524.70
552.51	27857.06
552.68	27599.60
552.84	27721.30
553.01	27552.79
553.18	27330.44
553.34	27754.07
553.51	27861.74
553.67	28051.32
553.84	28084.09
554.01	27758.75
554.17	27971.74
554.34	27960.04
554.51	27634.71
554.67	27957.70
554.84	27608.96
555.00	27639.39
555.17	28102.81
555.33	27955.36
555.50	28224.52
555.67	27735.35
555.83	28018.55
556.00	27929.61
556.16	28018.55
556.33	27899.19
556.50	28198.77
556.66	28357.93
556.83	28271.33
556.99	28559.22
557.16	28418.78
557.32	28107.49
557.49	28439.85
557.65	28350.91
557.82	28130.90
557.98	27915.57
558.15	28187.07
558.32	28615.39
558.48	28180.05
558.65	28486.66
558.81	28589.64
558.98	28507.72
559.14	28362.61
559.31	28395.38
559.47	28374.31
559.64	28591.98
559.80	28833.06
559.97	28685.61
560.13	28463.25
560.30	28826.04
560.46	28837.74
560.63	28819.02
560.79	28582.62
560.96	28657.52
561.12	28725.39
561.29	28851.78
561.45	28872.85
561.61	28858.81
561.78	28725.39
561.94	28884.55
562.11	28788.59
562.27	28900.94
562.44	28685.61
562.60	28676.24
562.77	28917.32
562.93	28772.21
563.10	28652.84
563.26	28694.97
563.42	29268.40
563.59	29205.20
563.75	28748.80
563.92	28882.21
564.08	28617.73
564.24	28577.94
564.41	28547.51
564.57	28741.78
564.74	28914.98
564.90	29195.84
565.07	29303.51
565.23	29036.69
565.39	29074.13
565.56	29071.79
565.72	29134.99
565.88	28989.88
566.05	29193.50
566.21	28999.24
566.38	29032.00
566.54	29289.46
566.70	29083.50
566.87	29120.95
567.03	29205.20
567.19	29357.34
567.36	29294.14
567.52	29273.08
567.68	29502.45
567.85	29249.67
568.01	29310.53
568.17	28994.56
568.34	29366.70
568.50	29390.11
568.66	29315.21
568.83	29759.91
568.99	29518.84
569.15	29099.88
569.32	29207.55
569.48	29130.31
569.64	29659.27
569.81	29261.38
569.97	29053.07
570.13	29589.05
570.30	29443.94
570.46	29303.51
570.62	29362.02
570.78	29097.54
570.95	29235.63
571.11	29188.82
571.27	29436.92
571.43	28889.23
571.60	29607.78
571.76	29209.89
571.92	29340.96
572.09	29682.67
572.25	29502.45
572.41	29146.69
572.57	29390.11
572.74	29263.72
572.90	29387.77
573.06	29186.48
573.22	29324.57
573.38	29331.59
573.55	29249.67
573.71	29610.12
573.87	29493.09
574.03	29436.92
574.20	29467.34
574.36	29713.10
574.52	29347.98
574.68	29441.60
574.84	29319.89
575.01	29649.91
575.17	29305.85
575.33	29696.72
575.49	29383.09
575.65	29844.17
575.82	29378.40
575.98	29446.28
576.14	29605.44
576.30	29586.71
576.46	29235.63
576.62	29200.52
576.79	29230.95
576.95	29104.56
577.11	29752.89
577.27	29685.01
577.43	29795.02
577.59	29710.76
577.75	29825.45
577.92	29455.64
578.08	29486.07
578.24	29621.82
578.40	29558.63
578.56	29734.17
578.72	29701.40
578.88	29879.28
579.04	29755.23
579.21	29212.23
579.37	29500.11
579.53	29773.95
579.69	29649.91
579.85	29593.73
580.01	29502.45
580.17	29600.76
580.33	29350.32
580.49	29797.36
580.65	29855.87
580.82	29935.45
580.98	29319.89
581.14	29446.28
581.30	29902.68
581.46	29818.42
581.62	29860.55
581.78	29549.26
581.94	29584.37
582.10	29663.95
582.26	29528.20
582.42	29605.44
582.58	29729.48
582.74	29472.03
582.90	29406.49
583.06	29851.19
583.22	29762.25
583.38	29858.21
583.54	29507.13
583.70	29689.70
583.86	29612.46
584.02	29443.94
584.18	29914.39
584.34	30008.01
584.50	30066.52
584.66	29528.20
584.82	29888.64
584.98	29963.54
585.14	29874.60
585.30	29563.31
585.46	29862.90
585.62	29415.85
585.78	29500.11
585.94	29673.31
586.10	29591.39
586.26	29846.51
586.42	29773.95
586.58	30008.01
586.74	29736.51
586.90	29773.95
587.06	29497.77
587.22	29900.34
587.38	29837.15
587.54	30022.05
587.70	29638.20
587.86	30000.99
588.02	30183.55
588.18	30024.39
588.34	30380.15
588.49	29577.35
588.65	29472.03
588.81	29909.71
588.97	29963.54
589.13	29935.45
589.29	30050.14
589.45	30036.09
589.61	30057.16
589.77	30380.15
589.93	30216.32
590.08	30169.51
590.24	30155.46
590.40	29998.65
590.56	29972.90
590.72	30033.75
590.88	30043.12
591.04	29886.30
591.20	30279.51
591.35	30382.49
591.51	30569.74
591.67	30132.06
591.83	30471.43
591.99	30150.78
