SpectraSuite Data File
++++++++++++++++++++++++++++++++++++
Date: Fri Oct 18 13:58:15 GMT-05:00 2013
User: bianchi
Dark Spectrum Present: No
Reference Spectrum Present: No
Number of Sampled Component Spectra: 1
Spectrometers: USB2+H05261
Integration Time (usec): 50000 (USB2+H05261)
Spectra Averaged: 1 (USB2+H05261)
Boxcar Smoothing: 0 (USB2+H05261)
Correct for Electrical Dark: No (USB2+H05261)
Strobe/Lamp Enabled: No (USB2+H05261)
Correct for Detector Non-linearity: No (USB2+H05261)
Correct for Stray Light: No (USB2+H05261)
Number of Pixels in Processed Spectrum: 2048
>>>>>Begin Processed Spectral Data<<<<<
365.73	0.00
365.92	0.00
366.12	0.00
366.32	0.00
366.52	0.00
366.72	0.00
366.91	0.00
367.11	0.00
367.31	0.00
367.51	0.00
367.70	0.00
367.90	0.00
368.10	0.00
368.30	0.00
368.49	0.00
368.69	0.00
368.89	0.00
369.09	0.00
369.28	0.00
369.48	0.00
369.68	0.00
369.87	0.00
370.07	0.00
370.27	0.00
370.47	0.00
370.66	0.00
370.86	56.17
371.06	117.03
371.25	135.75
371.45	117.03
371.65	67.88
371.84	119.37
372.04	180.22
372.24	149.79
372.44	133.41
372.63	177.88
372.83	248.10
373.03	203.63
373.22	203.63
373.42	290.23
373.62	220.01
373.81	234.05
374.01	252.78
374.21	248.10
374.40	266.82
374.60	325.33
374.79	205.97
374.99	257.46
375.19	290.23
375.38	280.86
375.58	227.03
375.78	238.73
375.97	257.46
376.17	266.82
376.37	259.80
376.56	238.73
376.76	264.48
376.95	262.14
377.15	276.18
377.35	238.73
377.54	212.99
377.74	217.67
377.93	297.25
378.13	290.23
378.33	255.12
378.52	280.86
378.72	285.55
378.91	245.76
379.11	175.54
379.31	283.20
379.50	304.27
379.70	299.59
379.89	290.23
380.09	229.37
380.28	301.93
380.48	217.67
380.68	269.16
380.87	266.82
381.07	287.89
381.26	304.27
381.46	327.68
381.65	351.08
381.85	276.18
382.04	299.59
382.24	351.08
382.43	322.99
382.63	294.91
382.83	341.72
383.02	313.63
383.22	444.70
383.41	358.10
383.61	374.49
383.80	383.85
384.00	411.93
384.19	311.29
384.39	395.55
384.58	273.84
384.78	325.33
384.97	353.42
385.17	402.57
385.36	346.40
385.56	360.44
385.75	479.81
385.95	458.74
386.14	407.25
386.34	388.53
386.53	379.17
386.72	414.27
386.92	482.15
387.11	397.89
387.31	528.96
387.50	404.91
387.70	353.42
387.89	379.17
388.09	372.15
388.28	381.51
388.48	421.30
388.67	456.40
388.86	444.70
389.06	465.77
389.25	489.17
389.45	566.41
389.64	402.57
389.84	505.56
390.03	465.77
390.22	496.19
390.42	437.68
390.61	449.38
390.81	531.30
391.00	540.66
391.19	561.73
391.39	500.87
391.58	414.27
391.78	545.34
391.97	458.74
392.16	475.13
392.36	517.26
392.55	512.58
392.75	554.71
392.94	510.24
393.13	559.39
393.33	535.98
393.52	475.13
393.71	552.37
393.91	470.45
394.10	552.37
394.29	533.64
394.49	512.58
394.68	540.66
394.88	610.88
395.07	573.43
395.26	557.05
395.46	564.07
395.65	641.31
395.84	587.47
396.04	585.13
396.23	636.63
396.42	627.26
396.62	669.39
396.81	671.73
397.00	528.96
397.19	643.65
397.39	671.73
397.58	671.73
397.77	706.84
397.97	589.82
398.16	727.91
398.35	699.82
398.55	760.67
398.74	732.59
398.93	671.73
399.12	730.25
399.32	627.26
399.51	727.91
399.70	765.36
399.90	664.71
400.09	664.71
400.28	821.53
400.47	678.76
400.67	802.80
400.86	791.10
401.05	734.93
401.24	746.63
401.44	805.14
401.63	844.93
401.82	858.98
402.01	779.40
402.21	732.59
402.40	833.23
402.59	866.00
402.78	709.18
402.97	770.04
403.17	767.70
403.36	882.38
403.55	903.45
403.74	896.43
403.93	840.25
404.13	882.38
404.32	812.17
404.51	894.08
404.70	898.77
404.89	924.51
405.09	1032.18
405.28	1041.54
405.47	926.85
405.66	1004.09
405.85	947.92
406.05	1081.33
406.24	947.92
406.43	945.58
406.62	980.68
406.81	1060.26
407.00	1081.33
407.20	1032.18
407.39	957.28
407.58	1008.77
407.77	1107.07
407.96	1062.60
408.15	1086.01
408.34	1022.81
408.54	1032.18
408.73	1057.92
408.92	1102.39
409.11	1193.67
409.30	1057.92
409.49	1219.42
409.68	1109.41
409.87	1210.06
410.07	1116.44
410.26	1053.24
410.45	1228.78
410.64	1165.59
410.83	1135.16
411.02	1186.65
411.21	1191.33
411.40	1268.57
411.59	1247.51
411.78	1254.53
411.98	1362.19
412.17	1289.64
412.36	1268.57
412.55	1205.38
412.74	1231.12
412.93	1376.24
413.12	1322.40
413.31	1486.24
413.50	1282.61
413.69	1329.42
413.88	1446.45
414.07	1392.62
414.26	1446.45
414.45	1317.72
414.64	1488.58
414.83	1444.11
415.02	1516.67
415.22	1474.54
415.41	1526.03
415.60	1504.96
415.79	1530.71
415.98	1664.12
416.17	1589.22
416.36	1607.95
416.55	1680.50
416.74	1547.09
416.93	1729.66
417.12	1610.29
417.31	1710.93
417.50	1715.61
417.69	1739.02
417.88	1626.67
418.07	1741.36
418.26	1643.06
418.45	1729.66
418.64	1774.13
418.83	1699.23
419.02	1806.89
419.21	1905.20
419.39	1748.38
419.58	1823.28
419.77	1750.72
419.96	1802.21
420.15	1858.39
420.34	1832.64
420.53	1746.04
420.72	1877.11
420.91	1762.42
421.10	1919.24
421.29	1928.60
421.48	1895.83
421.67	2001.16
421.86	1928.60
422.05	1940.30
422.24	1895.83
422.43	1952.01
422.61	2003.50
422.80	2066.69
422.99	1959.03
423.18	1991.80
423.37	1963.71
423.56	1963.71
423.75	2024.56
423.94	1954.35
424.13	1895.83
424.32	1893.49
424.50	2064.35
424.69	2113.50
424.88	2165.00
425.07	2080.74
425.26	1968.39
425.45	1987.11
425.64	2069.03
425.83	1968.39
426.01	2097.12
426.20	2099.46
426.39	2106.48
426.58	2036.27
426.77	2066.69
426.96	2047.97
427.15	2092.44
427.33	2066.69
427.52	2043.29
427.71	2157.97
427.90	2160.31
428.09	2239.89
428.28	2115.84
428.46	2172.02
428.65	2235.21
428.84	2263.30
429.03	2160.31
429.22	2202.44
429.40	2296.07
429.59	2111.16
429.78	2150.95
429.97	2090.10
430.16	2165.00
430.34	2305.43
430.53	2333.51
430.72	2326.49
430.91	2260.96
431.10	2256.28
431.28	2366.28
431.47	2413.09
431.66	2377.98
431.85	2471.61
432.03	2359.26
432.22	2427.14
432.41	2394.37
432.60	2459.90
432.79	2375.64
432.97	2473.95
433.16	2485.65
433.35	2413.09
433.54	2438.84
433.72	2546.50
433.91	2459.90
434.10	2558.21
434.28	2490.33
434.47	2553.52
434.66	2581.61
434.85	2581.61
435.03	2703.32
435.22	2548.84
435.41	2806.30
435.59	2548.84
435.78	2480.97
435.97	2647.15
436.16	2565.23
436.34	2616.72
436.53	2689.28
436.72	2752.47
436.90	2490.33
437.09	2820.35
437.28	2654.17
437.46	2754.81
437.65	2750.13
437.84	2850.77
438.02	2792.26
438.21	2792.26
438.40	2752.47
438.58	2951.42
438.77	2717.36
438.96	2958.44
439.14	2890.56
439.33	2911.63
439.52	2995.89
439.70	2904.60
439.89	2923.33
440.08	3047.38
440.26	3089.51
440.45	2974.82
440.63	3101.21
440.82	3131.64
441.01	2979.50
441.19	3009.93
441.38	3143.34
441.57	3155.04
441.75	3243.98
441.94	3269.73
442.12	3187.81
442.31	3293.13
442.50	3115.25
442.68	3389.10
442.87	3358.67
443.05	3269.73
443.24	3316.54
443.43	3283.77
443.61	3325.90
443.80	3421.86
443.98	3400.80
444.17	3251.00
444.35	3400.80
444.54	3304.84
444.73	3346.97
444.91	3353.99
445.10	3478.04
445.28	3449.95
445.47	3375.05
445.65	3398.46
445.84	3616.13
446.02	3524.85
446.21	3445.27
446.39	3452.29
446.58	3536.55
446.77	3431.23
446.95	3424.20
447.14	3538.89
447.32	3513.14
447.51	3559.95
447.69	3536.55
447.88	3356.33
448.06	3398.46
448.25	3414.84
448.43	3534.21
448.62	3358.67
448.80	3431.23
448.99	3463.99
449.17	3566.98
449.36	3529.53
449.54	3531.87
449.73	3637.19
449.91	3737.84
450.10	3625.49
450.28	3740.18
450.46	3665.28
450.65	3803.37
450.83	3758.90
451.02	3726.13
451.20	3873.59
451.39	3730.81
451.57	3669.96
451.76	3798.69
451.94	3714.43
452.13	3822.09
452.31	3733.15
452.49	3791.67
452.68	3936.78
452.86	3946.14
453.05	3875.93
453.23	3878.27
453.42	3864.22
453.60	3812.73
453.78	3882.95
453.97	3836.14
454.15	3857.20
454.34	3866.56
454.52	3995.29
454.70	3936.78
454.89	4002.32
455.07	4049.13
455.26	4025.72
455.44	4056.15
455.62	4114.66
455.81	4009.34
455.99	4037.42
456.17	4121.68
456.36	4009.34
456.54	4177.86
456.73	4248.07
456.91	4231.69
457.09	4273.82
457.28	4236.37
457.46	4156.79
457.64	4271.48
457.83	4383.82
458.01	4217.65
458.19	4346.37
458.38	4304.25
458.56	4280.84
458.74	4346.37
458.93	4444.68
459.11	4400.21
459.29	4271.48
459.48	4454.04
459.66	4489.15
459.84	4456.38
460.03	4580.43
460.21	4528.94
460.39	4472.76
460.57	4510.21
460.76	4608.51
460.94	4500.85
461.12	4400.21
461.31	4465.74
461.49	4379.14
461.67	4657.67
461.85	4559.36
462.04	4643.62
462.22	4870.65
462.40	4826.18
462.59	4812.14
462.77	4688.09
462.95	4814.48
463.13	4800.44
463.32	4760.65
463.50	4837.89
463.68	4847.25
463.86	4844.91
464.05	4725.54
464.23	4840.23
464.41	4830.87
464.59	4716.18
464.78	4917.47
464.96	4819.16
465.14	4779.37
465.32	5020.45
465.50	4947.89
465.69	5146.84
465.87	4828.53
466.05	4873.00
466.23	4936.19
466.41	5130.45
466.60	5259.18
466.78	5071.94
466.96	5074.28
467.14	4889.38
467.32	5048.54
467.51	4957.25
467.69	5006.41
467.87	5043.85
468.05	5184.29
468.23	5032.15
468.41	5233.44
468.60	5167.90
468.78	5170.24
468.96	4992.36
469.14	5200.67
469.32	5247.48
469.50	5240.46
469.69	5348.12
469.87	5413.66
470.05	5327.06
470.23	5341.10
470.41	5467.49
470.59	5455.79
470.77	5242.80
470.95	5472.17
471.14	5504.94
471.32	5329.40
471.50	5565.79
471.68	5666.44
471.86	5460.47
472.04	5537.71
472.22	5570.48
472.40	5696.86
472.58	5547.07
472.77	5811.55
472.95	5813.89
473.13	5867.72
473.31	5736.65
473.49	5710.91
473.67	5954.32
473.85	5870.06
474.03	5879.43
474.21	5916.87
474.39	6045.60
474.57	6097.10
474.75	6057.31
474.93	6181.35
475.12	5806.87
475.30	6094.76
475.48	6059.65
475.66	6321.79
475.84	6221.14
476.02	6195.40
476.20	6186.04
476.38	6408.39
476.56	6602.65
476.74	6518.39
476.92	6590.95
477.10	6516.05
477.28	6478.60
477.46	6473.92
477.64	6649.46
477.82	6806.28
478.00	6899.90
478.18	7007.56
478.36	6988.84
478.54	7009.90
478.72	6871.81
478.90	7110.55
479.08	7119.91
479.26	7197.15
479.44	7115.23
479.62	7307.15
479.80	7393.75
479.98	7248.64
480.16	7513.12
480.34	7510.78
480.52	7499.08
480.70	7566.95
480.88	7449.93
481.06	7368.01
481.24	7609.08
481.41	7838.45
481.59	7967.18
481.77	7941.44
481.95	8039.74
482.13	8021.02
482.31	8028.04
482.49	8311.24
482.67	8168.47
482.85	8301.88
483.03	8498.49
483.21	8571.04
483.39	8505.51
483.57	8552.32
483.74	8723.18
483.92	8613.17
484.10	8643.60
484.28	8784.03
484.46	9013.40
484.64	9210.01
484.82	8943.19
485.00	9062.55
485.18	9242.78
485.35	9373.85
485.53	9352.78
485.71	9448.74
485.89	9514.28
486.07	9511.94
486.25	9500.23
486.43	9589.17
486.61	9631.30
486.78	9914.51
486.96	9895.78
487.14	10181.33
487.32	10024.51
487.50	9856.00
487.68	10094.73
487.85	10399.00
488.03	10434.11
488.21	10389.64
488.39	10347.51
488.57	10712.63
488.75	10665.82
488.92	10836.68
489.10	10782.85
489.28	10871.79
489.46	11044.99
489.64	11089.46
489.81	11318.83
489.99	11035.63
490.17	11197.12
490.35	11602.04
490.53	11241.59
490.70	11763.53
490.88	11452.24
491.06	11541.18
491.24	11564.59
491.41	11655.87
491.59	11772.89
491.77	12058.44
491.95	12079.50
492.13	12147.38
492.30	12145.04
492.48	12063.12
492.66	12152.06
492.84	12231.64
493.01	12599.10
493.19	12620.17
493.37	12318.24
493.54	12760.60
493.72	12732.51
493.90	12762.94
494.08	13025.08
494.25	13078.91
494.43	13130.41
494.61	13259.13
494.79	13270.84
494.96	13118.70
495.14	13420.63
495.32	13371.48
495.49	13245.09
495.67	13521.27
495.85	13731.92
496.02	13612.56
496.20	13888.74
496.38	13762.35
496.55	13912.14
496.73	14181.31
496.91	13865.33
497.09	13877.04
497.26	13987.04
497.44	14094.71
497.62	14314.72
497.79	14476.21
497.97	14532.39
498.14	14436.42
498.32	14728.99
498.50	14644.73
498.67	14963.04
498.85	14862.40
499.03	14815.59
499.20	15012.20
499.38	14883.47
499.56	14974.75
499.73	15157.31
499.91	15171.35
500.08	15295.40
500.26	14899.85
500.44	15063.69
500.61	15337.53
500.79	15272.00
500.97	15435.83
501.14	15768.19
501.32	15873.51
501.49	15779.89
501.67	15707.34
501.84	15520.09
502.02	15634.78
502.20	15971.82
502.37	15978.84
502.55	16240.98
502.72	16006.92
502.90	16058.42
503.07	16140.33
503.25	16231.62
503.43	16032.67
503.60	16332.26
503.78	16381.41
503.95	16348.64
504.13	16332.26
504.30	16428.22
504.48	16423.54
504.65	16769.94
504.83	16807.39
505.01	16922.07
505.18	16891.65
505.36	16999.31
505.53	16865.90
505.71	16596.74
505.88	17163.15
506.06	16952.50
506.23	17137.40
506.41	17032.08
506.58	17177.19
506.76	17205.28
506.93	17380.82
507.11	17362.09
507.28	17245.07
507.46	17186.55
507.63	17598.49
507.81	17591.47
507.98	17767.01
508.16	17589.13
508.33	17944.89
508.50	17736.58
508.68	17731.90
508.85	17989.36
509.03	17994.04
509.20	18071.28
509.38	18267.88
509.55	18328.74
509.73	18183.62
509.90	18036.17
510.08	18197.67
510.25	18015.10
510.42	18176.60
510.60	18710.24
510.77	18551.09
510.95	18768.76
511.12	18665.77
511.30	18476.19
511.47	18384.91
511.64	18806.20
511.82	19035.58
511.99	18766.42
512.17	18948.98
512.34	18860.04
512.51	18988.77
512.69	18944.30
512.86	19145.58
513.04	19321.12
513.21	19377.30
513.38	19454.53
513.56	19047.28
513.73	19225.16
513.90	19274.31
514.08	19571.56
514.25	19562.20
514.43	19548.15
514.60	19351.55
514.77	19744.76
514.95	19824.34
515.12	19901.58
515.29	19590.28
515.47	19824.34
515.64	19929.66
515.81	19709.65
515.99	19950.73
516.16	19592.62
516.33	20203.50
516.51	20470.33
516.68	20112.22
516.85	20311.17
517.03	20020.94
517.20	20388.41
517.37	20563.95
517.54	20322.87
517.72	20795.66
517.89	20383.73
518.06	20884.60
518.24	20489.05
518.41	20692.68
518.58	20903.32
518.75	20280.74
518.93	20765.23
519.10	20496.07
519.27	20975.88
519.45	20737.15
519.62	20737.15
519.79	21039.08
519.96	21076.52
520.14	21245.04
520.31	20772.25
520.48	21057.80
520.65	20959.50
520.83	21216.96
521.00	21287.17
521.17	21451.01
521.34	21151.42
521.52	21434.63
521.69	21263.77
521.86	21825.50
522.03	21434.63
522.20	21465.05
522.38	21584.42
522.55	21713.15
522.72	21701.45
522.89	21778.68
523.07	22097.00
523.24	21633.57
523.41	21486.12
523.58	21687.40
523.75	22448.08
523.92	22087.64
524.10	21774.00
524.27	21977.63
524.44	22326.37
524.61	22104.02
524.78	22494.89
524.96	22230.41
525.13	22012.74
525.30	22431.69
525.47	22375.52
525.64	22623.62
525.81	22607.23
525.98	22522.98
526.16	22724.26
526.33	22581.49
526.50	22944.27
526.67	22452.76
526.84	22394.25
527.01	22609.58
527.18	22726.60
527.36	22792.14
527.53	22862.35
527.70	23175.98
527.87	22986.40
528.04	22890.44
528.21	23370.25
528.38	22993.42
528.55	22951.29
528.72	23073.00
528.89	23538.77
529.07	23321.10
529.24	23431.10
529.41	23557.49
529.58	23023.85
529.75	23262.58
529.92	23192.37
530.09	23330.46
530.26	23391.31
530.43	23461.53
530.60	23152.58
530.77	23491.96
530.94	23775.16
531.11	23597.28
531.28	23562.17
531.46	23695.58
531.63	23726.01
531.80	23866.44
531.97	23784.52
532.14	23817.29
532.31	23784.52
532.48	23814.95
532.65	24023.26
532.82	24020.92
532.99	23866.44
533.16	23718.99
533.33	24334.55
533.50	24343.91
533.67	24547.54
533.84	24025.60
534.01	23854.74
534.18	23915.59
534.35	24357.96
534.52	24051.34
534.69	24477.32
534.86	24393.06
535.03	24334.55
535.20	24425.83
535.37	24552.22
535.54	24510.09
535.71	24491.37
535.88	24336.89
536.05	24467.96
536.22	24678.61
536.38	25027.35
536.55	24673.93
536.72	24903.30
536.89	24514.77
537.06	24966.49
537.23	24940.75
537.40	24739.46
537.57	24666.91
537.74	24900.96
537.91	25081.18
538.08	25142.03
538.25	24917.34
538.42	24964.15
538.59	25102.25
538.75	24641.16
538.92	25214.59
539.09	25067.14
539.26	25546.95
539.43	25116.29
539.60	25359.70
539.77	25483.75
539.94	25465.03
540.11	25565.67
540.28	25476.73
540.44	25270.76
540.61	25062.46
540.78	25518.86
540.95	25434.60
541.12	25544.61
541.29	25476.73
541.46	25378.43
541.62	25392.47
541.79	25977.61
541.96	25308.21
542.13	25427.58
542.30	25846.54
542.47	25663.97
542.63	25816.11
542.80	25984.63
542.97	26031.44
543.14	26300.60
543.31	26316.98
543.48	26150.81
543.64	26120.38
543.81	26188.25
543.98	26551.04
544.15	26218.68
544.32	25881.64
544.48	26441.03
544.65	26279.54
544.82	26717.22
544.99	26052.50
545.16	26349.75
545.32	26302.94
545.49	26576.78
545.66	26698.49
545.83	26452.73
546.00	26553.38
546.16	26726.58
546.33	26281.88
546.50	26382.52
546.67	26834.24
546.83	26497.20
547.00	26785.09
547.17	26691.47
547.34	26799.13
547.50	26883.39
547.67	26948.93
547.84	26499.55
548.00	27138.51
548.17	26637.64
548.34	26742.96
548.51	27192.34
548.67	27220.43
548.84	26979.36
549.01	27218.09
549.18	26969.99
549.34	27239.15
549.51	27087.02
549.68	26911.48
549.84	26841.26
550.01	27026.17
550.18	27255.54
550.34	27215.75
550.51	27178.30
550.68	27194.68
550.84	27178.30
551.01	27365.54
551.18	26878.71
551.34	27253.20
551.51	26874.03
551.68	27054.25
551.84	27180.64
552.01	27016.80
552.18	27431.08
552.34	27534.06
552.51	27763.43
552.68	27435.76
552.84	27763.43
553.01	27363.20
553.18	27784.50
553.34	27894.50
553.51	27634.71
553.67	27772.80
553.84	28198.77
554.01	27946.00
554.17	27585.55
554.34	28006.85
554.51	27580.87
554.67	27700.24
554.84	27938.97
555.00	28144.94
555.17	28041.96
555.33	27817.27
555.50	27503.64
555.67	27789.18
555.83	27821.95
556.00	28196.43
556.16	28299.42
556.33	27871.10
556.50	28226.86
556.66	28222.18
556.83	28048.98
556.99	28156.64
557.16	28217.50
557.32	28301.76
557.49	28673.90
557.65	28130.90
557.82	28189.41
557.98	28065.36
558.15	28126.22
558.32	28409.42
558.48	28044.30
558.65	28107.49
558.81	28332.18
558.98	28510.07
559.14	28517.09
559.31	28496.02
559.47	28107.49
559.64	28006.85
559.80	28432.83
559.97	28217.50
560.13	28575.60
560.30	28622.41
560.46	28893.91
560.63	28655.18
560.79	28840.08
560.96	28400.06
561.12	28486.66
561.29	28739.44
561.45	28804.97
561.61	28973.49
561.78	28533.47
561.94	28381.34
562.11	28762.84
562.27	28601.35
562.44	28751.14
562.60	28425.81
562.77	28751.14
562.93	28311.12
563.10	28704.33
563.26	28444.53
563.42	28994.56
563.59	28774.55
563.75	28814.34
563.92	28924.34
564.08	28535.81
564.24	28570.92
564.41	28795.61
564.57	28486.66
564.74	29029.66
564.90	28891.57
565.07	29158.39
565.23	29326.91
565.39	29020.30
565.56	28922.00
565.72	28823.70
565.88	28739.44
566.05	28975.83
566.21	29097.54
566.38	28765.18
566.54	28566.24
566.70	29270.74
566.87	29064.77
567.03	29020.30
567.19	28954.77
567.36	28711.35
567.52	28898.59
567.68	29214.57
567.85	28790.93
568.01	29092.86
568.17	28982.85
568.34	29397.13
568.50	29364.36
568.66	29401.81
568.83	29312.87
568.99	29048.39
569.15	29081.16
569.32	29186.48
569.48	29146.69
569.64	29570.33
569.81	29319.89
569.97	29219.25
570.13	29542.24
570.30	29156.05
570.46	29095.20
570.62	29032.00
570.78	29427.56
570.95	29099.88
571.11	28968.81
571.27	29116.26
571.43	29069.45
571.60	29436.92
571.76	29223.93
571.92	29352.66
572.09	29186.48
572.25	29064.77
572.41	29645.23
572.57	29142.01
572.74	29799.70
572.90	29317.55
573.06	29170.10
573.22	29226.27
573.38	29214.57
573.55	29422.87
573.71	29303.51
573.87	29479.05
574.03	29350.32
574.20	29294.14
574.36	29275.42
574.52	29680.33
574.68	29455.64
574.84	29310.53
575.01	29212.23
575.17	29373.72
575.33	29233.29
575.49	29467.34
575.65	29631.18
575.82	29682.67
575.98	29172.44
576.14	30050.14
576.30	29572.67
576.46	29535.22
576.62	29160.73
576.79	29731.83
576.95	29228.61
577.11	29720.12
577.27	29551.60
577.43	29481.39
577.59	29572.67
577.75	29603.10
577.92	29495.43
578.08	29556.28
578.24	29352.66
578.40	29525.86
578.56	29582.03
578.72	29392.45
578.88	29811.40
579.04	29579.69
579.21	29535.22
579.37	29706.08
579.53	29600.76
579.69	29336.27
579.85	29376.06
580.01	29364.36
580.17	29355.00
580.33	29563.31
580.49	29839.49
580.65	29755.23
580.82	29757.57
580.98	29589.05
581.14	29827.79
581.30	29778.64
581.46	29125.63
581.62	29500.11
581.78	29186.48
581.94	29275.42
582.10	29792.68
582.26	29390.11
582.42	29504.79
582.58	29809.06
582.74	29677.99
582.90	29567.99
583.06	29834.81
583.22	29745.87
583.38	29390.11
583.54	29603.10
583.70	29797.36
583.86	29488.41
584.02	29720.12
584.18	29706.08
584.34	29806.72
584.50	30206.95
584.66	29647.57
584.82	29544.58
584.98	29603.10
585.14	29462.66
585.30	29383.09
585.46	29457.98
585.62	29525.86
585.78	29544.58
585.94	29509.47
586.10	29661.61
586.26	29362.02
586.42	29685.01
586.58	29713.10
586.74	29649.91
586.90	29579.69
587.06	29612.46
587.22	29640.54
587.38	29518.84
587.54	30539.31
587.70	29921.41
587.86	29902.68
588.02	30026.73
588.18	29656.93
588.34	29961.20
588.49	29937.79
588.65	29731.83
588.81	29965.88
588.97	29722.46
589.13	29607.78
589.29	29694.38
589.45	29851.19
589.61	29743.53
589.77	30085.25
589.93	30143.76
590.08	30160.14
590.24	30162.48
590.40	30309.94
590.56	30171.85
590.72	29961.20
590.88	29832.47
591.04	29970.56
591.20	30562.72
591.35	30300.58
591.51	30242.06
591.67	30068.86
591.83	30235.04
591.99	30338.02
