SpectraSuite Data File
++++++++++++++++++++++++++++++++++++
Date: Fri Oct 18 13:58:02 GMT-05:00 2013
User: bianchi
Dark Spectrum Present: No
Reference Spectrum Present: No
Number of Sampled Component Spectra: 1
Spectrometers: USB2+H05261
Integration Time (usec): 50000 (USB2+H05261)
Spectra Averaged: 1 (USB2+H05261)
Boxcar Smoothing: 0 (USB2+H05261)
Correct for Electrical Dark: No (USB2+H05261)
Strobe/Lamp Enabled: No (USB2+H05261)
Correct for Detector Non-linearity: No (USB2+H05261)
Correct for Stray Light: No (USB2+H05261)
Number of Pixels in Processed Spectrum: 2048
>>>>>Begin Processed Spectral Data<<<<<
365.73	0.00
365.92	0.00
366.12	0.00
366.32	0.00
366.52	0.00
366.72	0.00
366.91	0.00
367.11	0.00
367.31	0.00
367.51	0.00
367.70	0.00
367.90	0.00
368.10	0.00
368.30	0.00
368.49	0.00
368.69	0.00
368.89	0.00
369.09	0.00
369.28	0.00
369.48	0.00
369.68	0.00
369.87	0.00
370.07	0.00
370.27	0.00
370.47	0.00
370.66	98.30
370.86	100.64
371.06	42.13
371.25	114.69
371.45	100.64
371.65	131.07
371.84	138.09
372.04	168.52
372.24	147.45
372.44	224.69
372.63	205.97
372.83	234.05
373.03	245.76
373.22	248.10
373.42	156.82
373.62	250.44
373.81	131.07
374.01	262.14
374.21	264.48
374.40	194.26
374.60	210.65
374.79	229.37
374.99	184.90
375.19	248.10
375.38	262.14
375.58	198.95
375.78	264.48
375.97	301.93
376.17	189.58
376.37	276.18
376.56	365.12
376.76	264.48
376.95	220.01
377.15	248.10
377.35	301.93
377.54	292.57
377.74	299.59
377.93	353.42
378.13	250.44
378.33	252.78
378.52	299.59
378.72	273.84
378.91	341.72
379.11	173.20
379.31	332.36
379.50	273.84
379.70	294.91
379.89	351.08
380.09	341.72
380.28	283.20
380.48	243.42
380.68	259.80
380.87	297.25
381.07	330.02
381.26	322.99
381.46	318.31
381.65	374.49
381.85	330.02
382.04	311.29
382.24	346.40
382.43	376.83
382.63	362.78
382.83	386.19
383.02	407.25
383.22	393.21
383.41	301.93
383.61	341.72
383.80	341.72
384.00	367.46
384.19	355.76
384.39	423.64
384.58	376.83
384.78	425.98
384.97	379.17
385.17	322.99
385.36	383.85
385.56	400.23
385.75	393.21
385.95	358.10
386.14	367.46
386.34	409.59
386.53	360.44
386.72	411.93
386.92	381.51
387.11	341.72
387.31	390.87
387.50	367.46
387.70	428.32
387.89	376.83
388.09	447.04
388.28	416.62
388.48	355.76
388.67	430.66
388.86	521.94
389.06	449.38
389.25	400.23
389.45	507.90
389.64	458.74
389.84	472.79
390.03	475.13
390.22	477.47
390.42	414.27
390.61	482.15
390.81	479.81
391.00	519.60
391.19	512.58
391.39	500.87
391.58	491.51
391.78	486.83
391.97	535.98
392.16	447.04
392.36	559.39
392.55	564.07
392.75	557.05
392.94	496.19
393.13	624.92
393.33	575.77
393.52	554.71
393.71	533.64
393.91	645.99
394.10	587.47
394.29	524.28
394.49	500.87
394.68	676.41
394.88	519.60
395.07	615.56
395.26	592.16
395.46	587.47
395.65	660.03
395.84	650.67
396.04	634.29
396.23	664.71
396.42	627.26
396.62	718.54
396.81	692.80
397.00	650.67
397.19	690.46
397.39	664.71
397.58	645.99
397.77	615.56
397.97	716.20
398.16	678.76
398.35	681.10
398.55	641.31
398.74	660.03
398.93	699.82
399.12	704.50
399.32	660.03
399.51	755.99
399.70	711.52
399.90	716.20
400.09	732.59
400.28	758.33
400.47	688.12
400.67	795.78
400.86	802.80
401.05	741.95
401.24	805.14
401.44	786.42
401.63	779.40
401.82	753.65
402.01	760.67
402.21	856.64
402.40	791.10
402.59	826.21
402.78	938.55
402.97	851.96
403.17	812.17
403.36	777.06
403.55	915.15
403.74	910.47
403.93	908.13
404.13	903.45
404.32	952.60
404.51	976.00
404.70	964.30
404.89	917.49
405.09	1001.75
405.28	985.37
405.47	908.13
405.66	961.96
405.85	933.87
406.05	915.15
406.24	1001.75
406.43	1100.05
406.62	952.60
406.81	1111.75
407.00	968.98
407.20	978.34
407.39	1046.22
407.58	1032.18
407.77	1004.09
407.96	1114.10
408.15	1088.35
408.34	1078.99
408.54	1107.07
408.73	1090.69
408.92	1123.46
409.11	1207.72
409.30	1160.91
409.49	1071.97
409.68	1228.78
409.87	1125.80
410.07	1165.59
410.26	1228.78
410.45	1144.52
410.64	1273.25
410.83	1348.15
411.02	1233.46
411.21	1263.89
411.40	1273.25
411.59	1252.19
411.78	1261.55
411.98	1226.44
412.17	1252.19
412.36	1282.61
412.55	1273.25
412.74	1320.06
412.93	1359.85
413.12	1282.61
413.31	1373.89
413.50	1371.55
413.69	1401.98
413.88	1406.66
414.07	1465.18
414.26	1451.13
414.45	1504.96
414.64	1476.88
414.83	1448.79
415.02	1605.61
415.22	1586.88
415.41	1533.05
415.60	1572.84
415.79	1521.35
415.98	1565.82
416.17	1633.69
416.36	1732.00
416.55	1629.01
416.74	1607.95
416.93	1685.19
417.12	1678.16
417.31	1633.69
417.50	1736.68
417.69	1727.32
417.88	1753.06
418.07	1659.44
418.26	1767.10
418.45	1753.06
418.64	1881.79
418.83	1778.81
419.02	1795.19
419.21	1795.19
419.39	1778.81
419.58	1764.76
419.77	1797.53
419.96	1900.52
420.15	1877.11
420.34	2015.20
420.53	1858.39
420.72	1942.64
420.91	1872.43
421.10	1860.73
421.29	2005.84
421.48	1935.62
421.67	1961.37
421.86	1937.96
422.05	1947.33
422.24	1949.67
422.43	1877.11
422.61	1980.09
422.80	1956.69
422.99	2108.82
423.18	2080.74
423.37	2059.67
423.56	1982.43
423.75	2047.97
423.94	2057.33
424.13	1781.15
424.32	1952.01
424.50	2038.61
424.69	2001.16
424.88	2015.20
425.07	1982.43
425.26	2005.84
425.45	2040.95
425.64	2073.71
425.83	2099.46
426.01	2057.33
426.20	2024.56
426.39	2113.50
426.58	2033.93
426.77	2064.35
426.96	2207.13
427.15	2092.44
427.33	2162.66
427.52	2043.29
427.71	2169.68
427.90	2043.29
428.09	2286.70
428.28	2172.02
428.46	2289.04
428.65	2132.23
428.84	2242.23
429.03	2312.45
429.22	2176.70
429.40	2263.30
429.59	2319.47
429.78	2115.84
429.97	2141.59
430.16	2216.49
430.34	2317.13
430.53	2338.20
430.72	2366.28
430.91	2291.38
431.10	2282.02
431.28	2385.01
431.47	2340.54
431.66	2424.80
431.85	2267.98
432.03	2396.71
432.22	2422.45
432.41	2429.48
432.60	2375.64
432.79	2340.54
432.97	2462.24
433.16	2473.95
433.35	2366.28
433.54	2513.74
433.72	2513.74
433.91	2420.11
434.10	2473.95
434.28	2555.86
434.47	2612.04
434.66	2600.34
434.85	2703.32
435.03	2537.14
435.22	2565.23
435.41	2672.89
435.59	2635.44
435.78	2525.44
435.97	2548.84
436.16	2579.27
436.34	2644.81
436.53	2609.70
436.72	2710.34
436.90	2579.27
437.09	2672.89
437.28	2670.55
437.46	2782.90
437.65	2719.70
437.84	2773.53
438.02	2787.58
438.21	2841.41
438.40	2839.07
438.58	2867.16
438.77	2874.18
438.96	2904.60
439.14	2944.39
439.33	3023.97
439.52	3019.29
439.70	2984.18
439.89	3028.65
440.08	3033.33
440.26	3040.36
440.45	3030.99
440.63	3213.56
440.82	3061.42
441.01	3208.87
441.19	3089.51
441.38	3274.41
441.57	3103.55
441.75	3342.28
441.94	3281.43
442.12	3321.22
442.31	3445.27
442.50	3267.39
442.68	3234.62
442.87	3297.81
443.05	3428.88
443.24	3440.59
443.43	3267.39
443.61	3412.50
443.80	3417.18
443.98	3421.86
444.17	3183.13
444.35	3445.27
444.54	3463.99
444.73	3389.10
444.91	3384.41
445.10	3463.99
445.28	3365.69
445.47	3417.18
445.65	3454.63
445.84	3541.23
446.02	3557.61
446.21	3344.63
446.39	3524.85
446.58	3449.95
446.77	3604.42
446.95	3445.27
447.14	3487.40
447.32	3485.06
447.51	3325.90
447.69	3452.29
447.88	3452.29
448.06	3475.70
448.25	3492.08
448.43	3552.93
448.62	3637.19
448.80	3454.63
448.99	3566.98
449.17	3562.30
449.36	3559.95
449.54	3761.24
449.73	3684.00
449.91	3747.20
450.10	3644.21
450.28	3721.45
450.46	3864.22
450.65	3620.81
450.83	3789.33
451.02	3695.71
451.20	3829.12
451.39	3751.88
451.57	3749.54
451.76	3896.99
451.94	3978.91
452.13	3857.20
452.31	3925.08
452.49	3751.88
452.68	3857.20
452.86	3794.01
453.05	3871.25
453.23	4037.42
453.42	3765.92
453.60	3911.04
453.78	3866.56
453.97	3920.40
454.15	3714.43
454.34	3896.99
454.52	4119.34
454.70	3920.40
454.89	3908.69
455.07	3953.16
455.26	4142.75
455.44	4173.18
455.62	4142.75
455.81	4067.85
455.99	4072.53
456.17	4208.28
456.36	4093.60
456.54	4170.83
456.73	4133.39
456.91	4215.30
457.09	4404.89
457.28	4219.99
457.46	4416.59
457.64	4353.40
457.83	4397.87
458.01	4386.16
458.19	4362.76
458.38	4315.95
458.56	4447.02
458.74	4273.82
458.93	4271.48
459.11	4395.53
459.29	4252.75
459.48	4496.17
459.66	4416.59
459.84	4629.58
460.03	4545.32
460.21	4512.55
460.39	4531.28
460.57	4571.07
460.76	4435.32
460.94	4683.41
461.12	4629.58
461.31	4624.90
461.49	4547.66
461.67	4669.37
461.85	4690.43
462.04	4575.75
462.22	4938.53
462.40	4690.43
462.59	4793.42
462.77	4875.34
462.95	4692.77
463.13	4678.73
463.32	4863.63
463.50	4875.34
463.68	4809.80
463.86	4772.35
464.05	4758.31
464.23	4755.97
464.41	4873.00
464.59	4887.04
464.78	5118.75
464.96	4954.91
465.14	4821.50
465.32	5011.09
465.50	4905.76
465.69	5114.07
465.87	4711.50
466.05	5015.77
466.23	4807.46
466.41	4898.74
466.60	5184.29
466.78	5083.64
466.96	5006.41
467.14	5144.50
467.32	5118.75
467.51	5233.44
467.69	4971.30
467.87	5125.77
468.05	5245.14
468.23	5149.18
468.41	5217.05
468.60	5231.10
468.78	5238.12
468.96	5076.62
469.14	5334.08
469.32	5247.48
469.50	4992.36
469.69	5336.42
469.87	5444.09
470.05	5427.70
470.23	5434.72
470.41	5420.68
470.59	5378.55
470.77	5715.59
470.95	5589.20
471.14	5603.24
471.32	5411.32
471.50	5654.73
471.68	5687.50
471.86	5626.65
472.04	5427.70
472.22	5689.84
472.40	5710.91
472.58	5542.39
472.77	5661.76
472.95	5755.38
473.13	6083.05
473.31	5879.43
473.49	5699.20
473.67	5797.51
473.85	5846.66
474.03	6031.56
474.21	5940.28
474.39	5963.68
474.57	5984.75
474.75	6197.74
474.93	6132.20
475.12	6228.17
475.30	6279.66
475.48	6024.54
475.66	6183.70
475.84	6256.25
476.02	6483.28
476.20	6300.72
476.38	6424.77
476.56	6555.84
476.74	6523.07
476.92	6736.06
477.10	6504.35
477.28	6586.27
477.46	6644.78
477.64	6726.70
477.82	6883.52
478.00	7005.22
478.18	6993.52
478.36	6972.46
478.54	6988.84
478.72	7281.41
478.90	7197.15
479.08	7045.01
479.26	7232.26
479.44	7311.83
479.62	7405.46
479.80	7428.86
479.98	7356.30
480.16	7569.29
480.34	7365.67
480.52	7676.96
480.70	7735.47
480.88	7676.96
481.06	7695.68
481.24	7651.21
481.41	7861.86
481.59	7925.05
481.77	8081.87
481.95	7941.44
482.13	8280.82
482.31	8252.73
482.49	8219.96
482.67	8102.93
482.85	8369.76
483.03	8236.35
483.21	8566.36
483.39	8531.25
483.57	8587.43
483.74	8606.15
483.92	8791.05
484.10	8559.34
484.28	8889.35
484.46	9053.19
484.64	9268.52
484.82	9144.47
485.00	9062.55
485.18	9448.74
485.35	9451.08
485.53	9687.48
485.71	9219.37
485.89	9638.33
486.07	9469.81
486.25	9715.56
486.43	9797.48
486.61	9776.42
486.78	9762.37
486.96	10054.94
487.14	10249.21
487.32	10029.20
487.50	10038.56
487.68	10361.55
487.85	10043.24
488.03	10623.69
488.21	10595.61
488.39	10567.52
488.57	10726.68
488.75	10611.99
488.92	10759.44
489.10	10977.11
489.28	10953.71
489.46	10906.90
489.64	11056.69
489.81	11234.57
489.99	11089.46
490.17	11435.86
490.35	11562.25
490.53	11712.04
490.70	11779.92
490.88	11634.80
491.06	11882.90
491.24	11822.05
491.41	11822.05
491.59	12070.14
491.77	12123.98
491.95	12053.76
492.13	12301.86
492.30	12175.47
492.48	12339.30
492.66	12409.52
492.84	12449.31
493.01	12727.83
493.19	12634.21
493.37	12730.17
493.54	12830.82
493.72	12744.22
493.90	12980.61
494.08	13165.51
494.25	13050.83
494.43	13053.17
494.61	13238.07
494.79	13547.02
494.96	13291.90
495.14	13352.76
495.32	13312.97
495.49	13778.73
495.67	13652.34
495.85	13745.97
496.02	13596.17
496.20	14188.33
496.38	13846.61
496.55	14085.34
496.73	14174.28
496.91	14141.52
497.09	14221.10
497.26	14504.30
497.44	14136.84
497.62	14560.47
497.79	14633.03
497.97	14534.73
498.14	14808.57
498.32	15129.22
498.50	15103.48
498.67	14857.72
498.85	14710.27
499.03	15049.64
499.20	14885.81
499.38	15267.31
499.56	15260.29
499.73	15180.71
499.91	15253.27
500.08	15527.11
500.26	15386.68
500.44	15496.69
500.61	15459.24
500.79	15704.99
500.97	15295.40
501.14	15793.94
501.32	15995.22
501.49	15796.28
501.67	15934.37
501.84	16095.86
502.02	15920.32
502.20	16013.95
502.37	16145.02
502.55	16313.53
502.72	16095.86
502.90	16182.46
503.07	16084.16
503.25	16107.57
503.43	16315.87
503.60	16720.79
503.78	16709.08
503.95	16779.30
504.13	16498.44
504.30	16659.93
504.48	16772.28
504.65	16704.40
504.83	16915.05
505.01	17156.13
505.18	17001.65
505.36	17060.16
505.53	17268.47
505.71	16973.56
505.88	17069.53
506.06	16898.67
506.23	17195.92
506.41	17572.74
506.58	17745.94
506.76	17451.03
506.93	17413.59
507.11	17252.09
507.28	17472.10
507.46	17736.58
507.63	17832.54
507.81	17795.09
507.98	17834.88
508.16	17860.63
508.33	17776.37
508.50	17994.04
508.68	18249.16
508.85	17954.25
509.03	17980.00
509.20	18356.82
509.38	18260.86
509.55	18597.90
509.73	18162.56
509.90	18398.95
510.08	18422.36
510.25	18295.97
510.42	18492.57
510.60	18544.06
510.77	18515.98
510.95	19183.03
511.12	18565.13
511.30	18970.04
511.47	18853.02
511.64	18995.79
511.82	18902.17
511.99	19021.53
512.17	19267.29
512.34	19133.88
512.51	19550.49
512.69	19325.80
512.86	19400.70
513.04	19534.11
513.21	19520.07
513.38	19468.58
513.56	19520.07
513.73	19360.91
513.90	19590.28
514.08	19522.41
514.25	19398.36
514.43	19768.16
514.60	19489.64
514.77	19782.21
514.95	20006.90
515.12	19843.06
515.29	19861.79
515.47	20100.52
515.64	20315.85
515.81	20467.98
515.99	20379.04
516.16	20163.72
516.33	20201.16
516.51	20343.94
516.68	19976.47
516.85	20533.52
517.03	20421.17
517.20	20552.24
517.37	20365.00
517.54	20475.01
517.72	20924.39
517.89	20563.95
518.06	20636.50
518.24	20643.52
518.41	20903.32
518.58	21001.63
518.75	20695.02
518.93	20999.29
519.10	21062.48
519.27	20856.51
519.45	20889.28
519.62	21081.21
519.79	21041.42
519.96	21333.98
520.14	21362.07
520.31	21003.97
520.48	21521.23
520.65	21460.37
520.83	21593.78
521.00	21483.78
521.17	21364.41
521.34	21563.36
521.52	21359.73
521.69	21649.96
521.86	21862.94
522.03	21664.00
522.20	21923.80
522.38	21809.11
522.55	21799.75
522.72	22033.80
522.89	21944.86
523.07	22246.79
523.24	21937.84
523.41	22281.90
523.58	22209.34
523.75	22174.24
523.92	22097.00
524.10	22169.55
524.27	22490.21
524.44	22663.41
524.61	22487.87
524.78	22796.82
524.96	22541.70
525.13	22932.57
525.30	22602.55
525.47	22792.14
525.64	22700.86
525.81	22759.37
525.98	22813.20
526.16	22658.73
526.33	22572.13
526.50	22937.25
526.67	22810.86
526.84	22904.48
527.01	23197.05
527.18	23285.99
527.36	23164.28
527.53	23175.98
527.70	23323.44
527.87	23412.38
528.04	23290.67
528.21	23278.97
528.38	23297.69
528.55	23513.02
528.72	23356.21
528.89	23454.51
529.07	23625.37
529.24	23332.80
529.41	23213.43
529.58	23604.30
529.75	23344.50
529.92	23264.92
530.09	23791.55
530.26	23669.84
530.43	23718.99
530.60	23527.06
530.77	23784.52
530.94	24018.58
531.11	23220.45
531.28	23817.29
531.46	23718.99
531.63	23931.98
531.80	24037.30
531.97	24269.01
532.14	24479.66
532.31	23985.81
532.48	24348.59
532.65	24215.18
532.82	24100.50
532.99	24247.95
533.16	24364.98
533.33	24386.04
533.50	24584.99
533.67	24650.52
533.84	24570.94
534.01	24283.06
534.18	24266.67
534.35	24549.88
534.52	24573.28
534.69	24982.88
534.86	24968.84
535.03	25029.69
535.20	24652.86
535.37	24830.74
535.54	25041.39
535.71	24563.92
535.88	24931.39
536.05	24601.37
536.22	24788.61
536.38	25230.98
536.55	24835.42
536.72	25132.67
536.89	24929.05
537.06	25235.66
537.23	25095.22
537.40	25032.03
537.57	25511.84
537.74	25287.15
537.91	25280.13
538.08	25448.64
538.25	25537.59
538.42	25427.58
538.59	25577.37
538.75	25261.40
538.92	25659.29
539.09	25441.62
539.26	25376.09
539.43	26017.40
539.60	25631.21
539.77	25280.13
539.94	25755.26
540.11	25858.24
540.28	25502.48
540.44	26031.44
540.61	25713.13
540.78	25862.92
540.95	25823.13
541.12	25748.23
541.29	25940.16
541.46	25631.21
541.62	25783.34
541.79	25862.92
541.96	25928.45
542.13	25722.49
542.30	26237.41
542.47	26071.23
542.63	26043.14
542.80	26284.22
542.97	26583.80
543.14	26499.55
543.31	26331.03
543.48	26253.79
543.64	26778.07
543.81	26319.32
543.98	26494.86
544.15	26794.45
544.32	26806.16
544.48	26623.59
544.65	26611.89
544.82	26513.59
544.99	26394.22
545.16	26862.33
545.32	26625.93
545.49	26742.96
545.66	27337.46
545.83	27192.34
546.00	26927.86
546.16	27037.87
546.33	26558.06
546.50	26735.94
546.67	26988.72
546.83	26602.53
547.00	27152.55
547.17	26848.29
547.34	27007.44
547.50	27290.65
547.67	27545.76
547.84	27166.60
548.00	27166.60
548.17	27508.32
548.34	27026.17
548.51	27459.16
548.67	27370.22
548.84	27424.06
549.01	27445.12
549.18	27550.45
549.34	27529.38
549.51	27676.83
549.68	27281.28
549.84	27056.59
550.01	27346.82
550.18	27608.96
550.34	27730.67
550.51	27906.21
550.68	27826.63
550.84	27337.46
551.01	27550.45
551.18	27653.43
551.34	27456.82
551.51	27955.36
551.68	27662.79
551.84	27749.39
552.01	27606.62
552.18	28070.04
552.34	27810.25
552.51	27728.33
552.68	27578.53
552.84	28126.22
553.01	28198.77
553.18	27915.57
553.34	28226.86
553.51	28039.62
553.67	28280.69
553.84	28184.73
554.01	28238.56
554.17	28479.64
554.34	28060.68
554.51	27974.08
554.67	28114.52
554.84	28332.18
555.00	28194.09
555.17	28109.83
555.33	28542.83
555.50	27674.49
555.67	28407.08
555.83	28294.74
556.00	28332.18
556.16	28439.85
556.33	28374.31
556.50	28458.57
556.66	28664.54
556.83	28180.05
556.99	28718.37
557.16	28201.11
557.32	28819.02
557.49	28641.14
557.65	28112.17
557.82	28458.57
557.98	28603.69
558.15	28568.58
558.32	28914.98
558.48	28322.82
558.65	29001.58
558.81	28732.42
558.98	28606.03
559.14	28643.48
559.31	28680.92
559.47	28879.87
559.64	28858.81
559.80	29017.96
559.97	29010.94
560.13	28840.08
560.30	28671.56
560.46	29013.28
560.63	29029.66
560.79	28989.88
560.96	28851.78
561.12	29134.99
561.29	28954.77
561.45	28793.27
561.61	29158.39
561.78	28793.27
561.94	29240.31
562.11	29027.32
562.27	29062.43
562.44	29223.93
562.60	28999.24
562.77	29076.48
562.93	28720.71
563.10	29322.23
563.26	29146.69
563.42	29200.52
563.59	29151.37
563.75	28863.49
563.92	29507.13
564.08	29181.80
564.24	28917.32
564.41	29275.42
564.57	29202.86
564.74	29408.83
564.90	29345.64
565.07	29048.39
565.23	29165.42
565.39	29167.76
565.56	29312.87
565.72	29322.23
565.88	29179.46
566.05	29127.97
566.21	29153.71
566.38	29289.46
566.54	29331.59
566.70	29518.84
566.87	29502.45
567.03	29406.49
567.19	29825.45
567.36	29631.18
567.52	29586.71
567.68	29890.98
567.85	29539.90
568.01	29324.57
568.17	29530.54
568.34	29858.21
568.50	29359.68
568.66	29617.14
568.83	29462.66
568.99	29202.86
569.15	29862.90
569.32	29675.65
569.48	29188.82
569.64	29706.08
569.81	29422.87
569.97	29500.11
570.13	29890.98
570.30	29701.40
570.46	29764.59
570.62	29551.60
570.78	30155.46
570.95	29151.37
571.11	29633.52
571.27	29612.46
571.43	29237.97
571.60	29820.77
571.76	29799.70
571.92	29876.94
572.09	29958.86
572.25	29928.43
572.41	29982.26
572.57	29685.01
572.74	29916.73
572.90	29277.76
573.06	29575.01
573.22	30087.59
573.38	29635.86
573.55	29804.38
573.71	30101.63
573.87	29984.60
574.03	29867.58
574.20	29993.97
574.36	29949.50
574.52	29890.98
574.68	29736.51
574.84	30129.72
575.01	30061.84
575.17	29708.42
575.33	29619.48
575.49	29848.85
575.65	29867.58
575.82	29788.00
575.98	29993.97
576.14	29874.60
576.30	30033.75
576.46	29797.36
576.62	29593.73
576.79	30174.19
576.95	29844.17
577.11	29806.72
577.27	29921.41
577.43	30052.48
577.59	29944.81
577.75	29872.26
577.92	29853.53
578.08	29766.93
578.24	29991.62
578.40	29694.38
578.56	30005.67
578.72	30237.38
578.88	30082.91
579.04	30059.50
579.21	29869.92
579.37	30094.61
579.53	30218.66
579.69	29933.11
579.85	29958.86
580.01	30040.78
580.17	30000.99
580.33	30246.74
580.49	30036.09
580.65	30305.26
580.82	30150.78
580.98	30174.19
581.14	30110.99
581.30	30480.80
581.46	30197.59
581.62	30178.87
581.78	29909.71
581.94	29998.65
582.10	29947.15
582.26	29785.66
582.42	29628.84
582.58	29832.47
582.74	30050.14
582.90	30010.35
583.06	30103.97
583.22	30064.18
583.38	29926.09
583.54	29986.94
583.70	29818.42
583.86	30073.54
584.02	29867.58
584.18	30136.74
584.34	30106.31
584.50	30363.77
584.66	30059.50
584.82	29802.04
584.98	30359.09
585.14	30256.11
585.30	30005.67
585.46	30057.16
585.62	29902.68
585.78	30017.37
585.94	29916.73
586.10	30588.46
586.26	30382.49
586.42	30356.75
586.58	30441.01
586.74	30132.06
586.90	30068.86
587.06	29689.70
587.22	30216.32
587.38	30274.83
587.54	30155.46
587.70	30588.46
587.86	30778.04
588.02	30300.58
588.18	30162.48
588.34	30511.22
588.49	30237.38
588.65	30331.00
588.81	30478.46
588.97	30143.76
589.13	30476.12
589.29	30026.73
589.45	29886.30
589.61	30522.93
589.77	30745.28
589.93	30532.29
590.08	30588.46
590.24	30764.00
590.40	30738.26
590.56	30298.23
590.72	30230.36
590.88	30499.52
591.04	29923.75
591.20	30845.92
591.35	30857.62
591.51	30347.39
591.67	30733.57
591.83	31129.12
591.99	30883.37
