SpectraSuite Data File
++++++++++++++++++++++++++++++++++++
Date: Fri Oct 18 13:58:12 GMT-05:00 2013
User: bianchi
Dark Spectrum Present: No
Reference Spectrum Present: No
Number of Sampled Component Spectra: 1
Spectrometers: USB2+H05261
Integration Time (usec): 50000 (USB2+H05261)
Spectra Averaged: 1 (USB2+H05261)
Boxcar Smoothing: 0 (USB2+H05261)
Correct for Electrical Dark: No (USB2+H05261)
Strobe/Lamp Enabled: No (USB2+H05261)
Correct for Detector Non-linearity: No (USB2+H05261)
Correct for Stray Light: No (USB2+H05261)
Number of Pixels in Processed Spectrum: 2048
>>>>>Begin Processed Spectral Data<<<<<
365.73	0.00
365.92	0.00
366.12	0.00
366.32	0.00
366.52	0.00
366.72	0.00
366.91	0.00
367.11	0.00
367.31	0.00
367.51	0.00
367.70	0.00
367.90	0.00
368.10	0.00
368.30	0.00
368.49	0.00
368.69	0.00
368.89	0.00
369.09	0.00
369.28	0.00
369.48	0.00
369.68	0.00
369.87	0.00
370.07	0.00
370.27	0.00
370.47	9.36
370.66	117.03
370.86	105.32
371.06	88.94
371.25	175.54
371.45	156.82
371.65	138.09
371.84	210.65
372.04	107.66
372.24	191.92
372.44	147.45
372.63	203.63
372.83	180.22
373.03	175.54
373.22	189.58
373.42	189.58
373.62	210.65
373.81	198.95
374.01	229.37
374.21	287.89
374.40	276.18
374.60	262.14
374.79	264.48
374.99	264.48
375.19	222.35
375.38	280.86
375.58	276.18
375.78	243.42
375.97	292.57
376.17	313.63
376.37	311.29
376.56	330.02
376.76	248.10
376.95	276.18
377.15	276.18
377.35	224.69
377.54	290.23
377.74	285.55
377.93	297.25
378.13	227.03
378.33	292.57
378.52	351.08
378.72	313.63
378.91	271.50
379.11	285.55
379.31	299.59
379.50	327.68
379.70	224.69
379.89	280.86
380.09	369.80
380.28	404.91
380.48	283.20
380.68	266.82
380.87	322.99
381.07	283.20
381.26	386.19
381.46	341.72
381.65	358.10
381.85	332.36
382.04	287.89
382.24	320.65
382.43	334.70
382.63	360.44
382.83	332.36
383.02	379.17
383.22	358.10
383.41	348.74
383.61	374.49
383.80	397.89
384.00	381.51
384.19	376.83
384.39	337.04
384.58	344.06
384.78	348.74
384.97	414.27
385.17	341.72
385.36	362.78
385.56	433.00
385.75	351.08
385.95	355.76
386.14	376.83
386.34	404.91
386.53	470.45
386.72	411.93
386.92	468.11
387.11	395.55
387.31	437.68
387.50	362.78
387.70	430.66
387.89	381.51
388.09	407.25
388.28	458.74
388.48	421.30
388.67	491.51
388.86	533.64
389.06	524.28
389.25	535.98
389.45	505.56
389.64	430.66
389.84	435.34
390.03	451.72
390.22	571.09
390.42	528.96
390.61	477.47
390.81	475.13
391.00	461.09
391.19	468.11
391.39	521.94
391.58	594.50
391.78	519.60
391.97	538.32
392.16	510.24
392.36	573.43
392.55	550.03
392.75	610.88
392.94	587.47
393.13	580.45
393.33	463.43
393.52	531.30
393.71	578.11
393.91	535.98
394.10	589.82
394.29	692.80
394.49	564.07
394.68	592.16
394.88	585.13
395.07	573.43
395.26	561.73
395.46	629.60
395.65	660.03
395.84	678.76
396.04	692.80
396.23	678.76
396.42	720.88
396.62	702.16
396.81	545.34
397.00	653.01
397.19	692.80
397.39	739.61
397.58	667.05
397.77	667.05
397.97	645.99
398.16	711.52
398.35	655.35
398.55	671.73
398.74	655.35
398.93	645.99
399.12	720.88
399.32	753.65
399.51	674.07
399.70	807.48
399.90	755.99
400.09	763.01
400.28	791.10
400.47	784.08
400.67	821.53
400.86	873.02
401.05	894.08
401.24	798.12
401.44	807.48
401.63	835.57
401.82	793.44
402.01	770.04
402.21	727.91
402.40	830.89
402.59	800.46
402.78	833.23
402.97	861.32
403.17	875.36
403.36	910.47
403.55	880.04
403.74	894.08
403.93	945.58
404.13	880.04
404.32	917.49
404.51	826.21
404.70	950.26
404.89	973.66
405.09	964.30
405.28	931.53
405.47	954.94
405.66	1004.09
405.85	1025.15
406.05	1062.60
406.24	957.28
406.43	1004.09
406.62	1027.50
406.81	1125.80
407.00	1006.43
407.20	964.30
407.39	1095.37
407.58	994.73
407.77	980.68
407.96	1179.63
408.15	992.39
408.34	978.34
408.54	1069.62
408.73	1081.33
408.92	1200.69
409.11	1191.33
409.30	1067.28
409.49	1156.22
409.68	1177.29
409.87	1064.94
410.07	1228.78
410.26	1184.31
410.45	1233.46
410.64	1224.10
410.83	1203.04
411.02	1263.89
411.21	1277.93
411.40	1245.16
411.59	1324.74
411.78	1275.59
411.98	1327.08
412.17	1287.29
412.36	1336.45
412.55	1380.92
412.74	1341.13
412.93	1423.05
413.12	1345.81
413.31	1301.34
413.50	1383.26
413.69	1434.75
413.88	1444.11
414.07	1418.36
414.26	1439.43
414.45	1509.65
414.64	1568.16
414.83	1556.46
415.02	1530.71
415.22	1497.94
415.41	1474.54
415.60	1507.30
415.79	1638.38
415.98	1680.50
416.17	1701.57
416.36	1645.40
416.55	1708.59
416.74	1619.65
416.93	1610.29
417.12	1652.42
417.31	1874.77
417.50	1727.32
417.69	1755.40
417.88	1614.97
418.07	1785.83
418.26	1748.38
418.45	1792.85
418.64	1839.66
418.83	1776.47
419.02	1813.92
419.21	1790.51
419.39	1834.98
419.58	1788.17
419.77	1783.49
419.96	1879.45
420.15	1865.41
420.34	1851.36
420.53	1914.56
420.72	1987.11
420.91	1825.62
421.10	2005.84
421.29	2080.74
421.48	1968.39
421.67	1909.88
421.86	2054.99
422.05	1982.43
422.24	2043.29
422.43	1881.79
422.61	2087.76
422.80	2019.88
422.99	2038.61
423.18	2069.03
423.37	2092.44
423.56	2066.69
423.75	1975.41
423.94	1970.73
424.13	1802.21
424.32	1837.32
424.50	1984.77
424.69	2230.53
424.88	2225.85
425.07	1956.69
425.26	2029.24
425.45	2045.63
425.64	1994.14
425.83	2040.95
426.01	2181.38
426.20	2054.99
426.39	2078.40
426.58	2223.51
426.77	2150.95
426.96	2026.90
427.15	2026.90
427.33	2256.28
427.52	2083.08
427.71	2176.70
427.90	2314.79
428.09	2195.42
428.28	2225.85
428.46	2244.57
428.65	2270.32
428.84	2324.15
429.03	2317.13
429.22	2101.80
429.40	2246.91
429.59	2363.94
429.78	2223.51
429.97	2214.15
430.16	2183.72
430.34	2293.72
430.53	2326.49
430.72	2380.32
430.91	2385.01
431.10	2307.77
431.28	2314.79
431.47	2356.92
431.66	2485.65
431.85	2413.09
432.03	2466.92
432.22	2537.14
432.41	2443.52
432.60	2523.10
432.79	2450.54
432.97	2424.80
433.16	2502.03
433.35	2525.44
433.54	2569.91
433.72	2548.84
433.91	2588.63
434.10	2469.27
434.28	2455.22
434.47	2492.67
434.66	2607.36
434.85	2677.57
435.03	2726.72
435.22	2623.74
435.41	2785.24
435.59	2679.91
435.78	2693.96
435.97	2668.21
436.16	2670.55
436.34	2801.62
436.53	2642.46
436.72	2825.03
436.90	2605.02
437.09	2764.17
437.28	2712.68
437.46	2825.03
437.65	2764.17
437.84	2930.35
438.02	2841.41
438.21	2801.62
438.40	2703.32
438.58	2909.29
438.77	3052.06
438.96	2939.71
439.14	2956.10
439.33	2906.95
439.52	2984.18
439.70	3000.57
439.89	3063.76
440.08	3103.55
440.26	3070.78
440.45	3138.66
440.63	3173.77
440.82	3028.65
441.01	3009.93
441.19	3222.92
441.38	3251.00
441.57	3204.19
441.75	3414.84
441.94	3255.69
442.12	3302.50
442.31	3262.71
442.50	3353.99
442.68	3562.30
442.87	3400.80
443.05	3321.22
443.24	3403.14
443.43	3227.60
443.61	3368.03
443.80	3410.16
443.98	3246.32
444.17	3295.47
444.35	3494.42
444.54	3506.12
444.73	3370.37
444.91	3506.12
445.10	3566.98
445.28	3468.67
445.47	3410.16
445.65	3510.80
445.84	3534.21
446.02	3515.48
446.21	3482.72
446.39	3611.45
446.58	3515.48
446.77	3510.80
446.95	3520.17
447.14	3613.79
447.32	3485.06
447.51	3534.21
447.69	3520.17
447.88	3576.34
448.06	3536.55
448.25	3574.00
448.43	3555.27
448.62	3599.74
448.80	3531.87
448.99	3620.81
449.17	3742.52
449.36	3536.55
449.54	3705.07
449.73	3730.81
449.91	3618.47
450.10	3859.54
450.28	3878.27
450.46	3763.58
450.65	3889.97
450.83	3749.54
451.02	3779.97
451.20	3868.91
451.39	3768.26
451.57	3843.16
451.76	3693.37
451.94	3838.48
452.13	4009.34
452.31	3908.69
452.49	3786.99
452.68	3911.04
452.86	3866.56
453.05	4037.42
453.23	4067.85
453.42	3845.50
453.60	3875.93
453.78	4117.00
453.97	3936.78
454.15	4053.81
454.34	3871.25
454.52	3969.55
454.70	4018.70
454.89	4074.87
455.07	3934.44
455.26	4133.39
455.44	4203.60
455.62	4154.45
455.81	4264.46
455.99	4191.90
456.17	4196.58
456.36	4238.71
456.54	4304.25
456.73	4447.02
456.91	4404.89
457.09	4395.53
457.28	4475.10
457.46	4273.82
457.64	4395.53
457.83	4404.89
458.01	4498.51
458.19	4437.66
458.38	4360.42
458.56	4491.49
458.74	4353.40
458.93	4367.44
459.11	4447.02
459.29	4458.72
459.48	4643.62
459.66	4634.26
459.84	4561.70
460.03	4596.81
460.21	4458.72
460.39	4582.77
460.57	4592.13
460.76	4634.26
460.94	4744.27
461.12	4718.52
461.31	4777.03
461.49	4807.46
461.67	4770.01
461.85	4821.50
462.04	4657.67
462.22	5111.73
462.40	4755.97
462.59	4676.39
462.77	4664.69
462.95	4844.91
463.13	4765.33
463.32	5067.26
463.50	4887.04
463.68	4882.36
463.86	4952.57
464.05	4795.76
464.23	4938.53
464.41	5123.43
464.59	4835.55
464.78	5046.20
464.96	4915.12
465.14	5032.15
465.32	5142.16
465.50	5191.31
465.69	5060.24
465.87	5172.58
466.05	5118.75
466.23	5071.94
466.41	5004.07
466.60	5240.46
466.78	5165.56
466.96	4968.96
467.14	5032.15
467.32	5174.92
467.51	5245.14
467.69	5228.76
467.87	5249.82
468.05	5242.80
468.23	5118.75
468.41	5226.42
468.60	5329.40
468.78	5416.00
468.96	5231.10
469.14	5439.40
469.32	5242.80
469.50	5174.92
469.69	5376.21
469.87	5416.00
470.05	5626.65
470.23	5591.54
470.41	5476.85
470.59	5621.97
470.77	5579.84
470.95	5516.64
471.14	5582.18
471.32	5717.93
471.50	5664.10
471.68	5610.26
471.86	5483.88
472.04	5755.38
472.22	5893.47
472.40	5729.63
472.58	5734.31
472.77	5933.26
472.95	6026.88
473.13	5949.64
473.31	5870.06
473.49	5774.10
473.67	6038.58
473.85	5973.05
474.03	6073.69
474.21	6260.93
474.39	6193.06
474.57	6162.63
474.75	6296.04
474.93	6270.30
475.12	6265.61
475.30	6307.74
475.48	6417.75
475.66	6338.17
475.84	6354.55
476.02	6553.50
476.20	6565.20
476.38	6471.58
476.56	6733.72
476.74	6499.67
476.92	6539.46
477.10	6497.33
477.28	6771.17
477.46	6677.55
477.64	6878.83
477.82	6970.12
478.00	7077.78
478.18	7005.22
478.36	7066.08
478.54	7105.87
478.72	7122.25
478.90	7129.27
479.08	7234.60
479.26	7524.82
479.44	7377.37
479.62	7365.67
479.80	7597.38
479.98	7620.78
480.16	7786.96
480.34	7641.85
480.52	7716.75
480.70	7765.90
480.88	7520.14
481.06	7943.78
481.24	7875.90
481.41	7901.65
481.59	8128.68
481.77	8065.49
481.95	8205.92
482.13	8187.19
482.31	8184.85
482.49	8468.06
482.67	8505.51
482.85	8332.31
483.03	8547.64
483.21	8772.33
483.39	8819.14
483.57	8692.75
483.74	8732.54
483.92	9034.47
484.10	8702.11
484.28	9034.47
484.46	9088.30
484.64	9289.59
484.82	9151.49
485.00	9317.67
485.18	9420.66
485.35	9554.07
485.53	9441.72
485.71	9654.71
485.89	9769.40
486.07	9750.67
486.25	9738.97
486.43	9820.89
486.61	10003.45
486.78	10153.24
486.96	9935.57
487.14	10305.38
487.32	10202.40
487.50	10310.06
487.68	10345.17
487.85	10537.09
488.03	10588.58
488.21	10736.04
488.39	10754.76
488.57	10565.18
488.75	10729.02
488.92	11052.01
489.10	11159.67
489.28	11068.39
489.46	11211.17
489.64	11197.12
489.81	11545.86
489.99	11487.35
490.17	11562.25
490.35	11744.81
490.53	11779.92
490.70	11957.80
490.88	11822.05
491.06	12187.17
491.24	12051.42
491.41	12184.83
491.59	12194.19
491.77	12149.72
491.95	12365.05
492.13	12346.33
492.30	12493.78
492.48	12194.19
492.66	12484.42
492.84	12762.94
493.01	12732.51
493.19	12765.28
493.37	12943.16
493.54	12957.21
493.72	13376.16
493.90	13284.88
494.08	13406.59
494.25	13158.49
494.43	13462.76
494.61	13441.70
494.79	13507.23
494.96	13591.49
495.14	13745.97
495.32	13851.29
495.49	13675.75
495.67	13771.71
495.85	13980.02
496.02	14235.14
496.20	14068.96
496.38	14398.98
496.55	14075.98
496.73	14377.91
496.91	14319.40
497.09	14663.46
497.26	14560.47
497.44	14644.73
497.62	14551.11
497.79	14789.85
497.97	14899.85
498.14	15147.95
498.32	15176.03
498.50	14944.32
498.67	15393.70
498.85	15274.34
499.03	15269.66
499.20	15183.06
499.38	15503.71
499.56	15779.89
499.73	15838.41
499.91	15782.23
500.08	15936.71
500.26	15557.54
500.44	15562.22
500.61	15948.41
500.79	15768.19
500.97	16060.76
501.14	16023.31
501.32	16311.19
501.49	15953.09
501.67	16278.43
501.84	16325.24
502.02	16037.35
502.20	16320.56
502.37	16308.85
502.55	16360.34
502.72	16659.93
502.90	16563.97
503.07	16592.06
503.25	16662.27
503.43	16613.12
503.60	16704.40
503.78	16868.24
503.95	16936.12
504.13	17125.70
504.30	16863.56
504.48	16840.15
504.65	17226.34
504.83	17209.96
505.01	17277.83
505.18	17570.40
505.36	17575.08
505.53	17308.26
505.71	17657.00
505.88	17404.22
506.06	17458.06
506.23	17502.53
506.41	17898.08
506.58	17778.71
506.76	17898.08
506.93	17701.47
507.11	17659.34
507.28	17905.10
507.46	17893.40
507.63	18026.81
507.81	17970.63
507.98	18054.89
508.16	18038.51
508.33	18319.37
508.50	17961.27
508.68	18265.54
508.85	18384.91
509.03	18714.92
509.20	18518.32
509.38	18817.91
509.55	18820.25
509.73	18869.40
509.90	18593.22
510.08	18455.12
510.25	19014.51
510.42	19035.58
510.60	19173.67
510.77	19267.29
510.95	18939.62
511.12	19257.93
511.30	18991.11
511.47	19318.78
511.64	19002.81
511.82	19555.18
511.99	19571.56
512.17	19527.09
512.34	19616.03
512.51	19421.77
512.69	19620.71
512.86	19637.09
513.04	20020.94
513.21	19768.16
513.38	19634.75
513.56	19971.79
513.73	19754.12
513.90	20046.69
514.08	19686.25
514.25	19932.00
514.43	20034.99
514.60	20475.01
514.77	19964.77
514.95	20276.06
515.12	20273.72
515.29	20030.30
515.47	20285.42
515.64	20482.03
515.81	20540.54
515.99	20470.33
516.16	20802.68
516.33	20767.57
516.51	20774.60
516.68	20613.10
516.85	20493.73
517.03	20496.07
517.20	20999.29
517.37	21172.49
517.54	20807.36
517.72	20603.74
517.89	20861.19
518.06	20980.56
518.24	20999.29
518.41	21135.04
518.58	21046.10
518.75	21380.79
518.93	21455.69
519.10	21247.38
519.27	21507.18
519.45	21238.02
519.62	21586.76
519.79	21589.10
519.96	21275.47
520.14	21537.61
520.31	21579.74
520.48	21853.58
520.65	21193.55
520.83	21453.35
521.00	22029.12
521.17	21914.44
521.34	21984.65
521.52	22223.39
521.69	21979.97
521.86	22157.85
522.03	22424.67
522.20	22256.15
522.38	22010.40
522.55	22427.01
522.72	22183.60
522.89	22207.00
523.07	22649.36
523.24	22525.32
523.41	22583.83
523.58	22728.94
523.75	22735.96
523.92	22469.14
524.10	22499.57
524.27	22761.71
524.44	22768.73
524.61	23056.62
524.78	22892.78
524.96	23047.26
525.13	22775.75
525.30	23012.15
525.47	23138.54
525.64	22754.69
525.81	22665.75
525.98	23229.82
526.16	22974.70
526.33	23115.13
526.50	23276.63
526.67	23232.16
526.84	23269.61
527.01	23229.82
527.18	23477.91
527.36	23529.41
527.53	23852.40
527.70	23686.22
527.87	23749.42
528.04	23674.52
528.21	23754.10
528.38	23726.01
528.55	23758.78
528.72	23803.25
528.89	24271.36
529.07	24093.47
529.24	24020.92
529.41	23981.13
529.58	23817.29
529.75	23871.12
529.92	24079.43
530.09	23789.20
530.26	24170.71
530.43	24318.17
530.60	24002.19
530.77	23971.77
530.94	24102.84
531.11	24304.12
531.28	24191.78
531.46	24304.12
531.63	24180.07
531.80	24556.90
531.97	24659.88
532.14	24723.08
532.31	24269.01
532.48	24568.60
532.65	24369.66
532.82	24418.81
532.99	24772.23
533.16	24659.88
533.33	24938.41
533.50	24788.61
533.67	24748.82
533.84	24999.26
534.01	24694.99
534.18	24486.68
534.35	25020.33
534.52	24980.54
534.69	25427.58
534.86	24915.00
535.03	25205.23
535.20	24957.13
535.37	25123.31
535.54	25757.60
535.71	25139.69
535.88	25270.76
536.05	25303.53
536.22	25397.15
536.38	25539.93
536.55	25525.88
536.72	25645.25
536.89	25340.98
537.06	25401.83
537.23	25486.09
537.40	25404.17
537.57	25397.15
537.74	25858.24
537.91	25984.63
538.08	26047.82
538.25	25944.84
538.42	25958.88
538.59	25923.77
538.75	25362.04
538.92	25507.16
539.09	26012.71
539.26	26024.42
539.43	25876.96
539.60	25949.52
539.77	26001.01
539.94	26019.74
540.11	26391.88
540.28	26403.58
540.44	26157.83
540.61	25778.66
540.78	26143.78
540.95	26352.09
541.12	26160.17
541.29	26347.41
541.46	26415.29
541.62	26281.88
541.79	26492.52
541.96	26588.49
542.13	26396.56
542.30	26635.30
542.47	26562.74
542.63	26642.32
542.80	26787.43
542.97	26609.55
543.14	26918.50
543.31	26717.22
543.48	26757.00
543.64	27187.66
543.81	27154.90
543.98	27538.74
544.15	26932.54
544.32	27234.47
544.48	27335.12
544.65	27297.67
544.82	27241.50
544.99	26967.65
545.16	27246.18
545.32	26977.01
545.49	27342.14
545.66	27288.31
545.83	27426.40
546.00	27440.44
546.16	27424.06
546.33	27264.90
546.50	27206.39
546.67	27218.09
546.83	26911.48
547.00	27735.35
547.17	27426.40
547.34	27662.79
547.50	27763.43
547.67	27737.69
547.84	27660.45
548.00	27363.20
548.17	28023.23
548.34	27950.68
548.51	28095.79
548.67	27756.41
548.84	28034.94
549.01	27852.38
549.18	27887.48
549.34	27721.30
549.51	27639.39
549.68	27676.83
549.84	27733.01
550.01	28006.85
550.18	27845.35
550.34	27852.38
550.51	28189.41
550.68	28182.39
550.84	27934.29
551.01	27871.10
551.18	27704.92
551.34	27733.01
551.51	27800.88
551.68	28421.13
551.84	27981.10
552.01	28676.24
552.18	28201.11
552.34	28273.67
552.51	28327.50
552.68	28208.14
552.84	28137.92
553.01	28584.96
553.18	28451.55
553.34	28610.71
553.51	28666.88
553.67	28732.42
553.84	28479.64
554.01	28730.08
554.17	28786.25
554.34	28748.80
554.51	28678.58
554.67	28631.77
554.84	29186.48
555.00	29015.62
555.17	28460.91
555.33	28683.27
555.50	28863.49
555.67	28723.05
555.83	28971.15
556.00	28830.72
556.16	28999.24
556.33	28664.54
556.50	29071.79
556.66	29076.48
556.83	28886.89
556.99	28978.17
557.16	29252.02
557.32	29167.76
557.49	29659.27
557.65	29013.28
557.82	28982.85
557.98	29156.05
558.15	28987.53
558.32	28985.19
558.48	28914.98
558.65	29060.09
558.81	29287.12
558.98	29123.29
559.14	29097.54
559.31	29048.39
559.47	29310.53
559.64	29146.69
559.80	29315.21
559.97	29067.11
560.13	29380.74
560.30	29406.49
560.46	29390.11
560.63	29804.38
560.79	29425.22
560.96	29797.36
561.12	29729.48
561.29	29427.56
561.45	29277.76
561.61	29661.61
561.78	29551.60
561.94	29537.56
562.11	29776.30
562.27	29500.11
562.44	29495.43
562.60	29507.13
562.77	29474.37
562.93	29266.06
563.10	29816.08
563.26	29483.73
563.42	29905.02
563.59	30022.05
563.75	29778.64
563.92	29937.79
564.08	29862.90
564.24	29603.10
564.41	29621.82
564.57	29502.45
564.74	29635.86
564.90	29961.20
565.07	29909.71
565.23	30199.93
565.39	29811.40
565.56	29853.53
565.72	29731.83
565.88	29612.46
566.05	29757.57
566.21	29584.37
566.38	29949.50
566.54	29727.14
566.70	30178.87
566.87	30410.58
567.03	30345.05
567.19	29979.92
567.36	29750.55
567.52	29993.97
567.68	30008.01
567.85	29965.88
568.01	30106.31
568.17	29982.26
568.34	30305.26
568.50	30206.95
568.66	30033.75
568.83	29996.31
568.99	29818.42
569.15	30136.74
569.32	30361.43
569.48	29804.38
569.64	30455.05
569.81	30253.76
569.97	29860.55
570.13	30216.32
570.30	29977.58
570.46	30033.75
570.62	30047.80
570.78	30221.00
570.95	30043.12
571.11	30146.10
571.27	29970.56
571.43	30206.95
571.60	30237.38
571.76	30206.95
571.92	30143.76
572.09	30387.18
572.25	30274.83
572.41	30635.27
572.57	30286.53
572.74	30464.41
572.90	29771.61
573.06	30118.01
573.22	30199.93
573.38	30398.88
573.55	30204.61
573.71	30466.75
573.87	30445.69
574.03	30539.31
574.20	30579.10
574.36	30101.63
574.52	30436.33
574.68	30284.19
574.84	30087.59
575.01	30525.27
575.17	30291.21
575.33	30623.57
575.49	30520.59
575.65	30363.77
575.82	30232.70
575.98	30366.11
576.14	30307.60
576.30	30415.26
576.46	30213.98
576.62	30267.81
576.79	30181.21
576.95	30389.52
577.11	30581.44
577.27	30473.78
577.43	30799.11
577.59	30543.99
577.75	30794.43
577.92	30122.69
578.08	30600.16
578.24	30169.51
578.40	30513.56
578.56	30223.34
578.72	30532.29
578.88	30501.86
579.04	31110.40
579.21	30646.97
579.37	30553.35
579.53	30302.92
579.69	30118.01
579.85	30054.82
580.01	30501.86
580.17	30183.55
580.33	30651.66
580.49	30731.23
580.65	30527.61
580.82	30422.28
580.98	30579.10
581.14	30345.05
581.30	30396.54
581.46	30441.01
581.62	30558.03
581.78	30335.68
581.94	30551.01
582.10	30668.04
582.26	30136.74
582.42	30679.74
582.58	30529.95
582.74	30607.19
582.90	30759.32
583.06	30705.49
583.22	30515.90
583.38	30771.02
583.54	30698.47
583.70	30501.86
583.86	30448.03
584.02	30403.56
584.18	30960.61
584.34	30347.39
584.50	31056.57
584.66	30565.06
584.82	30143.76
584.98	31014.44
585.14	30558.03
585.30	30450.37
585.46	30705.49
585.62	30139.08
585.78	30625.91
585.94	30534.63
586.10	30796.77
586.26	30513.56
586.42	30705.49
586.58	30892.73
586.74	30651.66
586.90	30756.98
587.06	30265.47
587.22	30740.60
587.38	30747.62
587.54	30979.33
587.70	31005.08
587.86	30684.42
588.02	31157.21
588.18	31189.98
588.34	31021.46
588.49	30480.80
588.65	30625.91
588.81	30618.89
588.97	30845.92
589.13	30490.16
589.29	30665.70
589.45	30609.53
589.61	30792.09
589.77	30878.69
589.93	30881.03
590.08	31229.77
590.24	31147.85
590.40	30813.15
590.56	30998.06
590.72	31295.30
590.88	30778.04
591.04	31087.00
591.20	31140.83
591.35	31189.98
591.51	31552.76
591.67	30822.51
591.83	31707.24
591.99	31283.60
