SpectraSuite Data File
++++++++++++++++++++++++++++++++++++
Date: Fri Oct 18 13:58:33 GMT-05:00 2013
User: bianchi
Dark Spectrum Present: No
Reference Spectrum Present: No
Number of Sampled Component Spectra: 1
Spectrometers: USB2+H05261
Integration Time (usec): 50000 (USB2+H05261)
Spectra Averaged: 1 (USB2+H05261)
Boxcar Smoothing: 0 (USB2+H05261)
Correct for Electrical Dark: No (USB2+H05261)
Strobe/Lamp Enabled: No (USB2+H05261)
Correct for Detector Non-linearity: No (USB2+H05261)
Correct for Stray Light: No (USB2+H05261)
Number of Pixels in Processed Spectrum: 2048
>>>>>Begin Processed Spectral Data<<<<<
365.73	0.00
365.92	0.00
366.12	0.00
366.32	0.00
366.52	0.00
366.72	0.00
366.91	0.00
367.11	0.00
367.31	0.00
367.51	0.00
367.70	0.00
367.90	0.00
368.10	0.00
368.30	0.00
368.49	0.00
368.69	0.00
368.89	0.00
369.09	0.00
369.28	0.00
369.48	0.00
369.68	0.00
369.87	0.00
370.07	0.00
370.27	0.00
370.47	0.00
370.66	58.51
370.86	77.24
371.06	147.45
371.25	163.84
371.45	147.45
371.65	142.77
371.84	128.73
372.04	194.26
372.24	187.24
372.44	145.11
372.63	166.18
372.83	252.78
373.03	189.58
373.22	205.97
373.42	245.76
373.62	175.54
373.81	264.48
374.01	327.68
374.21	175.54
374.40	203.63
374.60	194.26
374.79	227.03
374.99	308.95
375.19	259.80
375.38	245.76
375.58	210.65
375.78	259.80
375.97	215.33
376.17	241.08
376.37	248.10
376.56	271.50
376.76	297.25
376.95	224.69
377.15	252.78
377.35	304.27
377.54	297.25
377.74	269.16
377.93	273.84
378.13	372.15
378.33	252.78
378.52	273.84
378.72	304.27
378.91	332.36
379.11	241.08
379.31	259.80
379.50	348.74
379.70	304.27
379.89	278.52
380.09	212.99
380.28	327.68
380.48	292.57
380.68	294.91
380.87	292.57
381.07	325.33
381.26	376.83
381.46	360.44
381.65	278.52
381.85	339.38
382.04	334.70
382.24	369.80
382.43	311.29
382.63	393.21
382.83	348.74
383.02	241.08
383.22	348.74
383.41	379.17
383.61	320.65
383.80	411.93
384.00	376.83
384.19	344.06
384.39	505.56
384.58	360.44
384.78	351.08
384.97	381.51
385.17	322.99
385.36	409.59
385.56	386.19
385.75	414.27
385.95	379.17
386.14	374.49
386.34	409.59
386.53	484.49
386.72	381.51
386.92	447.04
387.11	360.44
387.31	482.15
387.50	454.06
387.70	458.74
387.89	449.38
388.09	400.23
388.28	379.17
388.48	435.34
388.67	372.15
388.86	491.51
389.06	421.30
389.25	346.40
389.45	510.24
389.64	379.17
389.84	411.93
390.03	456.40
390.22	468.11
390.42	496.19
390.61	458.74
390.81	451.72
391.00	479.81
391.19	489.17
391.39	540.66
391.58	472.79
391.78	503.22
391.97	517.26
392.16	528.96
392.36	444.70
392.55	496.19
392.75	580.45
392.94	620.24
393.13	489.17
393.33	554.71
393.52	496.19
393.71	585.13
393.91	524.28
394.10	545.34
394.29	505.56
394.49	435.34
394.68	531.30
394.88	592.16
395.07	592.16
395.26	631.94
395.46	559.39
395.65	667.05
395.84	629.60
396.04	695.14
396.23	671.73
396.42	678.76
396.62	678.76
396.81	596.84
397.00	627.26
397.19	734.93
397.39	645.99
397.58	587.47
397.77	587.47
397.97	781.74
398.16	631.94
398.35	695.14
398.55	741.95
398.74	704.50
398.93	739.61
399.12	681.10
399.32	709.18
399.51	629.60
399.70	732.59
399.90	741.95
400.09	702.16
400.28	734.93
400.47	739.61
400.67	863.66
400.86	821.53
401.05	819.19
401.24	835.57
401.44	763.01
401.63	744.29
401.82	887.06
402.01	798.12
402.21	784.08
402.40	833.23
402.59	823.87
402.78	819.19
402.97	912.81
403.17	753.65
403.36	849.61
403.55	877.70
403.74	915.15
403.93	866.00
404.13	847.27
404.32	924.51
404.51	847.27
404.70	830.89
404.89	894.08
405.09	971.32
405.28	882.38
405.47	912.81
405.66	861.32
405.85	954.94
406.05	968.98
406.24	1013.45
406.43	976.00
406.62	1050.90
406.81	992.39
407.00	929.19
407.20	1025.15
407.39	952.60
407.58	997.07
407.77	1053.24
407.96	1046.22
408.15	933.87
408.34	1060.26
408.54	1048.56
408.73	1083.67
408.92	1163.25
409.11	1097.71
409.30	1032.18
409.49	1100.05
409.68	1111.75
409.87	1158.57
410.07	1226.44
410.26	1167.93
410.45	1142.18
410.64	1153.88
410.83	1163.25
411.02	1163.25
411.21	1205.38
411.40	1198.35
411.59	1249.85
411.78	1303.68
411.98	1217.08
412.17	1362.19
412.36	1308.36
412.55	1320.06
412.74	1432.41
412.93	1303.68
413.12	1310.70
413.31	1423.05
413.50	1385.60
413.69	1310.70
413.88	1483.90
414.07	1348.15
414.26	1500.28
414.45	1448.79
414.64	1460.49
414.83	1462.83
415.02	1509.65
415.22	1593.90
415.41	1528.37
415.60	1497.94
415.79	1572.84
415.98	1528.37
416.17	1598.59
416.36	1584.54
416.55	1558.80
416.74	1610.29
416.93	1629.01
417.12	1612.63
417.31	1633.69
417.50	1598.59
417.69	1666.46
417.88	1767.10
418.07	1825.62
418.26	1732.00
418.45	1806.89
418.64	1820.94
418.83	1792.85
419.02	1706.25
419.21	1804.55
419.39	1863.07
419.58	1797.53
419.77	1816.26
419.96	1788.17
420.15	1902.86
420.34	1919.24
420.53	1769.44
420.72	1802.21
420.91	1846.68
421.10	1914.56
421.29	1956.69
421.48	1886.47
421.67	1926.26
421.86	1888.81
422.05	1952.01
422.24	1975.41
422.43	1930.94
422.61	2008.18
422.80	1987.11
422.99	1912.22
423.18	1919.24
423.37	1961.37
423.56	2057.33
423.75	2036.27
423.94	1961.37
424.13	1832.64
424.32	1881.79
424.50	2078.40
424.69	2050.31
424.88	2073.71
425.07	1907.54
425.26	1987.11
425.45	1998.82
425.64	2029.24
425.83	2017.54
426.01	2122.87
426.20	2050.31
426.39	2005.84
426.58	1998.82
426.77	2069.03
426.96	2073.71
427.15	2169.68
427.33	2076.06
427.52	2108.82
427.71	2150.95
427.90	2181.38
428.09	2092.44
428.28	2150.95
428.46	2176.70
428.65	2197.76
428.84	2200.10
429.03	2237.55
429.22	2172.02
429.40	2188.40
429.59	2228.19
429.78	2232.87
429.97	2155.63
430.16	2237.55
430.34	2223.51
430.53	2221.17
430.72	2296.07
430.91	2256.28
431.10	2246.91
431.28	2354.58
431.47	2448.20
431.66	2478.63
431.85	2331.17
432.03	2394.37
432.22	2492.67
432.41	2438.84
432.60	2356.92
432.79	2413.09
432.97	2340.54
433.16	2389.69
433.35	2429.48
433.54	2431.82
433.72	2499.69
433.91	2347.56
434.10	2527.78
434.28	2399.05
434.47	2539.48
434.66	2539.48
434.85	2469.27
435.03	2595.65
435.22	2558.21
435.41	2724.38
435.59	2483.31
435.78	2597.99
435.97	2551.18
436.16	2553.52
436.34	2656.51
436.53	2754.81
436.72	2621.40
436.90	2593.31
437.09	2757.15
437.28	2656.51
437.46	2686.94
437.65	2731.41
437.84	2738.43
438.02	2841.41
438.21	2724.38
438.40	2675.23
438.58	2750.13
438.77	2757.15
438.96	2864.82
439.14	2867.16
439.33	2895.24
439.52	2932.69
439.70	2984.18
439.89	2949.08
440.08	2970.14
440.26	3052.06
440.45	3136.32
440.63	3066.10
440.82	3077.80
441.01	3061.42
441.19	3049.72
441.38	3185.47
441.57	3236.96
441.75	3248.66
441.94	3258.03
442.12	3166.74
442.31	3335.26
442.50	3311.86
442.68	3255.69
442.87	3321.22
443.05	3349.31
443.24	3316.54
443.43	3431.23
443.61	3442.93
443.80	3515.48
443.98	3414.84
444.17	3211.22
444.35	3300.16
444.54	3398.46
444.73	3391.44
444.91	3375.05
445.10	3531.87
445.28	3428.88
445.47	3358.67
445.65	3377.39
445.84	3501.44
446.02	3541.23
446.21	3419.52
446.39	3424.20
446.58	3508.46
446.77	3417.18
446.95	3520.17
447.14	3398.46
447.32	3405.48
447.51	3508.46
447.69	3473.36
447.88	3428.88
448.06	3543.57
448.25	3353.99
448.43	3478.04
448.62	3606.77
448.80	3473.36
448.99	3487.40
449.17	3562.30
449.36	3569.32
449.54	3691.02
449.73	3658.26
449.91	3632.51
450.10	3588.04
450.28	3679.32
450.46	3618.47
450.65	3758.90
450.83	3761.24
451.02	3716.77
451.20	3892.31
451.39	3681.66
451.57	3829.12
451.76	3754.22
451.94	3878.27
452.13	3815.07
452.31	3698.05
452.49	3761.24
452.68	3918.06
452.86	3918.06
453.05	3758.90
453.23	3918.06
453.42	3819.75
453.60	3695.71
453.78	3801.03
453.97	3786.99
454.15	3997.64
454.34	3976.57
454.52	3934.44
454.70	3812.73
454.89	3857.20
455.07	4065.51
455.26	4009.34
455.44	4021.04
455.62	3992.95
455.81	4063.17
455.99	4175.52
456.17	4084.23
456.36	4184.88
456.54	4100.62
456.73	4086.58
456.91	4280.84
457.09	4215.30
457.28	4138.07
457.46	4390.84
457.64	4306.59
457.83	4432.97
458.01	4205.94
458.19	4304.25
458.38	4173.18
458.56	4386.16
458.74	4262.12
458.93	4337.01
459.11	4369.78
459.29	4491.49
459.48	4365.10
459.66	4440.00
459.84	4444.68
460.03	4545.32
460.21	4376.80
460.39	4512.55
460.57	4411.91
460.76	4713.84
460.94	4482.13
461.12	4440.00
461.31	4716.18
461.49	4643.62
461.67	4458.72
461.85	4517.23
462.04	4592.13
462.22	4599.15
462.40	4592.13
462.59	4622.56
462.77	4718.52
462.95	4767.67
463.13	4650.64
463.32	4652.98
463.50	4697.46
463.68	4873.00
463.86	4739.58
464.05	4685.75
464.23	4674.05
464.41	4849.59
464.59	4842.57
464.78	4968.96
464.96	4936.19
465.14	4833.21
465.32	5135.14
465.50	4788.74
465.69	5043.85
465.87	4929.17
466.05	4999.38
466.23	4973.64
466.41	4994.70
466.60	5046.20
466.78	4950.23
466.96	5001.72
467.14	4929.17
467.32	5050.88
467.51	5067.26
467.69	5006.41
467.87	5097.69
468.05	5004.07
468.23	4924.49
468.41	5116.41
468.60	5125.77
468.78	5160.88
468.96	5252.16
469.14	5135.14
469.32	5149.18
469.50	5032.15
469.69	5130.45
469.87	5355.15
470.05	5341.10
470.23	5392.59
470.41	5348.12
470.59	5289.61
470.77	5284.93
470.95	5401.96
471.14	5359.83
471.32	5373.87
471.50	5612.60
471.68	5427.70
471.86	5500.26
472.04	5586.86
472.22	5675.80
472.40	5614.95
472.58	5767.08
472.77	5699.20
472.95	5743.67
473.13	5923.90
473.31	5790.49
473.49	5650.05
473.67	5811.55
473.85	5820.91
474.03	5921.56
474.21	5926.24
474.39	6003.47
474.57	6134.54
474.75	6139.23
474.93	6141.57
475.12	6001.13
475.30	6061.99
475.48	6090.07
475.66	6167.31
475.84	6218.80
476.02	6122.84
476.20	6209.44
476.38	6289.02
476.56	6562.86
476.74	6504.35
476.92	6588.61
477.10	6473.92
477.28	6675.21
477.46	6511.37
477.64	6628.40
477.82	6600.31
478.00	7000.54
478.18	6834.36
478.36	6944.37
478.54	6981.82
478.72	7087.14
478.90	7176.08
479.08	7157.36
479.26	6949.05
479.44	7152.68
479.62	7192.47
479.80	7302.47
479.98	7087.14
480.16	7353.96
480.34	7417.16
480.52	7695.68
480.70	7683.98
480.88	7508.44
481.06	7564.61
481.24	7552.91
481.41	7796.32
481.59	7913.35
481.77	8121.66
481.95	7927.39
482.13	8004.63
482.31	8070.17
482.49	8051.44
482.67	8304.22
482.85	8224.64
483.03	8491.46
483.21	8245.71
483.39	8489.12
483.57	8306.56
483.74	8521.89
483.92	8802.75
484.10	8685.73
484.28	8945.53
484.46	8987.66
484.64	9217.03
484.82	8917.44
485.00	8975.95
485.18	9088.30
485.35	9202.99
485.53	9401.93
485.71	9210.01
485.89	9465.13
486.07	9446.40
486.25	9549.39
486.43	9540.02
486.61	9509.60
486.78	9664.07
486.96	9750.67
487.14	10010.47
487.32	9919.19
487.50	9961.32
487.68	9914.51
487.85	10317.08
488.03	10134.52
488.21	10565.18
488.39	10644.76
488.57	10644.76
488.75	10588.58
488.92	10579.22
489.10	10771.15
489.28	10796.89
489.46	10934.98
489.64	10892.85
489.81	10977.11
489.99	11384.37
490.17	11389.05
490.35	11438.20
490.53	11281.38
490.70	11316.49
490.88	11501.39
491.06	11812.68
491.24	11580.97
491.41	11784.60
491.59	11733.11
491.77	12105.25
491.95	12107.59
492.13	11782.26
492.30	11906.31
492.48	12004.61
492.66	12037.38
492.84	12329.94
493.01	12145.04
493.19	12339.30
493.37	12683.36
493.54	12776.98
493.72	12755.92
493.90	12512.50
494.08	12596.76
494.25	12964.23
494.43	13064.87
494.61	13312.97
494.79	13266.16
494.96	13011.04
495.14	13376.16
495.32	13231.05
495.49	13415.95
495.67	13511.91
495.85	13504.89
496.02	13771.71
496.20	13748.31
496.38	13877.04
496.55	13778.73
496.73	14164.92
496.91	13919.17
497.09	14108.75
497.26	14017.47
497.44	14340.46
497.62	14113.43
497.79	14424.72
497.97	14146.20
498.14	14628.35
498.32	14642.39
498.50	14714.95
498.67	14780.48
498.85	14731.33
499.03	14595.58
499.20	14766.44
499.38	14970.07
499.56	15094.11
499.73	15161.99
499.91	15033.26
500.08	15302.42
500.26	14904.53
500.44	15461.58
500.61	15330.51
500.79	15232.21
500.97	15353.91
501.14	15812.66
501.32	15438.17
501.49	15496.69
501.67	15510.73
501.84	15786.91
502.02	15676.91
502.20	15829.04
502.37	15960.11
502.55	15833.72
502.72	16046.71
502.90	16088.84
503.07	15889.90
503.25	15861.81
503.43	16058.42
503.60	16278.43
503.78	16451.63
503.95	16580.36
504.13	16353.32
504.30	16432.90
504.48	16217.57
504.65	16376.73
504.83	16669.30
505.01	16542.91
505.18	16683.34
505.36	16678.66
505.53	16737.17
505.71	17055.48
505.88	16821.43
506.06	16631.85
506.23	16812.07
506.41	17055.48
506.58	17111.66
506.76	17071.87
506.93	17254.43
507.11	17034.42
507.28	17277.83
507.46	17472.10
507.63	17516.57
507.81	17516.57
507.98	17568.06
508.16	17811.48
508.33	17790.41
508.50	17752.96
508.68	17731.90
508.85	17664.02
509.03	17701.47
509.20	17729.56
509.38	18012.76
509.55	18118.09
509.73	17989.36
509.90	18317.03
510.08	18204.69
510.25	18082.98
510.42	18387.25
510.60	18565.13
510.77	18616.62
510.95	18459.81
511.12	18263.20
511.30	18258.52
511.47	18574.49
511.64	18665.77
511.82	19058.98
511.99	18836.63
512.17	18539.38
512.34	18714.92
512.51	19096.43
512.69	19122.18
512.86	19145.58
513.04	19398.36
513.21	19190.05
513.38	19295.38
513.56	19454.53
513.73	19101.11
513.90	19286.01
514.08	19000.47
514.25	19339.85
514.43	19508.37
514.60	19733.06
514.77	19473.26
514.95	19761.14
515.12	19508.37
515.29	19271.97
515.47	19747.10
515.64	20018.60
515.81	19789.23
515.99	19751.78
516.16	19932.00
516.33	20304.15
516.51	20142.65
516.68	20002.22
516.85	20205.84
517.03	20168.40
517.20	19901.58
517.37	20236.27
517.54	20255.00
517.72	20318.19
517.89	20449.26
518.06	20432.88
518.24	20208.19
518.41	20500.75
518.58	20699.70
518.75	20325.21
518.93	20744.17
519.10	20367.34
519.27	20585.01
519.45	20734.81
519.62	20816.72
519.79	20421.17
519.96	20566.29
520.14	21167.80
520.31	20900.98
520.48	20971.20
520.65	21132.70
520.83	20798.00
521.00	21025.03
521.17	21429.94
521.34	21018.01
521.52	21081.21
521.69	21280.15
521.86	21333.98
522.03	21488.46
522.20	21546.97
522.38	21804.43
522.55	21486.12
522.72	21404.20
522.89	21432.29
523.07	21823.16
523.24	22099.34
523.41	22246.79
523.58	21628.89
523.75	21935.50
523.92	22036.14
524.10	21947.20
524.27	21869.97
524.44	22157.85
524.61	22176.58
524.78	22235.09
524.96	22003.38
525.13	22263.18
525.30	22511.27
525.47	22335.73
525.64	22654.05
525.81	22328.71
525.98	22221.05
526.16	22225.73
526.33	22548.72
526.50	22806.18
526.67	22588.51
526.84	22534.68
527.01	22333.39
527.18	23016.83
527.36	22548.72
527.53	22902.14
527.70	23014.49
527.87	23082.36
528.04	22583.83
528.21	22890.44
528.38	23040.23
528.55	22948.95
528.72	22686.81
528.89	23103.43
529.07	22974.70
529.24	23082.36
529.41	23094.07
529.58	23318.76
529.75	23236.84
529.92	23178.33
530.09	23225.14
530.26	23187.69
530.43	23349.18
530.60	23484.94
530.77	23377.27
530.94	23700.26
531.11	23367.91
531.28	23545.79
531.46	23285.99
531.63	23211.09
531.80	23784.52
531.97	23463.87
532.14	23548.13
532.31	23896.87
532.48	23826.65
532.65	24084.11
532.82	23618.35
532.99	23672.18
533.16	23892.19
533.33	24381.36
533.50	24280.72
533.67	24142.63
533.84	24060.71
534.01	23889.85
534.18	23843.04
534.35	24346.25
534.52	24060.71
534.69	24276.04
534.86	24439.87
535.03	24306.46
535.20	24156.67
535.37	24266.67
535.54	24367.32
535.71	24259.65
535.88	24381.36
536.05	24477.32
536.22	24720.74
536.38	24922.02
536.55	24510.09
536.72	24833.08
536.89	24496.05
537.06	24470.30
537.23	24833.08
537.40	24622.44
537.57	24739.46
537.74	24744.14
537.91	24683.29
538.08	25048.41
538.25	24898.62
538.42	25209.91
538.59	25336.30
538.75	24844.79
538.92	24952.45
539.09	25324.60
539.26	25043.73
539.43	24851.81
539.60	25261.40
539.77	25303.53
539.94	25385.45
540.11	24898.62
540.28	25305.87
540.44	25181.82
540.61	25151.40
540.78	25287.15
540.95	24891.60
541.12	25348.00
541.29	25568.01
541.46	25626.53
541.62	25383.11
541.79	25467.37
541.96	25259.06
542.13	25326.94
542.30	25666.31
542.47	25560.99
542.63	25654.61
542.80	25729.51
542.97	25907.39
543.14	26059.52
543.31	25429.92
543.48	25874.62
543.64	26176.55
543.81	26244.43
543.98	26253.79
544.15	26312.30
544.32	26242.09
544.48	26576.78
544.65	26499.55
544.82	26230.38
544.99	25731.85
545.16	26057.18
545.32	26270.17
545.49	26230.38
545.66	26639.98
545.83	26033.78
546.00	26431.67
546.16	26471.46
546.33	26562.74
546.50	26040.80
546.67	26228.04
546.83	25986.97
547.00	26684.45
547.17	26426.99
547.34	26534.65
547.50	26796.79
547.67	26941.91
547.84	26710.19
548.00	26567.42
548.17	26969.99
548.34	26927.86
548.51	26855.31
548.67	26864.67
548.84	27117.45
549.01	26761.69
549.18	26852.97
549.34	26967.65
549.51	27054.25
549.68	27232.13
549.84	26710.19
550.01	27175.96
550.18	26696.15
550.34	26810.84
550.51	27594.92
550.68	27166.60
550.84	27133.83
551.01	27538.74
551.18	27140.85
551.34	27225.11
551.51	27328.10
551.68	27023.83
551.84	27529.38
552.01	26972.33
552.18	27351.50
552.34	27386.61
552.51	27388.95
552.68	27337.46
552.84	27229.79
553.01	27379.59
553.18	27220.43
553.34	27674.49
553.51	27765.78
553.67	27480.23
553.84	27929.61
554.01	27798.54
554.17	27873.44
554.34	27449.80
554.51	27819.61
554.67	27634.71
554.84	27498.95
555.00	27515.34
555.17	27611.30
555.33	27847.69
555.50	28020.89
555.67	27803.22
555.83	27601.94
556.00	27899.19
556.16	27967.06
556.33	27630.02
556.50	27976.42
556.66	27924.93
556.83	28077.07
556.99	28032.60
557.16	28308.78
557.32	28093.45
557.49	28339.21
557.65	27967.06
557.82	27988.13
557.98	27946.00
558.15	27950.68
558.32	28271.33
558.48	28287.71
558.65	28128.56
558.81	28215.16
558.98	28233.88
559.14	28266.65
559.31	28217.50
559.47	28102.81
559.64	28137.92
559.80	28472.62
559.97	28528.79
560.13	28306.44
560.30	28364.95
560.46	28336.87
560.63	28449.21
560.79	28203.46
560.96	28547.51
561.12	28336.87
561.29	28032.60
561.45	28299.42
561.61	28781.57
561.78	28259.63
561.94	28704.33
562.11	28556.88
562.27	28692.63
562.44	28449.21
562.60	28254.95
562.77	28290.06
562.93	28325.16
563.10	28580.28
563.26	28498.36
563.42	29153.71
563.59	28449.21
563.75	28755.82
563.92	28505.38
564.08	28301.76
564.24	28545.17
564.41	28725.39
564.57	28678.58
564.74	28701.99
564.90	29008.60
565.07	28587.30
565.23	28706.67
565.39	28613.05
565.56	28594.32
565.72	28760.50
565.88	28943.06
566.05	28872.85
566.21	28599.01
566.38	28746.46
566.54	28554.54
566.70	28774.55
566.87	29209.89
567.03	28559.22
567.19	29495.43
567.36	28968.81
567.52	28725.39
567.68	28959.45
567.85	28650.50
568.01	28854.12
568.17	28790.93
568.34	29137.33
568.50	29167.76
568.66	28872.85
568.83	28826.04
568.99	28514.75
569.15	29053.07
569.32	28924.34
569.48	28856.46
569.64	28706.67
569.81	28739.44
569.97	29001.58
570.13	29149.03
570.30	28809.65
570.46	28978.17
570.62	29247.33
570.78	28919.66
570.95	29102.22
571.11	28797.95
571.27	28954.77
571.43	28723.05
571.60	29394.79
571.76	29298.83
571.92	28797.95
572.09	28919.66
572.25	29298.83
572.41	29151.37
572.57	28671.56
572.74	29259.04
572.90	28765.18
573.06	29095.20
573.22	29338.62
573.38	29291.80
573.55	29008.60
573.71	29563.31
573.87	29301.17
574.03	29088.18
574.20	29125.63
574.36	28889.23
574.52	29095.20
574.68	28912.64
574.84	29127.97
575.01	29350.32
575.17	28968.81
575.33	29209.89
575.49	29139.67
575.65	29340.96
575.82	29289.46
575.98	29324.57
576.14	29488.41
576.30	29142.01
576.46	29032.00
576.62	29151.37
576.79	28931.36
576.95	28982.85
577.11	29209.89
577.27	29544.58
577.43	29326.91
577.59	29490.75
577.75	29404.15
577.92	29474.37
578.08	28966.47
578.24	29233.29
578.40	29404.15
578.56	29443.94
578.72	29291.80
578.88	29717.78
579.04	29809.06
579.21	29607.78
579.37	29399.47
579.53	29572.67
579.69	29366.70
579.85	29359.68
580.01	29277.76
580.17	29223.93
580.33	29216.91
580.49	29326.91
580.65	29474.37
580.82	29340.96
580.98	29652.25
581.14	29460.32
581.30	29795.02
581.46	29244.99
581.62	29291.80
581.78	29144.35
581.94	29413.51
582.10	28999.24
582.26	29228.61
582.42	29268.40
582.58	29720.12
582.74	29308.19
582.90	29427.56
583.06	29493.09
583.22	29369.04
583.38	29331.59
583.54	29369.04
583.70	29333.93
583.86	29441.60
584.02	29254.36
584.18	29841.83
584.34	29605.44
584.50	29743.53
584.66	29364.36
584.82	29237.97
584.98	29427.56
585.14	29254.36
585.30	29663.95
585.46	29273.08
585.62	29607.78
585.78	29563.31
585.94	29298.83
586.10	29525.86
586.26	29294.14
586.42	29993.97
586.58	29509.47
586.74	29373.72
586.90	28961.79
587.06	29434.58
587.22	29146.69
587.38	29099.88
587.54	29956.52
587.70	29792.68
587.86	30080.56
588.02	29560.97
588.18	29549.26
588.34	29350.32
588.49	29680.33
588.65	29457.98
588.81	29467.34
588.97	29645.23
589.13	29369.04
589.29	29563.31
589.45	29635.86
589.61	29692.04
589.77	29530.54
589.93	29968.22
590.08	29893.32
590.24	29785.66
590.40	29825.45
590.56	30153.12
590.72	29315.21
590.88	29729.48
591.04	29762.25
591.20	30206.95
591.35	30040.78
591.51	30160.14
591.67	30045.46
591.83	30221.00
591.99	29572.67
