SpectraSuite Data File
++++++++++++++++++++++++++++++++++++
Date: Fri Oct 18 13:58:35 GMT-05:00 2013
User: bianchi
Dark Spectrum Present: No
Reference Spectrum Present: No
Number of Sampled Component Spectra: 1
Spectrometers: USB2+H05261
Integration Time (usec): 50000 (USB2+H05261)
Spectra Averaged: 1 (USB2+H05261)
Boxcar Smoothing: 0 (USB2+H05261)
Correct for Electrical Dark: No (USB2+H05261)
Strobe/Lamp Enabled: No (USB2+H05261)
Correct for Detector Non-linearity: No (USB2+H05261)
Correct for Stray Light: No (USB2+H05261)
Number of Pixels in Processed Spectrum: 2048
>>>>>Begin Processed Spectral Data<<<<<
365.73	0.00
365.92	0.00
366.12	0.00
366.32	0.00
366.52	0.00
366.72	0.00
366.91	0.00
367.11	0.00
367.31	0.00
367.51	0.00
367.70	0.00
367.90	0.00
368.10	0.00
368.30	0.00
368.49	0.00
368.69	0.00
368.89	0.00
369.09	0.00
369.28	0.00
369.48	0.00
369.68	0.00
369.87	0.00
370.07	0.00
370.27	0.00
370.47	0.00
370.66	156.82
370.86	79.58
371.06	84.26
371.25	142.77
371.45	84.26
371.65	88.94
371.84	119.37
372.04	121.71
372.24	180.22
372.44	250.44
372.63	189.58
372.83	208.31
373.03	264.48
373.22	248.10
373.42	154.48
373.62	208.31
373.81	189.58
374.01	234.05
374.21	198.95
374.40	255.12
374.60	217.67
374.79	196.60
374.99	243.42
375.19	320.65
375.38	198.95
375.58	203.63
375.78	255.12
375.97	257.46
376.17	210.65
376.37	255.12
376.56	287.89
376.76	203.63
376.95	201.29
377.15	259.80
377.35	273.84
377.54	224.69
377.74	255.12
377.93	283.20
378.13	273.84
378.33	308.95
378.52	203.63
378.72	334.70
378.91	292.57
379.11	224.69
379.31	257.46
379.50	238.73
379.70	318.31
379.89	273.84
380.09	332.36
380.28	248.10
380.48	257.46
380.68	320.65
380.87	294.91
381.07	374.49
381.26	355.76
381.46	280.86
381.65	346.40
381.85	292.57
382.04	379.17
382.24	337.04
382.43	334.70
382.63	362.78
382.83	332.36
383.02	365.12
383.22	362.78
383.41	297.25
383.61	266.82
383.80	362.78
384.00	341.72
384.19	292.57
384.39	421.30
384.58	369.80
384.78	418.96
384.97	301.93
385.17	311.29
385.36	379.17
385.56	505.56
385.75	449.38
385.95	444.70
386.14	428.32
386.34	411.93
386.53	395.55
386.72	339.38
386.92	465.77
387.11	322.99
387.31	374.49
387.50	365.12
387.70	402.57
387.89	447.04
388.09	421.30
388.28	468.11
388.48	465.77
388.67	486.83
388.86	507.90
389.06	411.93
389.25	444.70
389.45	423.64
389.64	454.06
389.84	484.49
390.03	479.81
390.22	489.17
390.42	507.90
390.61	535.98
390.81	528.96
391.00	451.72
391.19	526.62
391.39	454.06
391.58	486.83
391.78	472.79
391.97	533.64
392.16	482.15
392.36	594.50
392.55	526.62
392.75	519.60
392.94	524.28
393.13	535.98
393.33	519.60
393.52	531.30
393.71	552.37
393.91	519.60
394.10	559.39
394.29	531.30
394.49	552.37
394.68	578.11
394.88	552.37
395.07	610.88
395.26	601.52
395.46	596.84
395.65	636.63
395.84	638.97
396.04	753.65
396.23	713.86
396.42	622.58
396.62	678.76
396.81	755.99
397.00	596.84
397.19	688.12
397.39	692.80
397.58	791.10
397.77	732.59
397.97	678.76
398.16	667.05
398.35	692.80
398.55	758.33
398.74	699.82
398.93	683.44
399.12	702.16
399.32	725.57
399.51	793.44
399.70	718.54
399.90	779.40
400.09	732.59
400.28	821.53
400.47	758.33
400.67	823.87
400.86	791.10
401.05	779.40
401.24	812.17
401.44	856.64
401.63	823.87
401.82	833.23
402.01	823.87
402.21	849.61
402.40	868.34
402.59	828.55
402.78	837.91
402.97	800.46
403.17	873.02
403.36	840.25
403.55	870.68
403.74	924.51
403.93	961.96
404.13	926.85
404.32	877.70
404.51	884.72
404.70	919.83
404.89	856.64
405.09	905.79
405.28	964.30
405.47	1062.60
405.66	947.92
405.85	844.93
406.05	997.07
406.24	1011.11
406.43	971.32
406.62	938.55
406.81	1057.92
407.00	952.60
407.20	931.53
407.39	1041.54
407.58	1064.94
407.77	978.34
407.96	1097.71
408.15	1036.86
408.34	1043.88
408.54	1097.71
408.73	1153.88
408.92	1018.13
409.11	1142.18
409.30	1135.16
409.49	1196.01
409.68	1167.93
409.87	1090.69
410.07	1088.35
410.26	1069.62
410.45	1146.86
410.64	1280.27
410.83	1228.78
411.02	1144.52
411.21	1245.16
411.40	1210.06
411.59	1224.10
411.78	1282.61
411.98	1181.97
412.17	1315.38
412.36	1313.04
412.55	1296.66
412.74	1350.49
412.93	1420.71
413.12	1228.78
413.31	1439.43
413.50	1317.72
413.69	1394.96
413.88	1479.22
414.07	1579.86
414.26	1455.81
414.45	1404.32
414.64	1490.92
414.83	1563.48
415.02	1497.94
415.22	1565.82
415.41	1600.93
415.60	1582.20
415.79	1570.50
415.98	1668.80
416.17	1687.53
416.36	1488.58
416.55	1640.72
416.74	1713.27
416.93	1696.89
417.12	1671.14
417.31	1626.67
417.50	1750.72
417.69	1717.95
417.88	1806.89
418.07	1734.34
418.26	1764.76
418.45	1806.89
418.64	1710.93
418.83	1783.49
419.02	1799.87
419.21	1806.89
419.39	1799.87
419.58	1795.19
419.77	1806.89
419.96	1823.28
420.15	1980.09
420.34	1832.64
420.53	1799.87
420.72	1825.62
420.91	1914.56
421.10	1952.01
421.29	2052.65
421.48	1923.92
421.67	1959.03
421.86	1982.43
422.05	2008.18
422.24	1991.80
422.43	1900.52
422.61	2017.54
422.80	1991.80
422.99	2040.95
423.18	2003.50
423.37	2045.63
423.56	1991.80
423.75	1994.14
423.94	2033.93
424.13	1881.79
424.32	1886.47
424.50	1944.99
424.69	1996.48
424.88	2165.00
425.07	2001.16
425.26	2015.20
425.45	2040.95
425.64	2045.63
425.83	2005.84
426.01	2036.27
426.20	2054.99
426.39	2186.06
426.58	2019.88
426.77	2153.29
426.96	2005.84
427.15	2141.59
427.33	2146.27
427.52	2005.84
427.71	2230.53
427.90	2127.55
428.09	2073.71
428.28	2237.55
428.46	2221.17
428.65	2228.19
428.84	2111.16
429.03	2277.34
429.22	2223.51
429.40	2340.54
429.59	2211.81
429.78	2190.74
429.97	2162.66
430.16	2153.29
430.34	2284.36
430.53	2377.98
430.72	2300.75
430.91	2366.28
431.10	2389.69
431.28	2284.36
431.47	2420.11
431.66	2359.26
431.85	2314.79
432.03	2359.26
432.22	2438.84
432.41	2406.07
432.60	2417.77
432.79	2443.52
432.97	2509.05
433.16	2380.32
433.35	2342.88
433.54	2548.84
433.72	2476.29
433.91	2602.68
434.10	2567.57
434.28	2548.84
434.47	2597.99
434.66	2558.21
434.85	2583.95
435.03	2597.99
435.22	2504.37
435.41	2719.70
435.59	2658.85
435.78	2516.08
435.97	2605.02
436.16	2626.08
436.34	2647.15
436.53	2722.04
436.72	2693.96
436.90	2569.91
437.09	2810.98
437.28	2654.17
437.46	2736.09
437.65	2820.35
437.84	2708.00
438.02	2860.13
438.21	2822.69
438.40	2733.75
438.58	2864.82
438.77	2820.35
438.96	2846.09
439.14	2918.65
439.33	3023.97
439.52	3047.38
439.70	2998.23
439.89	2979.50
440.08	2974.82
440.26	3248.66
440.45	3124.62
440.63	3112.91
440.82	3129.30
441.01	3124.62
441.19	2972.48
441.38	3300.16
441.57	3194.83
441.75	3293.13
441.94	3239.30
442.12	3138.66
442.31	3269.73
442.50	3339.94
442.68	3241.64
442.87	3379.73
443.05	3304.84
443.24	3304.84
443.43	3318.88
443.61	3431.23
443.80	3361.01
443.98	3220.58
444.17	3187.81
444.35	3428.88
444.54	3424.20
444.73	3447.61
444.91	3379.73
445.10	3386.76
445.28	3431.23
445.47	3426.54
445.65	3527.19
445.84	3403.14
446.02	3405.48
446.21	3384.41
446.39	3452.29
446.58	3475.70
446.77	3412.50
446.95	3435.91
447.14	3524.85
447.32	3508.46
447.51	3545.91
447.69	3510.80
447.88	3405.48
448.06	3552.93
448.25	3412.50
448.43	3691.02
448.62	3630.17
448.80	3581.02
448.99	3541.23
449.17	3707.41
449.36	3599.74
449.54	3779.97
449.73	3691.02
449.91	3691.02
450.10	3611.45
450.28	3772.94
450.46	3709.75
450.65	3758.90
450.83	3791.67
451.02	3611.45
451.20	3838.48
451.39	3864.22
451.57	3786.99
451.76	3686.34
451.94	3878.27
452.13	3964.87
452.31	3995.29
452.49	3674.64
452.68	3908.69
452.86	3939.12
453.05	3885.29
453.23	3995.29
453.42	3791.67
453.60	3812.73
453.78	3929.76
453.97	3775.28
454.15	3941.46
454.34	3850.18
454.52	3953.16
454.70	4070.19
454.89	4032.74
455.07	3955.51
455.26	3997.64
455.44	3997.64
455.62	4070.19
455.81	4269.14
455.99	4180.20
456.17	4088.92
456.36	4084.23
456.54	4252.75
456.73	4152.11
456.91	4374.46
457.09	4351.06
457.28	4308.93
457.46	4184.88
457.64	4411.91
457.83	4142.75
458.01	4245.73
458.19	4147.43
458.38	4301.90
458.56	4411.91
458.74	4395.53
458.93	4332.33
459.11	4416.59
459.29	4285.52
459.48	4479.79
459.66	4386.16
459.84	4344.03
460.03	4744.27
460.21	4662.35
460.39	4718.52
460.57	4440.00
460.76	4589.79
460.94	4844.91
461.12	4629.58
461.31	4667.03
461.49	4718.52
461.67	4617.88
461.85	4587.45
462.04	4664.69
462.22	4720.86
462.40	4535.96
462.59	4770.01
462.77	4657.67
462.95	4741.93
463.13	4596.81
463.32	4704.48
463.50	4929.17
463.68	4912.78
463.86	4837.89
464.05	4730.22
464.23	4908.10
464.41	4816.82
464.59	4919.81
464.78	5011.09
464.96	4849.59
465.14	4912.78
465.32	5015.77
465.50	5055.56
465.69	5053.22
465.87	4975.98
466.05	4992.36
466.23	4912.78
466.41	5198.33
466.60	5259.18
466.78	5008.75
466.96	5029.81
467.14	4938.53
467.32	5109.39
467.51	5305.99
467.69	5078.96
467.87	5142.16
468.05	5217.05
468.23	5100.03
468.41	5102.37
468.60	5200.67
468.78	5313.02
468.96	5317.70
469.14	5296.63
469.32	5280.25
469.50	5252.16
469.69	5303.65
469.87	5413.66
470.05	5399.62
470.23	5305.99
470.41	5291.95
470.59	5441.75
470.77	5423.02
470.95	5441.75
471.14	5533.03
471.32	5465.15
471.50	5626.65
471.68	5570.48
471.86	5547.07
472.04	5614.95
472.22	5778.78
472.40	5654.73
472.58	5797.51
472.77	5624.31
472.95	5731.97
473.13	6064.33
473.31	5748.36
473.49	5790.49
473.67	5830.27
473.85	5935.60
474.03	5973.05
474.21	5991.77
474.39	5841.98
474.57	6146.25
474.75	6141.57
474.93	6190.72
475.12	6141.57
475.30	6150.93
475.48	6235.19
475.66	6146.25
475.84	6345.19
476.02	6321.79
476.20	6464.56
476.38	6473.92
476.56	6586.27
476.74	6640.10
476.92	6750.10
477.10	6595.63
477.28	6691.59
477.46	6602.65
477.64	6715.00
477.82	6738.40
478.00	6944.37
478.18	6953.73
478.36	6850.75
478.54	7045.01
478.72	7136.29
478.90	7089.48
479.08	7080.12
479.26	7208.85
479.44	7321.20
479.62	7438.22
479.80	7368.01
479.98	7527.16
480.16	7424.18
480.34	7478.01
480.52	7581.00
480.70	7637.17
480.88	7548.23
481.06	7880.58
481.24	7934.42
481.41	7946.12
481.59	7971.86
481.77	8173.15
481.95	7948.46
482.13	8196.56
482.31	8070.17
482.49	8219.96
482.67	8376.78
482.85	8381.46
483.03	8706.79
483.21	8498.49
483.39	8573.38
483.57	8692.75
483.74	8802.75
483.92	8699.77
484.10	8674.03
484.28	8760.63
484.46	8957.23
484.64	9125.75
484.82	9177.24
485.00	9034.47
485.18	9177.24
485.35	9334.06
485.53	9497.89
485.71	9352.78
485.89	9694.50
486.07	9680.46
486.25	9423.00
486.43	9451.08
486.61	9874.72
486.78	9666.41
486.96	9785.78
487.14	9951.96
487.32	10134.52
487.50	10214.10
487.68	10345.17
487.85	10317.08
488.03	10537.09
488.21	10752.42
488.39	10616.67
488.57	10846.04
488.75	10665.82
488.92	10942.00
489.10	10979.45
489.28	10986.47
489.46	10986.47
489.64	10939.66
489.81	11267.34
489.99	11459.26
490.17	11262.66
490.35	11508.41
490.53	11412.45
490.70	11658.21
490.88	11744.81
491.06	11639.48
491.24	11602.04
491.41	11800.98
491.59	11941.41
491.77	11810.34
491.95	12241.00
492.13	12245.68
492.30	12273.77
492.48	12262.07
492.66	12182.49
492.84	12304.20
493.01	12592.08
493.19	12631.87
493.37	12674.00
493.54	12704.43
493.72	12681.02
493.90	12837.84
494.08	12889.33
494.25	13193.60
494.43	13027.42
494.61	13317.65
494.79	13401.91
494.96	13172.54
495.14	13570.43
495.32	13568.09
495.49	13455.74
495.67	13598.51
495.85	13743.63
496.02	13685.11
496.20	14293.65
496.38	13855.97
496.55	14090.02
496.73	14396.64
496.91	14012.79
497.09	14228.12
497.26	14429.40
497.44	14338.12
497.62	14511.32
497.79	14511.32
497.97	14445.79
498.14	14981.77
498.32	14909.21
498.50	14820.27
498.67	14972.41
498.85	14892.83
499.03	15005.17
499.20	15049.64
499.38	15122.20
499.56	15171.35
499.73	15054.33
499.91	15356.25
500.08	15288.38
500.26	15161.99
500.44	15494.35
500.61	15627.76
500.79	15367.96
500.97	15864.15
501.14	16004.58
501.32	15693.29
501.49	15548.18
501.67	15702.65
501.84	15932.03
502.02	15896.92
502.20	16168.42
502.37	16280.77
502.55	16189.49
502.72	16416.52
502.90	16231.62
503.07	15845.43
503.25	16074.80
503.43	16222.25
503.60	16531.20
503.78	16470.35
503.95	16535.88
504.13	16664.61
504.30	16554.61
504.48	16669.30
504.65	17149.11
504.83	16975.91
505.01	16863.56
505.18	17074.21
505.36	17348.05
505.53	17123.36
505.71	17135.06
505.88	17137.40
506.06	17266.13
506.23	17195.92
506.41	17053.14
506.58	17497.84
506.76	17319.96
506.93	17626.57
507.11	17631.26
507.28	17275.49
507.46	17598.49
507.63	17720.20
507.81	18118.09
507.98	17551.68
508.16	17490.82
508.33	17874.67
508.50	17664.02
508.68	17841.90
508.85	18075.96
509.03	17912.12
509.20	18094.68
509.38	18487.89
509.55	18097.02
509.73	18293.63
509.90	18197.67
510.08	18113.41
510.25	18326.39
510.42	18553.43
510.60	18740.67
510.77	18448.10
510.95	18956.00
511.12	18602.58
511.30	18635.35
511.47	18810.89
511.64	18766.42
511.82	18925.57
511.99	19007.49
512.17	19009.83
512.34	18801.52
512.51	19152.60
512.69	19112.81
512.86	19438.15
513.04	19522.41
513.21	19346.87
513.38	19466.24
513.56	19384.32
513.73	19550.49
513.90	19791.57
514.08	19323.46
514.25	19365.59
514.43	19850.08
514.60	19747.10
514.77	19564.54
514.95	19789.23
515.12	19716.67
515.29	20025.62
515.47	20301.81
515.64	19957.75
515.81	20009.24
515.99	19941.36
516.16	20262.02
516.33	20187.12
516.51	20505.43
516.68	20100.52
516.85	19922.64
517.03	20608.42
517.20	20486.71
517.37	20477.35
517.54	20512.46
517.72	20788.64
517.89	20739.49
518.06	20945.45
518.24	20781.62
518.41	20798.00
518.58	20830.77
518.75	20950.14
518.93	20947.79
519.10	20954.82
519.27	20989.92
519.45	21167.80
519.62	20978.22
519.79	20685.65
519.96	21069.50
520.14	20830.77
520.31	21422.92
520.48	21465.05
520.65	21362.07
520.83	21223.98
521.00	21240.36
521.17	21411.22
521.34	21343.35
521.52	21654.64
521.69	21549.31
521.86	21685.06
522.03	21788.05
522.20	21909.75
522.38	21748.26
522.55	21497.82
522.72	21912.10
522.89	21771.66
523.07	21755.28
523.24	22057.21
523.41	22097.00
523.58	21799.75
523.75	22321.69
523.92	21912.10
524.10	22106.36
524.27	22293.60
524.44	22319.35
524.61	22801.50
524.78	22611.92
524.96	22717.24
525.13	22190.62
525.30	22522.98
525.47	22654.05
525.64	22494.89
525.81	22874.06
525.98	22604.89
526.16	22932.57
526.33	22719.58
526.50	22871.72
526.67	22693.83
526.84	22934.91
527.01	22719.58
527.18	22792.14
527.36	22857.67
527.53	23026.19
527.70	23386.63
527.87	23548.13
528.04	23152.58
528.21	23246.20
528.38	23080.02
528.55	23295.35
528.72	23356.21
528.89	23463.87
529.07	23468.55
529.24	23185.35
529.41	23466.21
529.58	23410.04
529.75	23681.54
529.92	23491.96
530.09	23515.36
530.26	23608.98
530.43	23665.16
530.60	23840.70
530.77	23524.72
530.94	23864.10
531.11	23775.16
531.28	23632.39
531.46	23770.48
531.63	24081.77
531.80	24034.96
531.97	24243.27
532.14	23899.21
532.31	24067.73
532.48	23981.13
532.65	24350.93
532.82	24133.26
532.99	24631.80
533.16	23859.42
533.33	24697.33
533.50	24512.43
533.67	24395.40
533.84	24266.67
534.01	24367.32
534.18	24163.69
534.35	24493.71
534.52	24638.82
534.69	24643.50
534.86	24666.91
535.03	24559.24
535.20	24430.51
535.37	24531.15
535.54	24893.94
535.71	24542.86
535.88	24521.79
536.05	24697.33
536.22	24519.45
536.38	24826.06
536.55	25032.03
536.72	24819.04
536.89	24826.06
537.06	25106.93
537.23	25043.73
537.40	25041.39
537.57	24863.51
537.74	25209.91
537.91	25516.52
538.08	25460.35
538.25	25050.75
538.42	25153.74
538.59	25261.40
538.75	25256.72
538.92	25319.92
539.09	25701.42
539.26	25383.11
539.43	25759.94
539.60	25731.85
539.77	25614.82
539.94	25642.91
540.11	25736.53
540.28	25542.27
540.44	25446.30
540.61	25481.41
540.78	25589.08
540.95	25862.92
541.12	26075.91
541.29	25757.60
541.46	25781.00
541.62	25553.97
541.79	25898.03
541.96	25654.61
542.13	25322.26
542.30	25881.64
542.47	25895.69
542.63	26181.23
542.80	26305.28
542.97	26522.95
543.14	26670.40
543.31	26469.12
543.48	26178.89
543.64	26288.90
543.81	26581.46
543.98	26597.85
544.15	26305.28
544.32	26677.43
544.48	26590.83
544.65	26515.93
544.82	26436.35
544.99	26487.84
545.16	26590.83
545.32	26192.94
545.49	26815.52
545.66	27026.17
545.83	26923.18
546.00	26700.83
546.16	26661.04
546.33	26618.91
546.50	26375.50
546.67	27023.83
546.83	26342.73
547.00	27175.96
547.17	26850.63
547.34	27232.13
547.50	27068.30
547.67	27480.23
547.84	27012.12
548.00	27318.73
548.17	27124.47
548.34	27033.19
548.51	27438.10
548.67	27566.83
548.84	27543.42
549.01	27175.96
549.18	27314.05
549.34	27323.41
549.51	27187.66
549.68	27475.55
549.84	27232.13
550.01	27866.42
550.18	27157.24
550.34	27402.99
550.51	27576.19
550.68	27852.38
550.84	27477.89
551.01	27814.93
551.18	27388.95
551.34	27426.40
551.51	27543.42
551.68	27604.28
551.84	27721.30
552.01	27896.85
552.18	27777.48
552.34	27513.00
552.51	27763.43
552.68	27302.35
552.84	27756.41
553.01	27812.59
553.18	27946.00
553.34	28203.46
553.51	28051.32
553.67	27964.72
553.84	28224.52
554.01	27999.83
554.17	28266.65
554.34	28004.51
554.51	28128.56
554.67	28287.71
554.84	28463.25
555.00	28411.76
555.17	28039.62
555.33	28261.97
555.50	27971.74
555.67	28006.85
555.83	27885.14
556.00	28304.10
556.16	28416.44
556.33	28133.24
556.50	28631.77
556.66	28779.23
556.83	28336.87
556.99	28456.23
557.16	28931.36
557.32	28823.70
557.49	29127.97
557.65	28273.67
557.82	28053.66
557.98	28306.44
558.15	28547.51
558.32	28304.10
558.48	28224.52
558.65	28931.36
558.81	28400.06
558.98	28273.67
559.14	28687.95
559.31	28666.88
559.47	28449.21
559.64	28917.32
559.80	28704.33
559.97	28931.36
560.13	28620.07
560.30	28922.00
560.46	28793.27
560.63	28786.25
560.79	28781.57
560.96	28844.76
561.12	28879.87
561.29	29039.03
561.45	28905.62
561.61	28886.89
561.78	28938.38
561.94	28945.41
562.11	28861.15
562.27	29046.05
562.44	28905.62
562.60	28851.78
562.77	28863.49
562.93	28994.56
563.10	29277.76
563.26	28652.84
563.42	29406.49
563.59	28957.11
563.75	29064.77
563.92	28863.49
564.08	28816.68
564.24	28809.65
564.41	28844.76
564.57	29123.29
564.74	28924.34
564.90	29280.10
565.07	29015.62
565.23	29223.93
565.39	29284.78
565.56	29336.27
565.72	29230.95
565.88	29055.41
566.05	28727.74
566.21	29394.79
566.38	29357.34
566.54	29074.13
566.70	29193.50
566.87	29315.21
567.03	29177.12
567.19	29495.43
567.36	29422.87
567.52	29303.51
567.68	29333.93
567.85	29074.13
568.01	29387.77
568.17	29013.28
568.34	29085.84
568.50	29507.13
568.66	29301.17
568.83	29511.81
568.99	29598.41
569.15	29509.47
569.32	29303.51
569.48	29537.56
569.64	29584.37
569.81	29397.13
569.97	29069.45
570.13	29944.81
570.30	29399.47
570.46	29343.30
570.62	29638.20
570.78	29544.58
570.95	29390.11
571.11	29682.67
571.27	29675.65
571.43	29385.43
571.60	29553.94
571.76	29975.24
571.92	29364.36
572.09	29645.23
572.25	29675.65
572.41	29820.77
572.57	29509.47
572.74	29809.06
572.90	29612.46
573.06	29523.52
573.22	29582.03
573.38	29179.46
573.55	29158.39
573.71	29961.20
573.87	30054.82
574.03	29654.59
574.20	29584.37
574.36	29549.26
574.52	29214.57
574.68	29563.31
574.84	29844.17
575.01	30096.95
575.17	29649.91
575.33	29399.47
575.49	29809.06
575.65	29514.16
575.82	30022.05
575.98	29757.57
576.14	29853.53
576.30	29661.61
576.46	29668.63
576.62	29883.96
576.79	29724.80
576.95	29572.67
577.11	29832.47
577.27	29546.92
577.43	29619.48
577.59	29965.88
577.75	29881.62
577.92	29493.09
578.08	29610.12
578.24	29661.61
578.40	29996.31
578.56	29855.87
578.72	29841.83
578.88	30115.67
579.04	29879.28
579.21	29656.93
579.37	29724.80
579.53	30438.67
579.69	29502.45
579.85	30029.07
580.01	29652.25
580.17	29460.32
580.33	30038.44
580.49	29745.87
580.65	29909.71
580.82	29752.89
580.98	29841.83
581.14	29654.59
581.30	29865.24
581.46	29970.56
581.62	30052.48
581.78	29511.81
581.94	29813.74
582.10	29799.70
582.26	30157.80
582.42	29797.36
582.58	30228.02
582.74	29738.85
582.90	30202.27
583.06	30031.41
583.22	29598.41
583.38	29766.93
583.54	29883.96
583.70	29640.54
583.86	29764.59
584.02	29837.15
584.18	29890.98
584.34	30087.59
584.50	29741.19
584.66	29984.60
584.82	29738.85
584.98	29766.93
585.14	29898.00
585.30	29567.99
585.46	29825.45
585.62	29909.71
585.78	30050.14
585.94	29322.23
586.10	29844.17
586.26	29972.90
586.42	29968.22
586.58	30188.23
586.74	30256.11
586.90	29809.06
587.06	29661.61
587.22	29930.77
587.38	29893.32
587.54	30543.99
587.70	30164.82
587.86	29846.51
588.02	29837.15
588.18	30433.99
588.34	30267.81
588.49	30064.18
588.65	29848.85
588.81	30010.35
588.97	30286.53
589.13	29699.06
589.29	30347.39
589.45	30148.44
589.61	30604.84
589.77	30391.86
589.93	30162.48
590.08	30340.36
590.24	30314.62
590.40	30202.27
590.56	30483.14
590.72	30455.05
590.88	30012.69
591.04	30307.60
591.20	30462.07
591.35	30581.44
591.51	30567.40
591.67	30326.32
591.83	30679.74
591.99	30600.16
