SpectraSuite Data File
++++++++++++++++++++++++++++++++++++
Date: Fri Oct 18 13:57:58 GMT-05:00 2013
User: bianchi
Dark Spectrum Present: No
Reference Spectrum Present: No
Number of Sampled Component Spectra: 1
Spectrometers: USB2+H05261
Integration Time (usec): 50000 (USB2+H05261)
Spectra Averaged: 1 (USB2+H05261)
Boxcar Smoothing: 0 (USB2+H05261)
Correct for Electrical Dark: No (USB2+H05261)
Strobe/Lamp Enabled: No (USB2+H05261)
Correct for Detector Non-linearity: No (USB2+H05261)
Correct for Stray Light: No (USB2+H05261)
Number of Pixels in Processed Spectrum: 2048
>>>>>Begin Processed Spectral Data<<<<<
365.73	28.09
365.92	28.09
366.12	28.09
366.32	0.00
366.52	0.00
366.72	0.00
366.91	0.00
367.11	0.00
367.31	0.00
367.51	0.00
367.70	0.00
367.90	0.00
368.10	0.00
368.30	0.00
368.49	0.00
368.69	0.00
368.89	0.00
369.09	0.00
369.28	0.00
369.48	0.00
369.68	0.00
369.87	0.00
370.07	0.00
370.27	0.00
370.47	0.00
370.66	16.38
370.86	149.79
371.06	163.84
371.25	105.32
371.45	163.84
371.65	166.18
371.84	142.77
372.04	110.01
372.24	128.73
372.44	166.18
372.63	194.26
372.83	236.39
373.03	220.01
373.22	238.73
373.42	194.26
373.62	283.20
373.81	161.50
374.01	269.16
374.21	262.14
374.40	238.73
374.60	297.25
374.79	142.77
374.99	231.71
375.19	313.63
375.38	294.91
375.58	198.95
375.78	325.33
375.97	215.33
376.17	241.08
376.37	348.74
376.56	255.12
376.76	177.88
376.95	257.46
377.15	280.86
377.35	241.08
377.54	306.61
377.74	264.48
377.93	262.14
378.13	337.04
378.33	304.27
378.52	301.93
378.72	297.25
378.91	262.14
379.11	304.27
379.31	301.93
379.50	306.61
379.70	337.04
379.89	320.65
380.09	372.15
380.28	365.12
380.48	334.70
380.68	292.57
380.87	304.27
381.07	266.82
381.26	318.31
381.46	367.46
381.65	315.97
381.85	381.51
382.04	285.55
382.24	383.85
382.43	264.48
382.63	322.99
382.83	407.25
383.02	353.42
383.22	407.25
383.41	374.49
383.61	388.53
383.80	360.44
384.00	421.30
384.19	344.06
384.39	346.40
384.58	369.80
384.78	414.27
384.97	355.76
385.17	346.40
385.36	400.23
385.56	294.91
385.75	360.44
385.95	374.49
386.14	444.70
386.34	477.47
386.53	358.10
386.72	330.02
386.92	461.09
387.11	461.09
387.31	386.19
387.50	411.93
387.70	409.59
387.89	400.23
388.09	423.64
388.28	465.77
388.48	442.36
388.67	458.74
388.86	484.49
389.06	430.66
389.25	458.74
389.45	423.64
389.64	496.19
389.84	533.64
390.03	458.74
390.22	454.06
390.42	470.45
390.61	447.04
390.81	510.24
391.00	479.81
391.19	573.43
391.39	423.64
391.58	540.66
391.78	521.94
391.97	535.98
392.16	545.34
392.36	596.84
392.55	552.37
392.75	564.07
392.94	580.45
393.13	524.28
393.33	524.28
393.52	573.43
393.71	620.24
393.91	615.56
394.10	655.35
394.29	557.05
394.49	540.66
394.68	627.26
394.88	629.60
395.07	589.82
395.26	624.92
395.46	664.71
395.65	594.50
395.84	589.82
396.04	589.82
396.23	683.44
396.42	559.39
396.62	676.41
396.81	716.20
397.00	669.39
397.19	702.16
397.39	770.04
397.58	699.82
397.77	716.20
397.97	765.36
398.16	657.69
398.35	702.16
398.55	657.69
398.74	765.36
398.93	777.06
399.12	699.82
399.32	669.39
399.51	734.93
399.70	739.61
399.90	755.99
400.09	758.33
400.28	753.65
400.47	880.04
400.67	751.31
400.86	891.74
401.05	755.99
401.24	821.53
401.44	840.25
401.63	842.59
401.82	854.30
402.01	770.04
402.21	779.40
402.40	814.51
402.59	800.46
402.78	889.40
402.97	835.57
403.17	868.34
403.36	889.40
403.55	884.72
403.74	894.08
403.93	901.11
404.13	851.96
404.32	933.87
404.51	875.36
404.70	964.30
404.89	908.13
405.09	961.96
405.28	976.00
405.47	1004.09
405.66	980.68
405.85	1118.78
406.05	976.00
406.24	1011.11
406.43	1039.20
406.62	1027.50
406.81	1062.60
407.00	983.02
407.20	1004.09
407.39	999.41
407.58	1067.28
407.77	1071.97
407.96	1114.10
408.15	1102.39
408.34	1186.65
408.54	1071.97
408.73	1123.46
408.92	1100.05
409.11	1179.63
409.30	1217.08
409.49	1137.50
409.68	1144.52
409.87	1156.22
410.07	1224.10
410.26	1188.99
410.45	1160.91
410.64	1184.31
410.83	1291.98
411.02	1207.72
411.21	1275.59
411.40	1217.08
411.59	1355.17
411.78	1193.67
411.98	1341.13
412.17	1399.64
412.36	1287.29
412.55	1315.38
412.74	1378.58
412.93	1418.36
413.12	1268.57
413.31	1416.02
413.50	1383.26
413.69	1411.34
413.88	1420.71
414.07	1327.08
414.26	1556.46
414.45	1479.22
414.64	1483.90
414.83	1535.39
415.02	1460.49
415.22	1481.56
415.41	1591.56
415.60	1537.73
415.79	1579.86
415.98	1724.97
416.17	1694.55
416.36	1652.42
416.55	1671.14
416.74	1565.82
416.93	1708.59
417.12	1750.72
417.31	1804.55
417.50	1631.35
417.69	1825.62
417.88	1818.60
418.07	1832.64
418.26	1870.09
418.45	1818.60
418.64	1844.34
418.83	1944.99
419.02	1830.30
419.21	1912.22
419.39	1856.04
419.58	1942.64
419.77	1973.07
419.96	1867.75
420.15	1923.92
420.34	2038.61
420.53	1867.75
420.72	2010.52
420.91	1933.28
421.10	1947.33
421.29	1977.75
421.48	1916.90
421.67	2040.95
421.86	1952.01
422.05	2033.93
422.24	1998.82
422.43	1968.39
422.61	2015.20
422.80	1942.64
422.99	2003.50
423.18	2113.50
423.37	1961.37
423.56	2054.99
423.75	2080.74
423.94	2036.27
424.13	2010.52
424.32	2012.86
424.50	2047.97
424.69	2127.55
424.88	2139.25
425.07	2087.76
425.26	2036.27
425.45	2076.06
425.64	1975.41
425.83	2062.01
426.01	2073.71
426.20	2162.66
426.39	2003.50
426.58	2090.10
426.77	2179.04
426.96	2153.29
427.15	2122.87
427.33	2188.40
427.52	2251.60
427.71	2265.64
427.90	2064.35
428.09	2146.27
428.28	2244.57
428.46	2324.15
428.65	2279.68
428.84	2331.17
429.03	2349.90
429.22	2155.63
429.40	2228.19
429.59	2317.13
429.78	2237.55
429.97	2134.57
430.16	2232.87
430.34	2342.88
430.53	2408.41
430.72	2265.64
430.91	2279.68
431.10	2406.07
431.28	2480.97
431.47	2406.07
431.66	2497.35
431.85	2331.17
432.03	2476.29
432.22	2518.42
432.41	2471.61
432.60	2443.52
432.79	2455.22
432.97	2541.82
433.16	2450.54
433.35	2539.48
433.54	2513.74
433.72	2483.31
433.91	2597.99
434.10	2586.29
434.28	2574.59
434.47	2558.21
434.66	2698.64
434.85	2703.32
435.03	2693.96
435.22	2693.96
435.41	2799.28
435.59	2780.56
435.78	2640.12
435.97	2708.00
436.16	2724.38
436.34	2733.75
436.53	2745.45
436.72	2867.16
436.90	2633.10
437.09	2871.84
437.28	2827.37
437.46	2818.00
437.65	2916.31
437.84	2869.50
438.02	2796.94
438.21	2827.37
438.40	2825.03
438.58	2977.16
438.77	2895.24
438.96	2965.46
439.14	3080.14
439.33	2946.73
439.52	3129.30
439.70	3089.51
439.89	3089.51
440.08	3103.55
440.26	3035.67
440.45	3211.22
440.63	3164.40
440.82	2979.50
441.01	3183.13
441.19	3164.40
441.38	3311.86
441.57	3253.34
441.75	3417.18
441.94	3307.18
442.12	3370.37
442.31	3445.27
442.50	3403.14
442.68	3442.93
442.87	3424.20
443.05	3386.76
443.24	3492.08
443.43	3407.82
443.61	3454.63
443.80	3520.17
443.98	3379.73
444.17	3452.29
444.35	3543.57
444.54	3658.26
444.73	3562.30
444.91	3559.95
445.10	3581.02
445.28	3632.51
445.47	3445.27
445.65	3602.08
445.84	3482.72
446.02	3562.30
446.21	3445.27
446.39	3581.02
446.58	3492.08
446.77	3754.22
446.95	3562.30
447.14	3499.10
447.32	3662.94
447.51	3506.12
447.69	3623.15
447.88	3775.28
448.06	3496.76
448.25	3695.71
448.43	3630.17
448.62	3747.20
448.80	3599.74
448.99	3709.75
449.17	3733.15
449.36	3609.11
449.54	3721.45
449.73	3824.44
449.91	3796.35
450.10	3829.12
450.28	3829.12
450.46	3887.63
450.65	3754.22
450.83	3852.52
451.02	3801.03
451.20	3922.74
451.39	3831.46
451.57	3868.91
451.76	3719.11
451.94	3962.53
452.13	3913.38
452.31	3866.56
452.49	3889.97
452.68	3955.51
452.86	3934.44
453.05	3960.19
453.23	4121.68
453.42	4014.02
453.60	4058.49
453.78	4042.11
453.97	3840.82
454.15	4049.13
454.34	4109.98
454.52	4030.40
454.70	4093.60
454.89	4248.07
455.07	4290.20
455.26	4227.01
455.44	4320.63
455.62	4095.94
455.81	4222.33
455.99	4196.58
456.17	4257.43
456.36	4269.14
456.54	4297.22
456.73	4194.24
456.91	4400.21
457.09	4379.14
457.28	4442.34
457.46	4475.10
457.64	4402.55
457.83	4489.15
458.01	4390.84
458.19	4521.92
458.38	4554.68
458.56	4606.17
458.74	4542.98
458.93	4374.46
459.11	4610.86
459.29	4418.93
459.48	4512.55
459.66	4737.24
459.84	4592.13
460.03	4727.88
460.21	4681.07
460.39	4758.31
460.57	4608.51
460.76	4660.01
460.94	4812.14
461.12	4638.94
461.31	4550.00
461.49	4727.88
461.67	4613.20
461.85	5001.72
462.04	4716.18
462.22	5238.12
462.40	4753.63
462.59	4889.38
462.77	5020.45
462.95	4926.83
463.13	4884.70
463.32	4823.84
463.50	4863.63
463.68	5015.77
463.86	5085.98
464.05	5060.24
464.23	5053.22
464.41	4999.38
464.59	5062.58
464.78	5174.92
464.96	4997.04
465.14	5043.85
465.32	5074.28
465.50	5095.35
465.69	5130.45
465.87	4997.04
466.05	5195.99
466.23	5118.75
466.41	5142.16
466.60	5324.72
466.78	5195.99
466.96	5160.88
467.14	5413.66
467.32	5305.99
467.51	5427.70
467.69	5317.70
467.87	5268.55
468.05	5373.87
468.23	5357.49
468.41	5219.39
468.60	5380.89
468.78	5453.45
468.96	5439.40
469.14	5317.70
469.32	5397.28
469.50	5373.87
469.69	5509.62
469.87	5687.50
470.05	5596.22
470.23	5638.35
470.41	5657.07
470.59	5579.84
470.77	5547.07
470.95	5563.45
471.14	5846.66
471.32	5582.18
471.50	5778.78
471.68	5783.46
471.86	5755.38
472.04	5827.93
472.22	5902.83
472.40	5631.33
472.58	5783.46
472.77	5954.32
472.95	5930.92
473.13	6108.80
473.31	6017.52
473.49	5720.27
473.67	5865.38
473.85	6064.33
474.03	6085.39
474.21	6246.89
474.39	6188.38
474.57	6221.14
474.75	6321.79
474.93	6274.98
475.12	6204.76
475.30	6270.30
475.48	6326.47
475.66	6452.86
475.84	6300.72
476.02	6597.97
476.20	6349.87
476.38	6745.42
476.56	6796.92
476.74	6794.58
476.92	6754.79
477.10	6616.69
477.28	6829.68
477.46	6614.35
477.64	6738.40
477.82	6764.15
478.00	7337.58
478.18	7126.93
478.36	7316.51
478.54	7246.30
478.72	7250.98
478.90	7349.28
479.08	7344.60
479.26	7307.15
479.44	7566.95
479.62	7655.89
479.80	7716.75
479.98	7662.91
480.16	7784.62
480.34	7669.94
480.52	7911.01
480.70	7847.82
480.88	7744.83
481.06	7852.50
481.24	7971.86
481.41	8194.22
481.59	8231.66
481.77	8231.66
481.95	8126.34
482.13	8407.20
482.31	8121.66
482.49	8559.34
482.67	8561.68
482.85	8500.83
483.03	8697.43
483.21	8788.71
483.39	8865.95
483.57	8791.05
483.74	8856.59
483.92	8767.65
484.10	9132.77
484.28	9170.22
484.46	9144.47
484.64	9427.68
484.82	9217.03
485.00	9467.47
485.18	9430.02
485.35	9703.86
485.53	9713.22
485.71	9720.24
485.89	10087.71
486.07	9940.26
486.25	9958.98
486.43	9881.74
486.61	10001.11
486.78	10045.58
486.96	10408.36
487.14	10387.30
487.32	10436.45
487.50	10303.04
487.68	10551.14
487.85	10670.50
488.03	10803.91
488.21	11145.63
488.39	10993.50
488.57	10855.40
488.75	10913.92
488.92	11154.99
489.10	11239.25
489.28	11199.46
489.46	11459.26
489.64	11239.25
489.81	11625.44
489.99	11637.14
490.17	11609.06
490.35	11974.18
490.53	11756.51
490.70	11868.86
490.88	11866.52
491.06	12077.16
491.24	12152.06
491.41	12037.38
491.59	12325.26
491.77	12217.60
491.95	12388.46
492.13	12416.54
492.30	12484.42
492.48	12688.04
492.66	12561.66
492.84	12755.92
493.01	13095.30
493.19	12905.71
493.37	12952.52
493.54	13090.62
493.72	13277.86
493.90	12943.16
494.08	13114.02
494.25	13530.64
494.43	13713.20
494.61	13771.71
494.79	13551.70
494.96	13762.35
495.14	13715.54
495.32	14005.77
495.49	14029.17
495.67	14120.45
495.85	14469.19
496.02	14356.85
496.20	14150.88
496.38	14246.84
496.55	14160.24
496.73	14794.53
496.91	14707.93
497.09	14707.93
497.26	14562.81
497.44	14710.27
497.62	14937.30
497.79	15059.01
497.97	14993.47
498.14	15136.24
498.32	15405.41
498.50	15339.87
498.67	15421.79
498.85	15391.36
499.03	15513.07
499.20	15566.90
499.38	15445.20
499.56	15428.81
499.73	15974.16
499.91	16030.33
500.08	16145.02
500.26	15653.50
500.44	15728.40
500.61	16240.98
500.79	16070.12
500.97	16198.85
501.14	16872.92
501.32	16187.14
501.49	16086.50
501.67	16140.33
501.84	16372.05
502.02	16409.50
502.20	16430.56
502.37	16662.27
502.55	16479.71
502.72	16830.79
502.90	16805.05
503.07	16685.68
503.25	16545.25
503.43	16893.99
503.60	17085.91
503.78	17205.28
503.95	17224.00
504.13	17039.10
504.30	17336.35
504.48	17160.81
504.65	17350.39
504.83	17479.12
505.01	17743.60
505.18	17177.19
505.36	17572.74
505.53	17397.20
505.71	17509.55
505.88	17902.76
506.06	17476.78
506.23	17649.98
506.41	18115.75
506.58	17879.35
506.76	17944.89
506.93	18022.12
507.11	17926.16
507.28	18087.66
507.46	17736.58
507.63	18099.36
507.81	18572.15
507.98	18394.27
508.16	18293.63
508.33	18459.81
508.50	18679.82
508.68	18438.74
508.85	18885.78
509.03	18794.50
509.20	18838.97
509.38	18801.52
509.55	18747.69
509.73	18974.72
509.90	18890.46
510.08	18724.29
510.25	18834.29
510.42	19157.28
510.60	19058.98
510.77	19243.88
510.95	19157.28
511.12	19208.78
511.30	19136.22
511.47	19398.36
511.64	19365.59
511.82	19667.52
511.99	19756.46
512.17	19604.33
512.34	19634.75
512.51	19669.86
512.69	20126.27
512.86	19793.91
513.04	19866.47
513.21	20294.79
513.38	20065.41
513.56	20063.07
513.73	20147.33
513.90	20070.09
514.08	20311.17
514.25	20423.51
514.43	20491.39
514.60	20334.57
514.77	20329.89
514.95	20341.60
515.12	20250.32
515.29	20081.80
515.47	20442.24
515.64	20968.86
515.81	20695.02
515.99	20826.09
516.16	20943.11
516.33	20915.03
516.51	20840.13
516.68	20662.25
516.85	20805.02
517.03	20865.88
517.20	21130.36
517.37	21198.23
517.54	21027.37
517.72	21282.49
517.89	21242.70
518.06	21135.04
518.24	21369.09
518.41	21415.90
518.58	21766.98
518.75	21645.27
518.93	21514.20
519.10	21710.81
519.27	21640.59
519.45	21706.13
519.62	21713.15
519.79	21788.05
519.96	21703.79
520.14	21893.37
520.31	21811.45
520.48	22043.17
520.65	21860.60
520.83	22012.74
521.00	21790.39
521.17	22167.21
521.34	21972.95
521.52	22174.24
521.69	22253.81
521.86	22398.93
522.03	22562.76
522.20	22618.94
522.38	22581.49
522.55	22742.99
522.72	22256.15
522.89	22640.00
523.07	23016.83
523.24	22691.49
523.41	22977.04
523.58	22616.60
523.75	22780.43
523.92	22789.80
524.10	22993.42
524.27	22951.29
524.44	23087.04
524.61	23192.37
524.78	23208.75
524.96	23335.14
525.13	23175.98
525.30	23154.92
525.47	23253.22
525.64	23070.66
525.81	23541.11
525.98	23817.29
526.16	23508.34
526.33	23407.70
526.50	23613.66
526.67	23426.42
526.84	23285.99
527.01	23419.40
527.18	23941.34
527.36	23957.72
527.53	23850.06
527.70	24219.86
527.87	24187.10
528.04	24002.19
528.21	24056.03
528.38	24166.03
528.55	23850.06
528.72	24250.29
528.89	24215.18
529.07	24170.71
529.24	23985.81
529.41	24137.94
529.58	24217.52
529.75	24006.87
529.92	24357.96
530.09	24283.06
530.26	24343.91
530.43	24751.17
530.60	24257.31
530.77	24538.18
530.94	24631.80
531.11	24233.91
531.28	24322.85
531.46	24559.24
531.63	24325.19
531.80	24680.95
531.97	24711.38
532.14	25020.33
532.31	25142.03
532.48	24755.85
532.65	25041.39
532.82	24915.00
532.99	25097.56
533.16	24922.02
533.33	25081.18
533.50	25439.28
533.67	25268.42
533.84	25125.65
534.01	25357.36
534.18	25160.76
534.35	25369.07
534.52	25137.35
534.69	25638.23
534.86	25668.66
535.03	25345.66
535.20	25628.87
535.37	25317.57
535.54	25544.61
535.71	25240.34
535.88	25563.33
536.05	25317.57
536.22	25720.15
536.38	25467.37
536.55	25832.49
536.72	25755.26
536.89	25659.29
537.06	26031.44
537.23	26040.80
537.40	25839.51
537.57	25977.61
537.74	26153.15
537.91	26094.63
538.08	26504.23
538.25	25986.97
538.42	25766.96
538.59	25846.54
538.75	25820.79
538.92	25778.66
539.09	26328.69
539.26	26333.37
539.43	26192.94
539.60	26199.96
539.77	26478.48
539.94	26728.92
540.11	26593.17
540.28	26335.71
540.44	26359.11
540.61	26576.78
540.78	26314.64
540.95	26515.93
541.12	26508.91
541.29	26710.19
541.46	26717.22
541.62	26595.51
541.79	26586.15
541.96	26195.28
542.13	26696.15
542.30	26902.12
542.47	26623.59
542.63	27070.64
542.80	26871.69
542.97	27087.02
543.14	27204.05
543.31	26984.04
543.48	27122.13
543.64	27274.26
543.81	27520.02
543.98	27402.99
544.15	27536.40
544.32	27489.59
544.48	27669.81
544.65	27550.45
544.82	27374.91
544.99	27112.77
545.16	27417.04
545.32	27517.68
545.49	27431.08
545.66	27585.55
545.83	27452.14
546.00	27793.86
546.16	27498.95
546.33	27620.66
546.50	27281.28
546.67	27814.93
546.83	27505.98
547.00	27386.61
547.17	27845.35
547.34	27908.55
547.50	28006.85
547.67	28107.49
547.84	28128.56
548.00	28123.88
548.17	28163.67
548.34	27758.75
548.51	28170.69
548.67	28224.52
548.84	28126.22
549.01	27955.36
549.18	28135.58
549.34	28018.55
549.51	28442.19
549.68	28236.22
549.84	28018.55
550.01	28226.86
550.18	27618.32
550.34	28297.08
550.51	28910.30
550.68	28397.72
550.84	27983.44
551.01	28416.44
551.18	27990.47
551.34	28512.41
551.51	28538.15
551.68	28811.99
551.84	28519.43
552.01	28641.14
552.18	28804.97
552.34	28622.41
552.51	28713.69
552.68	28552.20
552.84	28760.50
553.01	28875.19
553.18	28507.72
553.34	28804.97
553.51	28804.97
553.67	28762.84
553.84	29198.18
554.01	29193.50
554.17	29160.73
554.34	28961.79
554.51	28819.02
554.67	29008.60
554.84	29029.66
555.00	29212.23
555.17	28982.85
555.33	29069.45
555.50	29057.75
555.67	29106.90
555.83	28952.43
556.00	29125.63
556.16	29350.32
556.33	29244.99
556.50	29549.26
556.66	29326.91
556.83	28905.62
556.99	29418.19
557.16	29296.49
557.32	29401.81
557.49	29453.30
557.65	29003.92
557.82	29254.36
557.98	29081.16
558.15	29418.19
558.32	29591.39
558.48	29617.14
558.65	29511.81
558.81	29556.28
558.98	29523.52
559.14	29308.19
559.31	29607.78
559.47	29362.02
559.64	29668.63
559.80	29619.48
559.97	29818.42
560.13	29493.09
560.30	29607.78
560.46	30087.59
560.63	29675.65
560.79	30174.19
560.96	29898.00
561.12	29928.43
561.29	29612.46
561.45	29907.37
561.61	29858.21
561.78	30281.85
561.94	29827.79
562.11	29663.95
562.27	29876.94
562.44	29680.33
562.60	29741.19
562.77	29748.21
562.93	29589.05
563.10	30033.75
563.26	29682.67
563.42	30347.39
563.59	29940.13
563.75	30237.38
563.92	30012.69
564.08	29804.38
564.24	29855.87
564.41	30228.02
564.57	30298.23
564.74	30075.88
564.90	30249.08
565.07	29872.26
565.23	29977.58
565.39	30331.00
565.56	30244.40
565.72	30174.19
565.88	29956.52
566.05	30183.55
566.21	29565.65
566.38	30237.38
566.54	30089.93
566.70	30366.11
566.87	30579.10
567.03	30609.53
567.19	30536.97
567.36	30368.45
567.52	30513.56
567.68	30433.99
567.85	30068.86
568.01	30569.74
568.17	30277.17
568.34	30490.16
568.50	31171.25
568.66	30632.93
568.83	30815.49
568.99	30403.56
569.15	30455.05
569.32	30328.66
569.48	30054.82
569.64	30696.13
569.81	30267.81
569.97	30565.06
570.13	30265.47
570.30	30515.90
570.46	30651.66
570.62	30616.55
570.78	30087.59
570.95	30368.45
571.11	30588.46
571.27	30305.26
571.43	30309.94
571.60	30305.26
571.76	30621.23
571.92	30651.66
572.09	30808.47
572.25	30698.47
572.41	30389.52
572.57	30742.94
572.74	30567.40
572.90	30340.36
573.06	30466.75
573.22	30511.22
573.38	30939.54
573.55	30499.52
573.71	30686.76
573.87	30906.77
574.03	30569.74
574.20	30558.03
574.36	30567.40
574.52	30478.46
574.68	30778.04
574.84	30764.00
575.01	30595.48
575.17	30815.49
575.33	30733.57
575.49	30424.62
575.65	30981.67
575.82	30707.83
575.98	30749.96
576.14	31199.34
576.30	30478.46
576.46	30836.56
576.62	30747.62
576.79	30923.16
576.95	30572.08
577.11	30628.25
577.27	31274.24
577.43	30841.24
577.59	30728.89
577.75	30799.11
577.92	30548.67
578.08	30529.95
578.24	30607.19
578.40	31000.40
578.56	30834.22
578.72	30939.54
578.88	31044.87
579.04	31417.01
579.21	30630.59
579.37	30878.69
579.53	30918.48
579.69	30651.66
579.85	30815.49
580.01	30787.41
580.17	30974.65
580.33	31049.55
580.49	31075.29
580.65	31007.42
580.82	30888.05
580.98	30946.56
581.14	31243.81
581.30	30878.69
581.46	30941.88
581.62	30824.86
581.78	30806.13
581.94	30829.54
582.10	30649.32
582.26	30813.15
582.42	30913.80
582.58	30878.69
582.74	30794.43
582.90	31143.17
583.06	30998.06
583.22	30888.05
583.38	30567.40
583.54	30785.07
583.70	30869.33
583.86	30738.26
584.02	30937.20
584.18	31204.02
584.34	31014.44
584.50	31070.61
584.66	30913.80
584.82	30944.22
584.98	30843.58
585.14	31452.12
585.30	30356.75
585.46	30852.94
585.62	31063.59
585.78	30958.27
585.94	30766.34
586.10	31243.81
586.26	31178.28
586.42	31559.78
586.58	30955.93
586.74	31255.51
586.90	30843.58
587.06	31044.87
587.22	31388.92
587.38	30890.39
587.54	31281.26
587.70	31204.02
587.86	30991.03
588.02	31122.10
588.18	31353.82
588.34	31456.80
588.49	30998.06
588.65	30885.71
588.81	31065.93
588.97	30813.15
589.13	31140.83
589.29	31091.68
589.45	31435.74
589.61	30991.03
589.77	31704.90
589.93	31842.99
590.08	31225.09
590.24	31630.00
590.40	31604.25
590.56	31351.48
590.72	31145.51
590.88	31131.47
591.04	31274.24
591.20	31512.97
591.35	31398.29
591.51	31569.15
591.67	31630.00
591.83	31695.53
