SpectraSuite Data File
++++++++++++++++++++++++++++++++++++
Date: Fri Oct 18 13:58:09 GMT-05:00 2013
User: bianchi
Dark Spectrum Present: No
Reference Spectrum Present: No
Number of Sampled Component Spectra: 1
Spectrometers: USB2+H05261
Integration Time (usec): 50000 (USB2+H05261)
Spectra Averaged: 1 (USB2+H05261)
Boxcar Smoothing: 0 (USB2+H05261)
Correct for Electrical Dark: No (USB2+H05261)
Strobe/Lamp Enabled: No (USB2+H05261)
Correct for Detector Non-linearity: No (USB2+H05261)
Correct for Stray Light: No (USB2+H05261)
Number of Pixels in Processed Spectrum: 2048
>>>>>Begin Processed Spectral Data<<<<<
365.73	0.00
365.92	0.00
366.12	0.00
366.32	0.00
366.52	0.00
366.72	0.00
366.91	0.00
367.11	0.00
367.31	0.00
367.51	0.00
367.70	0.00
367.90	0.00
368.10	0.00
368.30	0.00
368.49	0.00
368.69	0.00
368.89	0.00
369.09	0.00
369.28	0.00
369.48	0.00
369.68	0.00
369.87	0.00
370.07	0.00
370.27	0.00
370.47	0.00
370.66	119.37
370.86	95.96
371.06	212.99
371.25	110.01
371.45	88.94
371.65	100.64
371.84	236.39
372.04	191.92
372.24	154.48
372.44	133.41
372.63	236.39
372.83	147.45
373.03	210.65
373.22	203.63
373.42	229.37
373.62	243.42
373.81	205.97
374.01	313.63
374.21	259.80
374.40	205.97
374.60	182.56
374.79	292.57
374.99	299.59
375.19	332.36
375.38	245.76
375.58	212.99
375.78	257.46
375.97	243.42
376.17	271.50
376.37	285.55
376.56	227.03
376.76	259.80
376.95	297.25
377.15	297.25
377.35	315.97
377.54	304.27
377.74	264.48
377.93	318.31
378.13	280.86
378.33	322.99
378.52	306.61
378.72	327.68
378.91	276.18
379.11	348.74
379.31	278.52
379.50	341.72
379.70	287.89
379.89	177.88
380.09	299.59
380.28	301.93
380.48	334.70
380.68	248.10
380.87	278.52
381.07	262.14
381.26	292.57
381.46	299.59
381.65	262.14
381.85	313.63
382.04	315.97
382.24	318.31
382.43	402.57
382.63	341.72
382.83	386.19
383.02	355.76
383.22	379.17
383.41	360.44
383.61	285.55
383.80	341.72
384.00	444.70
384.19	463.43
384.39	374.49
384.58	332.36
384.78	339.38
384.97	421.30
385.17	454.06
385.36	423.64
385.56	433.00
385.75	353.42
385.95	390.87
386.14	411.93
386.34	461.09
386.53	416.62
386.72	479.81
386.92	461.09
387.11	388.53
387.31	390.87
387.50	351.08
387.70	456.40
387.89	435.34
388.09	344.06
388.28	500.87
388.48	479.81
388.67	561.73
388.86	470.45
389.06	482.15
389.25	496.19
389.45	484.49
389.64	444.70
389.84	594.50
390.03	447.04
390.22	411.93
390.42	447.04
390.61	484.49
390.81	425.98
391.00	531.30
391.19	486.83
391.39	554.71
391.58	517.26
391.78	491.51
391.97	477.47
392.16	503.22
392.36	575.77
392.55	552.37
392.75	491.51
392.94	559.39
393.13	575.77
393.33	650.67
393.52	589.82
393.71	624.92
393.91	624.92
394.10	585.13
394.29	573.43
394.49	528.96
394.68	566.41
394.88	627.26
395.07	585.13
395.26	585.13
395.46	557.05
395.65	648.33
395.84	627.26
396.04	723.23
396.23	624.92
396.42	606.20
396.62	706.84
396.81	667.05
397.00	720.88
397.19	678.76
397.39	645.99
397.58	720.88
397.77	685.78
397.97	725.57
398.16	690.46
398.35	711.52
398.55	706.84
398.74	753.65
398.93	702.16
399.12	636.63
399.32	725.57
399.51	737.27
399.70	779.40
399.90	753.65
400.09	779.40
400.28	770.04
400.47	861.32
400.67	786.42
400.86	844.93
401.05	837.91
401.24	774.72
401.44	816.85
401.63	884.72
401.82	835.57
402.01	751.31
402.21	849.61
402.40	844.93
402.59	849.61
402.78	795.78
402.97	849.61
403.17	894.08
403.36	866.00
403.55	882.38
403.74	863.66
403.93	947.92
404.13	957.28
404.32	931.53
404.51	976.00
404.70	863.66
404.89	1055.58
405.09	971.32
405.28	1006.43
405.47	957.28
405.66	1006.43
405.85	997.07
406.05	952.60
406.24	990.05
406.43	1011.11
406.62	1060.26
406.81	959.62
407.00	1018.13
407.20	1041.54
407.39	1036.86
407.58	1004.09
407.77	1118.78
407.96	1121.12
408.15	1104.73
408.34	1036.86
408.54	1013.45
408.73	1034.52
408.92	1128.14
409.11	1093.03
409.30	1167.93
409.49	1181.97
409.68	1109.41
409.87	1144.52
410.07	1165.59
410.26	1181.97
410.45	1144.52
410.64	1186.65
410.83	1268.57
411.02	1247.51
411.21	1165.59
411.40	1238.14
411.59	1235.80
411.78	1231.12
411.98	1247.51
412.17	1291.98
412.36	1259.21
412.55	1313.04
412.74	1462.83
412.93	1322.40
413.12	1390.28
413.31	1558.80
413.50	1411.34
413.69	1387.94
413.88	1441.77
414.07	1378.58
414.26	1593.90
414.45	1465.18
414.64	1479.22
414.83	1544.75
415.02	1556.46
415.22	1533.05
415.41	1584.54
415.60	1582.20
415.79	1582.20
415.98	1673.48
416.17	1612.63
416.36	1593.90
416.55	1584.54
416.74	1739.02
416.93	1762.42
417.12	1638.38
417.31	1610.29
417.50	1708.59
417.69	1874.77
417.88	1739.02
418.07	1722.63
418.26	1839.66
418.45	1755.40
418.64	1734.34
418.83	1778.81
419.02	1755.40
419.21	1905.20
419.39	1771.79
419.58	1760.08
419.77	1921.58
419.96	1893.49
420.15	1930.94
420.34	1827.96
420.53	1935.62
420.72	1905.20
420.91	1980.09
421.10	1898.17
421.29	1947.33
421.48	1935.62
421.67	2012.86
421.86	1865.41
422.05	2080.74
422.24	1994.14
422.43	2064.35
422.61	2001.16
422.80	1956.69
422.99	1977.75
423.18	2141.59
423.37	2127.55
423.56	2029.24
423.75	1928.60
423.94	2043.29
424.13	1975.41
424.32	1825.62
424.50	2059.67
424.69	2078.40
424.88	2211.81
425.07	2031.58
425.26	2080.74
425.45	2017.54
425.64	2104.14
425.83	1921.58
426.01	2174.36
426.20	2136.91
426.39	2052.65
426.58	2071.37
426.77	2118.18
426.96	2150.95
427.15	2080.74
427.33	2186.06
427.52	2129.89
427.71	2122.87
427.90	2204.78
428.09	2153.29
428.28	2193.08
428.46	2263.30
428.65	2143.93
428.84	2275.00
429.03	2328.83
429.22	2108.82
429.40	2272.66
429.59	2345.22
429.78	2228.19
429.97	2160.31
430.16	2293.72
430.34	2408.41
430.53	2359.26
430.72	2307.77
430.91	2293.72
431.10	2305.43
431.28	2389.69
431.47	2354.58
431.66	2375.64
431.85	2382.67
432.03	2548.84
432.22	2480.97
432.41	2399.05
432.60	2541.82
432.79	2516.08
432.97	2539.48
433.16	2649.49
433.35	2544.16
433.54	2628.42
433.72	2588.63
433.91	2609.70
434.10	2516.08
434.28	2537.14
434.47	2635.44
434.66	2696.30
434.85	2647.15
435.03	2579.27
435.22	2747.79
435.41	2736.09
435.59	2803.96
435.78	2733.75
435.97	2628.42
436.16	2686.94
436.34	2715.02
436.53	2810.98
436.72	2846.09
436.90	2724.38
437.09	2745.45
437.28	2719.70
437.46	2689.28
437.65	2712.68
437.84	2834.39
438.02	2822.69
438.21	2768.85
438.40	2710.34
438.58	2904.60
438.77	2883.54
438.96	2991.20
439.14	2904.60
439.33	3159.72
439.52	3014.61
439.70	3141.00
439.89	3183.13
440.08	3080.14
440.26	3124.62
440.45	3105.89
440.63	3082.49
440.82	3192.49
441.01	3239.30
441.19	3141.00
441.38	3183.13
441.57	3253.34
441.75	3253.34
441.94	3297.81
442.12	3267.39
442.31	3314.20
442.50	3286.11
442.68	3353.99
442.87	3372.71
443.05	3190.15
443.24	3531.87
443.43	3384.41
443.61	3332.92
443.80	3529.53
443.98	3407.82
444.17	3274.41
444.35	3393.78
444.54	3461.65
444.73	3522.51
444.91	3454.63
445.10	3485.06
445.28	3585.70
445.47	3426.54
445.65	3508.46
445.84	3566.98
446.02	3620.81
446.21	3506.12
446.39	3552.93
446.58	3756.56
446.77	3529.53
446.95	3557.61
447.14	3475.70
447.32	3625.49
447.51	3508.46
447.69	3531.87
447.88	3473.36
448.06	3506.12
448.25	3524.85
448.43	3623.15
448.62	3576.34
448.80	3468.67
448.99	3517.83
449.17	3609.11
449.36	3489.74
449.54	3634.85
449.73	3789.33
449.91	3819.75
450.10	3637.19
450.28	3749.54
450.46	3831.46
450.65	3730.81
450.83	3880.61
451.02	3861.88
451.20	3763.58
451.39	3812.73
451.57	3815.07
451.76	3730.81
451.94	3878.27
452.13	3983.59
452.31	3887.63
452.49	3892.31
452.68	3847.84
452.86	3955.51
453.05	3978.91
453.23	4058.49
453.42	3894.65
453.60	3878.27
453.78	4093.60
453.97	4044.45
454.15	4074.87
454.34	3950.82
454.52	4077.21
454.70	4063.17
454.89	3997.64
455.07	4065.51
455.26	4196.58
455.44	4205.94
455.62	4098.28
455.81	4184.88
455.99	4212.96
456.17	4227.01
456.36	4117.00
456.54	4315.95
456.73	4414.25
456.91	4306.59
457.09	4299.56
457.28	4538.30
457.46	4468.08
457.64	4507.87
457.83	4477.44
458.01	4550.00
458.19	4428.29
458.38	4421.27
458.56	4437.66
458.74	4395.53
458.93	4447.02
459.11	4456.38
459.29	4374.46
459.48	4550.00
459.66	4461.06
459.84	4624.90
460.03	4692.77
460.21	4645.96
460.39	4734.90
460.57	4617.88
460.76	4746.61
460.94	4718.52
461.12	4669.37
461.31	4746.61
461.49	4767.67
461.67	4767.67
461.85	4844.91
462.04	4657.67
462.22	5135.14
462.40	4704.48
462.59	4812.14
462.77	4858.95
462.95	4975.98
463.13	4793.42
463.32	4978.32
463.50	4894.06
463.68	4898.74
463.86	4812.14
464.05	4975.98
464.23	4926.83
464.41	4952.57
464.59	4938.53
464.78	5043.85
464.96	5078.96
465.14	5048.54
465.32	5078.96
465.50	5203.01
465.69	5114.07
465.87	5123.43
466.05	5034.49
466.23	4882.36
466.41	4929.17
466.60	5270.89
466.78	5275.57
466.96	5160.88
467.14	4990.02
467.32	5132.79
467.51	5296.63
467.69	5186.63
467.87	5233.44
468.05	5245.14
468.23	5188.97
468.41	5254.50
468.60	5254.50
468.78	5275.57
468.96	5228.76
469.14	5462.81
469.32	5563.45
469.50	5203.01
469.69	5366.85
469.87	5479.19
470.05	5694.52
470.23	5612.60
470.41	5460.47
470.59	5598.56
470.77	5535.37
470.95	5593.88
471.14	5668.78
471.32	5556.43
471.50	5734.31
471.68	5764.74
471.86	5668.78
472.04	5865.38
472.22	5856.02
472.40	5600.90
472.58	5748.36
472.77	5884.11
472.95	6022.20
473.13	6118.16
473.31	5785.80
473.49	5760.06
473.67	5909.85
473.85	6019.86
474.03	6162.63
474.21	6033.90
474.39	6097.10
474.57	6083.05
474.75	6125.18
474.93	6413.07
475.12	6235.19
475.30	6319.45
475.48	6169.65
475.66	6366.26
475.84	6523.07
476.02	6370.94
476.20	6415.41
476.38	6347.53
476.56	6544.14
476.74	6843.73
476.92	6516.05
477.10	6616.69
477.28	6773.51
477.46	6712.66
477.64	6715.00
477.82	6906.92
478.00	7124.59
478.18	6979.48
478.36	7122.25
478.54	7321.20
478.72	7201.83
478.90	7143.32
479.08	6998.20
479.26	7482.69
479.44	7517.80
479.62	7482.69
479.80	7534.18
479.98	7709.72
480.16	7592.70
480.34	7735.47
480.52	7768.24
480.70	7999.95
480.88	7716.75
481.06	7723.77
481.24	7868.88
481.41	8011.65
481.59	8194.22
481.77	8091.23
481.95	8344.01
482.13	8257.41
482.31	8332.31
482.49	8369.76
482.67	8379.12
482.85	8400.18
483.03	8704.45
483.21	8678.71
483.39	8681.05
483.57	8879.99
483.74	8690.41
483.92	8957.23
484.10	8636.58
484.28	9139.79
484.46	9111.71
484.64	9378.53
484.82	9280.22
485.00	9327.03
485.18	9535.34
485.35	9563.43
485.53	9507.26
485.71	9717.90
485.89	9900.47
486.07	9607.90
486.25	9863.02
486.43	9738.97
486.61	10043.24
486.78	9973.02
486.96	10106.43
487.14	10279.63
487.32	10300.70
487.50	10391.98
487.68	10382.62
487.85	10633.05
488.03	10497.30
488.21	11009.88
488.39	10883.49
488.57	10878.81
488.75	10991.16
488.92	11056.69
489.10	11162.01
489.28	11349.26
489.46	11403.09
489.64	11119.89
489.81	11466.28
489.99	11660.55
490.17	11616.08
490.35	11772.89
490.53	11552.88
490.70	12131.00
490.88	11985.88
491.06	11864.18
491.24	11997.59
491.41	12198.87
491.59	12098.23
491.77	12180.15
491.95	12622.51
492.13	12444.63
492.30	12697.41
492.48	12870.61
492.66	12463.35
492.84	12528.89
493.01	12940.82
493.19	12699.75
493.37	12849.54
493.54	13008.70
493.72	13104.66
493.90	13156.15
494.08	13156.15
494.25	13291.90
494.43	13404.25
494.61	13703.84
494.79	13317.65
494.96	13516.59
495.14	13703.84
495.32	13685.11
495.49	13813.84
495.67	13778.73
495.85	13895.76
496.02	14068.96
496.20	14272.59
496.38	14342.80
496.55	14211.73
496.73	14782.82
496.91	14328.76
497.09	14560.47
497.26	14663.46
497.44	14586.22
497.62	14508.98
497.79	15138.58
497.97	14647.07
498.14	15080.07
498.32	15133.90
498.50	15192.42
498.67	15372.64
498.85	15183.06
499.03	15197.10
499.20	15122.20
499.38	15269.66
499.56	15274.34
499.73	15726.06
499.91	15850.11
500.08	15854.79
500.26	15620.74
500.44	15932.03
500.61	15815.00
500.79	16020.97
500.97	15861.81
501.14	16081.82
501.32	16128.63
501.49	16018.63
501.67	16198.85
501.84	16336.94
502.02	16374.39
502.20	16486.73
502.37	16531.20
502.55	16594.40
502.72	16505.46
502.90	16575.67
503.07	16503.12
503.25	16587.38
503.43	16147.36
503.60	16952.50
503.78	16772.28
503.95	16999.31
504.13	16683.34
504.30	17064.85
504.48	16875.26
504.65	16999.31
504.83	16964.20
505.01	17123.36
505.18	17289.54
505.36	17343.37
505.53	17467.42
505.71	17406.56
505.88	17507.21
506.06	17385.50
506.23	17605.51
506.41	17600.83
506.58	17942.55
506.76	17720.20
506.93	17806.80
507.11	18033.83
507.28	17748.28
507.46	17776.37
507.63	18010.42
507.81	18427.04
507.98	18097.02
508.16	17909.78
508.33	18338.10
508.50	18284.26
508.68	18246.82
508.85	18668.11
509.03	18265.54
509.20	18485.55
509.38	18899.83
509.55	18551.09
509.73	18885.78
509.90	18579.17
510.08	18911.53
510.25	18665.77
510.42	18902.17
510.60	19051.96
510.77	19239.20
510.95	19056.64
511.12	19054.30
511.30	19239.20
511.47	19353.89
511.64	19400.70
511.82	19491.98
511.99	19358.57
512.17	19726.04
512.34	19449.85
512.51	19442.83
512.69	19679.22
512.86	19480.28
513.04	19941.36
513.21	20168.40
513.38	19744.76
513.56	19985.83
513.73	19524.75
513.90	19946.05
514.08	19964.77
514.25	20084.14
514.43	19932.00
514.60	20353.30
514.77	20191.80
514.95	20456.28
515.12	20290.10
515.29	20259.68
515.47	20467.98
515.64	20397.77
515.81	20484.37
515.99	20521.82
516.16	20489.05
516.33	20758.21
516.51	20954.82
516.68	20606.08
516.85	20652.89
517.03	20964.18
517.20	21256.75
517.37	20973.54
517.54	20987.58
517.72	20788.64
517.89	21003.97
518.06	21158.44
518.24	21013.33
518.41	21209.93
518.58	21572.72
518.75	21202.91
518.93	21174.83
519.10	20933.75
519.27	21404.20
519.45	21245.04
519.62	21631.23
519.79	21338.66
519.96	21652.30
520.14	21923.80
520.31	21355.05
520.48	21553.99
520.65	21427.60
520.83	21888.69
521.00	21975.29
521.17	21752.94
521.34	21774.00
521.52	22146.15
521.69	22288.92
521.86	21998.70
522.03	22017.42
522.20	22394.25
522.38	22237.43
522.55	22209.34
522.72	22279.56
522.89	22155.51
523.07	22953.63
523.24	22707.88
523.41	22611.92
523.58	22380.20
523.75	22614.26
523.92	22403.61
524.10	22597.87
524.27	22836.61
524.44	22892.78
524.61	22813.20
524.78	22995.76
524.96	22913.84
525.13	22799.16
525.30	22850.65
525.47	22803.84
525.64	22937.25
525.81	23119.81
525.98	22995.76
526.16	23173.64
526.33	23192.37
526.50	23515.36
526.67	23152.58
526.84	23201.73
527.01	23164.28
527.18	23405.36
527.36	23618.35
527.53	23941.34
527.70	23768.14
527.87	23929.64
528.04	23903.89
528.21	23817.29
528.38	23873.46
528.55	23669.84
528.72	23749.42
528.89	24002.19
529.07	23566.85
529.24	23838.36
529.41	24034.96
529.58	23653.45
529.75	24086.45
529.92	24056.03
530.09	24074.75
530.26	24044.32
530.43	24311.14
530.60	24079.43
530.77	24114.54
530.94	24086.45
531.11	24325.19
531.28	23709.63
531.46	24407.11
531.63	24704.35
531.80	24603.71
531.97	24414.13
532.14	24912.66
532.31	24498.39
532.48	24652.86
532.65	24479.66
532.82	24411.79
532.99	24570.94
533.16	24746.48
533.33	24676.27
533.50	25099.90
533.67	24886.92
533.84	24699.67
534.01	24840.11
534.18	24727.76
534.35	25455.67
534.52	25022.67
534.69	25359.70
534.86	25359.70
535.03	25074.16
535.20	25259.06
535.37	25130.33
535.54	25319.92
535.71	25071.82
535.88	24973.52
536.05	25247.36
536.22	25249.70
536.38	25619.50
536.55	25788.02
536.72	25565.67
536.89	25022.67
537.06	25633.55
537.23	25713.13
537.40	25441.62
537.57	25352.68
537.74	25694.40
537.91	25846.54
538.08	25734.19
538.25	25642.91
538.42	25734.19
538.59	25795.04
538.75	25982.29
538.92	25820.79
539.09	25869.94
539.26	25853.56
539.43	26134.42
539.60	25883.98
539.77	26024.42
539.94	26080.59
540.11	26085.27
540.28	26038.46
540.44	26174.21
540.61	26164.85
540.78	26263.15
540.95	26199.96
541.12	26391.88
541.29	26691.47
541.46	26410.60
541.62	25895.69
541.79	26089.95
541.96	26071.23
542.13	26445.71
542.30	26391.88
542.47	26710.19
542.63	26567.42
542.80	26979.36
542.97	26974.67
543.14	26988.72
543.31	27007.44
543.48	27227.45
543.64	27323.41
543.81	27129.15
543.98	27325.75
544.15	26792.11
544.32	27119.79
544.48	27108.08
544.65	27122.13
544.82	27206.39
544.99	27070.64
545.16	27211.07
545.32	26881.05
545.49	27424.06
545.66	27484.91
545.83	27704.92
546.00	27606.62
546.16	27597.26
546.33	27054.25
546.50	26946.59
546.67	27337.46
546.83	27260.22
547.00	27473.21
547.17	27410.01
547.34	27412.35
547.50	27714.28
547.67	27754.07
547.84	27559.81
548.00	27543.42
548.17	28100.47
548.34	27819.61
548.51	27407.67
548.67	27840.67
548.84	27974.08
549.01	27833.65
549.18	27915.57
549.34	27623.00
549.51	27733.01
549.68	28135.58
549.84	27840.67
550.01	27936.63
550.18	28032.60
550.34	28128.56
550.51	28240.90
550.68	28243.24
550.84	28142.60
551.01	28423.47
551.18	28273.67
551.34	27758.75
551.51	28088.77
551.68	28477.30
551.84	28545.17
552.01	28224.52
552.18	28659.86
552.34	28376.66
552.51	28247.93
552.68	28489.00
552.84	28240.90
553.01	28655.18
553.18	28613.05
553.34	28369.63
553.51	28844.76
553.67	28500.70
553.84	28802.63
554.01	28601.35
554.17	28701.99
554.34	28549.85
554.51	28776.89
554.67	28781.57
554.84	29092.86
555.00	28449.21
555.17	28914.98
555.33	29048.39
555.50	28659.86
555.67	28774.55
555.83	28870.51
556.00	28982.85
556.16	28978.17
556.33	28591.98
556.50	28912.64
556.66	29270.74
556.83	28917.32
556.99	29048.39
557.16	28732.42
557.32	29003.92
557.49	29179.46
557.65	28957.11
557.82	29134.99
557.98	29017.96
558.15	28936.04
558.32	29249.67
558.48	29134.99
558.65	29233.29
558.81	29556.28
558.98	29160.73
559.14	29193.50
559.31	29294.14
559.47	29312.87
559.64	29514.16
559.80	29310.53
559.97	29338.62
560.13	29369.04
560.30	29436.92
560.46	29422.87
560.63	29865.24
560.79	29511.81
560.96	29614.80
561.12	29219.25
561.29	29486.07
561.45	29448.62
561.61	29881.62
561.78	30024.39
561.94	29427.56
562.11	29486.07
562.27	29537.56
562.44	29329.25
562.60	29228.61
562.77	29773.95
562.93	29259.04
563.10	29493.09
563.26	29336.27
563.42	29553.94
563.59	29556.28
563.75	29872.26
563.92	29610.12
564.08	29656.93
564.24	29949.50
564.41	29766.93
564.57	29556.28
564.74	29551.60
564.90	29898.00
565.07	29799.70
565.23	29682.67
565.39	29844.17
565.56	30087.59
565.72	29654.59
565.88	29788.00
566.05	29675.65
566.21	29991.62
566.38	29895.66
566.54	29738.85
566.70	30005.67
566.87	29998.65
567.03	30066.52
567.19	30148.44
567.36	29914.39
567.52	30005.67
567.68	30005.67
567.85	29687.36
568.01	30015.03
568.17	30228.02
568.34	30326.32
568.50	30167.16
568.66	30106.31
568.83	30204.61
568.99	29970.56
569.15	30153.12
569.32	29947.15
569.48	29912.05
569.64	30237.38
569.81	30015.03
569.97	30157.80
570.13	29937.79
570.30	29956.52
570.46	30134.40
570.62	30099.29
570.78	30047.80
570.95	29996.31
571.11	30506.54
571.27	29930.77
571.43	29993.97
571.60	30314.62
571.76	30075.88
571.92	30405.90
572.09	30162.48
572.25	30466.75
572.41	30169.51
572.57	30010.35
572.74	30366.11
572.90	30150.78
573.06	30309.94
573.22	30071.20
573.38	30218.66
573.55	30246.74
573.71	30752.30
573.87	30272.49
574.03	30052.48
574.20	30361.43
574.36	30256.11
574.52	30391.86
574.68	30228.02
574.84	30398.88
575.01	30302.92
575.17	30197.59
575.33	30127.38
575.49	30499.52
575.65	30361.43
575.82	30527.61
575.98	30092.27
576.14	30733.57
576.30	30733.57
576.46	30225.68
576.62	30160.14
576.79	30272.49
576.95	30637.61
577.11	30478.46
577.27	30562.72
577.43	30766.34
577.59	30281.85
577.75	30377.81
577.92	30192.91
578.08	30244.40
578.24	30532.29
578.40	30380.15
578.56	30644.63
578.72	30668.04
578.88	30752.30
579.04	30892.73
579.21	30384.83
579.37	30499.52
579.53	30852.94
579.69	30370.79
579.85	30438.67
580.01	30661.02
580.17	29916.73
580.33	30436.33
580.49	30469.09
580.65	30565.06
580.82	30768.68
580.98	30597.82
581.14	30852.94
581.30	30649.32
581.46	30405.90
581.62	30302.92
581.78	30005.67
581.94	30490.16
582.10	30443.35
582.26	30291.21
582.42	30506.54
582.58	30562.72
582.74	30532.29
582.90	31051.89
583.06	30881.03
583.22	30698.47
583.38	30583.78
583.54	30520.59
583.70	30595.48
583.86	30504.20
584.02	30668.04
584.18	30424.62
584.34	30614.21
584.50	30586.12
584.66	30431.65
584.82	30668.04
584.98	30555.69
585.14	30665.70
585.30	30637.61
585.46	30742.94
585.62	30911.46
585.78	30452.71
585.94	30618.89
586.10	30801.45
586.26	30410.58
586.42	30937.20
586.58	31110.40
586.74	30654.00
586.90	30810.81
587.06	30553.35
587.22	30450.37
587.38	30820.17
587.54	30771.02
587.70	30436.33
587.86	30476.12
588.02	30881.03
588.18	30808.47
588.34	30906.77
588.49	30948.90
588.65	30843.58
588.81	30682.08
588.97	30834.22
589.13	31012.10
589.29	30478.46
589.45	31035.50
589.61	31606.59
589.77	31276.58
589.93	31405.31
590.08	30918.48
590.24	30869.33
590.40	31110.40
590.56	31260.20
590.72	30829.54
590.88	31164.23
591.04	30939.54
591.20	31019.12
591.35	31232.11
591.51	31550.42
591.67	31133.81
591.83	31260.20
