SpectraSuite Data File
++++++++++++++++++++++++++++++++++++
Date: Fri Oct 18 13:58:37 GMT-05:00 2013
User: bianchi
Dark Spectrum Present: No
Reference Spectrum Present: No
Number of Sampled Component Spectra: 1
Spectrometers: USB2+H05261
Integration Time (usec): 50000 (USB2+H05261)
Spectra Averaged: 1 (USB2+H05261)
Boxcar Smoothing: 0 (USB2+H05261)
Correct for Electrical Dark: No (USB2+H05261)
Strobe/Lamp Enabled: No (USB2+H05261)
Correct for Detector Non-linearity: No (USB2+H05261)
Correct for Stray Light: No (USB2+H05261)
Number of Pixels in Processed Spectrum: 2048
>>>>>Begin Processed Spectral Data<<<<<
365.73	0.00
365.92	0.00
366.12	0.00
366.32	0.00
366.52	0.00
366.72	0.00
366.91	0.00
367.11	0.00
367.31	0.00
367.51	0.00
367.70	0.00
367.90	0.00
368.10	0.00
368.30	0.00
368.49	0.00
368.69	0.00
368.89	0.00
369.09	0.00
369.28	0.00
369.48	0.00
369.68	0.00
369.87	0.00
370.07	0.00
370.27	0.00
370.47	0.00
370.66	30.43
370.86	112.35
371.06	170.86
371.25	86.60
371.45	39.79
371.65	140.43
371.84	145.11
372.04	114.69
372.24	133.41
372.44	175.54
372.63	170.86
372.83	227.03
373.03	241.08
373.22	177.88
373.42	201.29
373.62	203.63
373.81	241.08
374.01	257.46
374.21	241.08
374.40	177.88
374.60	203.63
374.79	301.93
374.99	245.76
375.19	264.48
375.38	173.20
375.58	264.48
375.78	220.01
375.97	264.48
376.17	315.97
376.37	191.92
376.56	154.48
376.76	182.56
376.95	234.05
377.15	266.82
377.35	252.78
377.54	264.48
377.74	306.61
377.93	271.50
378.13	306.61
378.33	299.59
378.52	266.82
378.72	285.55
378.91	341.72
379.11	257.46
379.31	294.91
379.50	252.78
379.70	299.59
379.89	304.27
380.09	339.38
380.28	369.80
380.48	236.39
380.68	283.20
380.87	297.25
381.07	248.10
381.26	280.86
381.46	344.06
381.65	327.68
381.85	367.46
382.04	362.78
382.24	421.30
382.43	341.72
382.63	322.99
382.83	376.83
383.02	390.87
383.22	416.62
383.41	318.31
383.61	320.65
383.80	383.85
384.00	311.29
384.19	280.86
384.39	416.62
384.58	404.91
384.78	374.49
384.97	346.40
385.17	404.91
385.36	297.25
385.56	376.83
385.75	362.78
385.95	437.68
386.14	404.91
386.34	414.27
386.53	414.27
386.72	376.83
386.92	416.62
387.11	402.57
387.31	390.87
387.50	383.85
387.70	421.30
387.89	447.04
388.09	402.57
388.28	433.00
388.48	430.66
388.67	397.89
388.86	482.15
389.06	472.79
389.25	491.51
389.45	484.49
389.64	470.45
389.84	505.56
390.03	486.83
390.22	442.36
390.42	458.74
390.61	425.98
390.81	512.58
391.00	482.15
391.19	491.51
391.39	486.83
391.58	526.62
391.78	411.93
391.97	496.19
392.16	580.45
392.36	589.82
392.55	585.13
392.75	566.41
392.94	557.05
393.13	615.56
393.33	505.56
393.52	472.79
393.71	599.18
393.91	589.82
394.10	589.82
394.29	566.41
394.49	617.90
394.68	592.16
394.88	648.33
395.07	594.50
395.26	599.18
395.46	580.45
395.65	697.48
395.84	554.71
396.04	685.78
396.23	641.31
396.42	732.59
396.62	629.60
396.81	650.67
397.00	678.76
397.19	627.26
397.39	641.31
397.58	697.48
397.77	629.60
397.97	706.84
398.16	753.65
398.35	636.63
398.55	713.86
398.74	709.18
398.93	755.99
399.12	699.82
399.32	674.07
399.51	692.80
399.70	737.27
399.90	755.99
400.09	720.88
400.28	772.38
400.47	793.44
400.67	786.42
400.86	730.25
401.05	795.78
401.24	702.16
401.44	816.85
401.63	844.93
401.82	819.19
402.01	821.53
402.21	784.08
402.40	828.55
402.59	851.96
402.78	814.51
402.97	837.91
403.17	919.83
403.36	795.78
403.55	884.72
403.74	887.06
403.93	903.45
404.13	894.08
404.32	901.11
404.51	835.57
404.70	905.79
404.89	985.37
405.09	985.37
405.28	940.90
405.47	1008.77
405.66	933.87
405.85	973.66
406.05	931.53
406.24	1015.79
406.43	987.71
406.62	1022.81
406.81	1018.13
407.00	1013.45
407.20	999.41
407.39	1039.20
407.58	1036.86
407.77	1048.56
407.96	1032.18
408.15	1055.58
408.34	1043.88
408.54	1097.71
408.73	1111.75
408.92	1153.88
409.11	1057.92
409.30	1078.99
409.49	1184.31
409.68	1097.71
409.87	1252.19
410.07	1156.22
410.26	1132.82
410.45	1221.76
410.64	1184.31
410.83	1266.23
411.02	1149.20
411.21	1210.06
411.40	1167.93
411.59	1345.81
411.78	1273.25
411.98	1268.57
412.17	1252.19
412.36	1294.32
412.55	1308.36
412.74	1327.08
412.93	1320.06
413.12	1373.89
413.31	1418.36
413.50	1270.91
413.69	1392.62
413.88	1469.86
414.07	1427.73
414.26	1460.49
414.45	1394.96
414.64	1486.24
414.83	1488.58
415.02	1472.20
415.22	1516.67
415.41	1570.50
415.60	1535.39
415.79	1519.01
415.98	1593.90
416.17	1540.07
416.36	1680.50
416.55	1636.03
416.74	1654.76
416.93	1584.54
417.12	1631.35
417.31	1673.48
417.50	1675.82
417.69	1753.06
417.88	1727.32
418.07	1771.79
418.26	1767.10
418.45	1783.49
418.64	1905.20
418.83	1905.20
419.02	1842.00
419.21	1771.79
419.39	1816.26
419.58	1769.44
419.77	1717.95
419.96	1905.20
420.15	1886.47
420.34	1762.42
420.53	1898.17
420.72	1937.96
420.91	1954.35
421.10	1898.17
421.29	1968.39
421.48	1905.20
421.67	1898.17
421.86	1928.60
422.05	1970.73
422.24	2010.52
422.43	1975.41
422.61	1966.05
422.80	2040.95
422.99	2019.88
423.18	2045.63
423.37	2062.01
423.56	2031.58
423.75	2022.22
423.94	1984.77
424.13	1849.02
424.32	1818.60
424.50	2052.65
424.69	2125.21
424.88	2136.91
425.07	2106.48
425.26	2066.69
425.45	2062.01
425.64	2069.03
425.83	2031.58
426.01	2047.97
426.20	2111.16
426.39	1973.07
426.58	1963.71
426.77	1996.48
426.96	2139.25
427.15	2118.18
427.33	2040.95
427.52	2050.31
427.71	2146.27
427.90	2111.16
428.09	2092.44
428.28	2181.38
428.46	2270.32
428.65	2134.57
428.84	2282.02
429.03	2197.76
429.22	2232.87
429.40	2211.81
429.59	2218.83
429.78	2188.40
429.97	2118.18
430.16	2340.54
430.34	2263.30
430.53	2363.94
430.72	2328.83
430.91	2282.02
431.10	2361.60
431.28	2389.69
431.47	2363.94
431.66	2354.58
431.85	2377.98
432.03	2455.22
432.22	2480.97
432.41	2429.48
432.60	2520.76
432.79	2495.01
432.97	2422.45
433.16	2490.33
433.35	2441.18
433.54	2546.50
433.72	2492.67
433.91	2487.99
434.10	2434.16
434.28	2558.21
434.47	2429.48
434.66	2623.74
434.85	2656.51
435.03	2527.78
435.22	2478.63
435.41	2679.91
435.59	2600.34
435.78	2686.94
435.97	2705.66
436.16	2726.72
436.34	2607.36
436.53	2612.04
436.72	2745.45
436.90	2658.85
437.09	2696.30
437.28	2518.42
437.46	2726.72
437.65	2745.45
437.84	2834.39
438.02	2792.26
438.21	2843.75
438.40	2871.84
438.58	2937.37
438.77	2986.52
438.96	2860.13
439.14	2904.60
439.33	2818.00
439.52	2974.82
439.70	2909.29
439.89	3026.31
440.08	3038.02
440.26	2970.14
440.45	3150.36
440.63	3126.96
440.82	3155.04
441.01	3068.44
441.19	3192.49
441.38	3150.36
441.57	3164.40
441.75	3400.80
441.94	3192.49
442.12	3204.19
442.31	3398.46
442.50	3365.69
442.68	3241.64
442.87	3389.10
443.05	3293.13
443.24	3346.97
443.43	3316.54
443.61	3377.39
443.80	3398.46
443.98	3321.22
444.17	3236.96
444.35	3466.33
444.54	3407.82
444.73	3597.40
444.91	3463.99
445.10	3456.97
445.28	3496.76
445.47	3487.40
445.65	3400.80
445.84	3559.95
446.02	3445.27
446.21	3372.71
446.39	3356.33
446.58	3466.33
446.77	3398.46
446.95	3290.79
447.14	3445.27
447.32	3566.98
447.51	3531.87
447.69	3463.99
447.88	3447.61
448.06	3538.89
448.25	3353.99
448.43	3496.76
448.62	3438.25
448.80	3522.51
448.99	3625.49
449.17	3609.11
449.36	3508.46
449.54	3779.97
449.73	3644.21
449.91	3758.90
450.10	3749.54
450.28	3702.73
450.46	3618.47
450.65	3716.77
450.83	3730.81
451.02	3803.37
451.20	3775.28
451.39	3880.61
451.57	3777.62
451.76	3658.26
451.94	3695.71
452.13	3875.93
452.31	3925.08
452.49	3705.07
452.68	3852.52
452.86	3875.93
453.05	3831.46
453.23	3810.39
453.42	3749.54
453.60	3829.12
453.78	4002.32
453.97	3847.84
454.15	4037.42
454.34	3868.91
454.52	3967.21
454.70	3985.93
454.89	4053.81
455.07	3796.35
455.26	4056.15
455.44	4173.18
455.62	4098.28
455.81	4079.55
455.99	4086.58
456.17	4166.15
456.36	4187.22
456.54	4114.66
456.73	4259.78
456.91	4325.31
457.09	4262.12
457.28	4411.91
457.46	4379.14
457.64	4311.27
457.83	4329.99
458.01	4402.55
458.19	4234.03
458.38	4447.02
458.56	4456.38
458.74	4346.37
458.93	4454.04
459.11	4512.55
459.29	4440.00
459.48	4465.74
459.66	4477.44
459.84	4444.68
460.03	4657.67
460.21	4414.25
460.39	4430.63
460.57	4629.58
460.76	4617.88
460.94	4636.60
461.12	4442.34
461.31	4812.14
461.49	4500.85
461.67	4580.43
461.85	4828.53
462.04	4606.17
462.22	4751.29
462.40	4716.18
462.59	4854.27
462.77	4770.01
462.95	4809.80
463.13	4753.63
463.32	4678.73
463.50	4861.29
463.68	4760.65
463.86	4873.00
464.05	4770.01
464.23	4805.12
464.41	4875.34
464.59	4844.91
464.78	4905.76
464.96	4861.29
465.14	4851.93
465.32	4889.38
465.50	5231.10
465.69	5107.05
465.87	5034.49
466.05	4882.36
466.23	4964.28
466.41	5022.79
466.60	5043.85
466.78	5078.96
466.96	5160.88
467.14	5015.77
467.32	5013.43
467.51	5167.90
467.69	5067.26
467.87	5179.61
468.05	5156.20
468.23	5284.93
468.41	5095.35
468.60	5151.52
468.78	5320.04
468.96	5170.24
469.14	5296.63
469.32	5313.02
469.50	5224.08
469.69	5366.85
469.87	5509.62
470.05	5434.72
470.23	5591.54
470.41	5174.92
470.59	5462.81
470.77	5350.46
470.95	5427.70
471.14	5645.37
471.32	5364.51
471.50	5542.39
471.68	5643.03
471.86	5563.45
472.04	5790.49
472.22	5832.62
472.40	5703.89
472.58	5720.27
472.77	5764.74
472.95	5802.19
473.13	5959.00
473.31	5823.25
473.49	5694.52
473.67	5809.21
473.85	6017.52
474.03	6017.52
474.21	5940.28
474.39	6017.52
474.57	6132.20
474.75	6256.25
474.93	6232.85
475.12	6141.57
475.30	6216.46
475.48	6164.97
475.66	6104.12
475.84	6265.61
476.02	6230.51
476.20	6380.30
476.38	6492.65
476.56	6494.99
476.74	6628.40
476.92	6490.31
477.10	6569.88
477.28	6553.50
477.46	6658.82
477.64	6682.23
477.82	6895.22
478.00	6932.67
478.18	7033.31
478.36	7063.74
478.54	7073.10
478.72	7171.40
478.90	7173.74
479.08	7178.42
479.26	7239.28
479.44	7286.09
479.62	7337.58
479.80	7368.01
479.98	7417.16
480.16	7548.23
480.34	7485.03
480.52	7513.12
480.70	7644.19
480.88	7604.40
481.06	7665.25
481.24	7728.45
481.41	7843.14
481.59	7871.22
481.77	8018.68
481.95	8156.77
482.13	8161.45
482.31	8182.51
482.49	8189.53
482.67	8269.11
482.85	8594.45
483.03	8339.33
483.21	8603.81
483.39	8779.35
483.57	8535.93
483.74	8716.16
483.92	8685.73
484.10	8769.99
484.28	8894.04
484.46	9336.40
484.64	9102.34
484.82	9004.04
485.00	9018.08
485.18	9186.60
485.35	9500.23
485.53	9224.05
485.71	9256.82
485.89	9790.46
486.07	9418.32
486.25	9596.20
486.43	9825.57
486.61	9675.77
486.78	9839.61
486.96	9919.19
487.14	10106.43
487.32	9785.78
487.50	10228.14
487.68	10150.90
487.85	10307.72
488.03	10506.66
488.21	10457.51
488.39	10647.10
488.57	10633.05
488.75	10707.95
488.92	10881.15
489.10	10761.78
489.28	10932.64
489.46	10965.41
489.64	11063.71
489.81	11389.05
489.99	11260.32
490.17	11281.38
490.35	11337.56
490.53	11499.05
490.70	11506.07
490.88	11630.12
491.06	11667.57
491.24	11733.11
491.41	12074.82
491.59	11775.24
491.77	11861.84
491.95	12070.14
492.13	12269.09
492.30	12402.50
492.48	12175.47
492.66	12365.05
492.84	12290.15
493.01	12451.65
493.19	12692.73
493.37	12762.94
493.54	12851.88
493.72	12814.43
493.90	12933.80
494.08	13053.17
494.25	13118.70
494.43	13128.06
494.61	13217.01
494.79	13160.83
494.96	13067.21
495.14	13156.15
495.32	13481.49
495.49	13727.24
495.67	13575.11
495.85	13764.69
496.02	13802.14
496.20	13996.40
496.38	13767.03
496.55	14085.34
496.73	14157.90
496.91	13778.73
497.09	14223.44
497.26	14513.66
497.44	14251.52
497.62	14637.71
497.79	14621.33
497.97	14413.02
498.14	14733.67
498.32	14469.19
498.50	14567.49
498.67	14831.97
498.85	14951.34
499.03	14810.91
499.20	15059.01
499.38	15131.56
499.56	14881.13
499.73	15253.27
499.91	15454.56
500.08	15484.98
500.26	15190.08
500.44	15290.72
500.61	15597.33
500.79	15477.96
500.97	15337.53
501.14	15810.32
501.32	15889.90
501.49	15777.55
501.67	15922.66
501.84	16002.24
502.02	15955.43
502.20	16191.83
502.37	16053.73
502.55	16142.67
502.72	16060.76
502.90	16306.51
503.07	16191.83
503.25	16362.69
503.43	16271.40
503.60	16617.80
503.78	16341.62
503.95	16774.62
504.13	16688.02
504.30	16690.36
504.48	16453.97
504.65	16791.00
504.83	16723.13
505.01	17076.55
505.18	17039.10
505.36	17172.51
505.53	16994.63
505.71	17308.26
505.88	16915.05
506.06	16961.86
506.23	17383.16
506.41	17200.60
506.58	17446.35
506.76	17563.38
506.93	17516.57
507.11	17441.67
507.28	17799.77
507.46	17654.66
507.63	17685.09
507.81	17827.86
507.98	17638.28
508.16	17743.60
508.33	17916.80
508.50	17781.05
508.68	17881.69
508.85	18314.69
509.03	17921.48
509.20	18024.47
509.38	18244.48
509.55	18326.39
509.73	18111.07
509.90	18417.68
510.08	18120.43
510.25	18218.73
510.42	18656.41
510.60	18743.01
510.77	18902.17
510.95	18717.26
511.12	18651.73
511.30	18705.56
511.47	19002.81
511.64	18485.55
511.82	18911.53
511.99	18995.79
512.17	19222.82
512.34	19101.11
512.51	19061.32
512.69	19421.77
512.86	19370.27
513.04	19435.81
513.21	19463.90
513.38	19356.23
513.56	19222.82
513.73	19566.88
513.90	19543.47
514.08	19789.23
514.25	19641.78
514.43	19552.84
514.60	19674.54
514.77	19822.00
514.95	19957.75
515.12	19761.14
515.29	19782.21
515.47	19917.96
515.64	19939.02
515.81	20147.33
515.99	20367.34
516.16	20313.51
516.33	20577.99
516.51	20360.32
516.68	20233.93
516.85	20255.00
517.03	20549.90
517.20	20772.25
517.37	20503.09
517.54	20746.51
517.72	20903.32
517.89	20444.58
518.06	20753.53
518.24	20634.16
518.41	20842.47
518.58	20636.50
518.75	20961.84
518.93	20542.88
519.10	21050.78
519.27	21125.68
519.45	20889.28
519.62	21106.95
519.79	21193.55
519.96	20999.29
520.14	21142.06
520.31	21345.69
520.48	21575.06
520.65	21420.58
520.83	21259.09
521.00	21668.68
521.17	21270.79
521.34	21518.89
521.52	21759.96
521.69	21708.47
521.86	21645.27
522.03	21673.36
522.20	21680.38
522.38	21968.27
522.55	21685.06
522.72	21570.38
522.89	22064.23
523.07	22279.56
523.24	22045.51
523.41	22302.96
523.58	21961.25
523.75	22288.92
523.92	22162.53
524.10	21942.52
524.27	22508.93
524.44	22497.23
524.61	22384.88
524.78	22822.56
524.96	22419.99
525.13	22712.56
525.30	22478.50
525.47	22534.68
525.64	22541.70
525.81	22946.61
525.98	22841.29
526.16	22724.26
526.33	22686.81
526.50	23290.67
526.67	22562.76
526.84	22920.87
527.01	22937.25
527.18	23131.51
527.36	23157.26
527.53	23037.89
527.70	23180.67
527.87	23262.58
528.04	23426.42
528.21	23255.56
528.38	23180.67
528.55	23358.55
528.72	23616.01
528.89	23604.30
529.07	23861.76
529.24	23714.31
529.41	23749.42
529.58	23536.43
529.75	23290.67
529.92	23494.30
530.09	23812.61
530.26	23807.93
530.43	23981.13
530.60	23791.55
530.77	23543.45
530.94	23697.92
531.11	23784.52
531.28	23527.06
531.46	23836.02
531.63	24006.87
531.80	24053.69
531.97	24271.36
532.14	24095.82
532.31	24173.05
532.48	23995.17
532.65	24240.93
532.82	24025.60
532.99	24187.10
533.16	24191.78
533.33	24315.83
533.50	24566.26
533.67	24184.76
533.84	24428.17
534.01	24175.39
534.18	24182.42
534.35	24327.53
534.52	24357.96
534.69	24713.72
534.86	24790.95
535.03	24699.67
535.20	24573.28
535.37	24474.98
535.54	24889.26
535.71	24659.88
535.88	24713.72
536.05	24730.10
536.22	24849.47
536.38	25254.38
536.55	24945.43
536.72	25282.47
536.89	24627.12
537.06	24823.72
537.23	25149.06
537.40	25202.89
537.57	24959.47
537.74	25074.16
537.91	25242.68
538.08	25268.42
538.25	25256.72
538.42	25074.16
538.59	25612.48
538.75	24896.28
538.92	25186.50
539.09	25422.90
539.26	25497.80
539.43	25530.56
539.60	25614.82
539.77	25759.94
539.94	25687.38
540.11	25373.75
540.28	25853.56
540.44	25589.08
540.61	25783.34
540.78	25582.06
540.95	25795.04
541.12	25516.52
541.29	25668.66
541.46	26066.55
541.62	26111.02
541.79	26050.16
541.96	25879.30
542.13	26239.75
542.30	26094.63
542.47	26050.16
542.63	25905.05
542.80	26033.78
542.97	26473.80
543.14	26422.31
543.31	26455.08
543.48	26314.64
543.64	26595.51
543.81	26464.44
543.98	26684.45
544.15	26661.04
544.32	26644.66
544.48	26831.90
544.65	26338.05
544.82	26801.47
544.99	26321.66
545.16	26740.62
545.32	26422.31
545.49	26408.26
545.66	26899.78
545.83	26923.18
546.00	26916.16
546.16	26602.53
546.33	26789.77
546.50	26473.80
546.67	26906.80
546.83	26511.25
547.00	26689.13
547.17	26836.58
547.34	26974.67
547.50	27211.07
547.67	27091.70
547.84	26916.16
548.00	27225.11
548.17	26923.18
548.34	27414.69
548.51	27529.38
548.67	27491.93
548.84	27454.48
549.01	27740.03
549.18	27564.49
549.34	27166.60
549.51	27257.88
549.68	27063.61
549.84	27253.20
550.01	27660.45
550.18	27274.26
550.34	27410.01
550.51	27534.06
550.68	27681.52
550.84	27559.81
551.01	27498.95
551.18	27463.85
551.34	27578.53
551.51	27445.12
551.68	27590.24
551.84	27232.13
552.01	27796.20
552.18	28025.57
552.34	27941.32
552.51	27791.52
552.68	27772.80
552.84	27971.74
553.01	27618.32
553.18	27756.41
553.34	28002.17
553.51	27651.09
553.67	28084.09
553.84	28177.71
554.01	28327.50
554.17	28133.24
554.34	27885.14
554.51	28046.64
554.67	27934.29
554.84	28402.40
555.00	28151.96
555.17	28046.64
555.33	27878.12
555.50	27789.18
555.67	28273.67
555.83	28329.84
556.00	28285.37
556.16	28460.91
556.33	28044.30
556.50	28051.32
556.66	28496.02
556.83	28360.27
556.99	28828.38
557.16	28594.32
557.32	28929.02
557.49	28601.35
557.65	28283.03
557.82	28332.18
557.98	28367.29
558.15	28615.39
558.32	28601.35
558.48	28779.23
558.65	28746.46
558.81	28727.74
558.98	28704.33
559.14	28631.77
559.31	28627.09
559.47	28556.88
559.64	28844.76
559.80	28725.39
559.97	28652.84
560.13	28556.88
560.30	28847.10
560.46	28896.25
560.63	28903.28
560.79	28526.45
560.96	28753.48
561.12	28617.73
561.29	28931.36
561.45	28816.68
561.61	28823.70
561.78	29043.71
561.94	28943.06
562.11	28725.39
562.27	28882.21
562.44	28968.81
562.60	29413.51
562.77	29069.45
562.93	28858.81
563.10	29256.70
563.26	28940.72
563.42	29118.60
563.59	29055.41
563.75	29003.92
563.92	29324.57
564.08	28657.52
564.24	28868.17
564.41	28905.62
564.57	29153.71
564.74	29322.23
564.90	29125.63
565.07	29247.33
565.23	29390.11
565.39	28638.80
565.56	29457.98
565.72	29076.48
565.88	29322.23
566.05	29083.50
566.21	28905.62
566.38	29081.16
566.54	29366.70
566.70	29748.21
566.87	29479.05
567.03	29687.36
567.19	29518.84
567.36	29504.79
567.52	29439.26
567.68	29617.14
567.85	29081.16
568.01	29467.34
568.17	28989.88
568.34	29612.46
568.50	29472.03
568.66	29535.22
568.83	29750.55
568.99	29886.30
569.15	29369.04
569.32	29411.17
569.48	29177.12
569.64	29504.79
569.81	29397.13
569.97	29839.49
570.13	29589.05
570.30	29577.35
570.46	29958.86
570.62	29455.64
570.78	29649.91
570.95	29277.76
571.11	29472.03
571.27	29310.53
571.43	29420.53
571.60	29757.57
571.76	29336.27
571.92	29780.98
572.09	29567.99
572.25	29745.87
572.41	29567.99
572.57	29687.36
572.74	29806.72
572.90	29343.30
573.06	29479.05
573.22	29369.04
573.38	29832.47
573.55	29680.33
573.71	30087.59
573.87	29607.78
574.03	29544.58
574.20	29579.69
574.36	29228.61
574.52	29570.33
574.68	29743.53
574.84	29677.99
575.01	29439.26
575.17	29708.42
575.33	29450.96
575.49	29420.53
575.65	29816.08
575.82	30050.14
575.98	29242.65
576.14	29993.97
576.30	29851.19
576.46	29710.76
576.62	29322.23
576.79	29975.24
576.95	29933.11
577.11	30043.12
577.27	29839.49
577.43	29991.62
577.59	29497.77
577.75	29977.58
577.92	29954.18
578.08	29858.21
578.24	29813.74
578.40	29612.46
578.56	29979.92
578.72	30052.48
578.88	29991.62
579.04	30277.17
579.21	29734.17
579.37	29546.92
579.53	29982.26
579.69	29504.79
579.85	29474.37
580.01	29914.39
580.17	29802.04
580.33	30153.12
580.49	29954.18
580.65	29956.52
580.82	30232.70
580.98	30045.46
581.14	30066.52
581.30	29862.90
581.46	29827.79
581.62	30089.93
581.78	29703.74
581.94	29963.54
582.10	29832.47
582.26	29888.64
582.42	29944.81
582.58	29975.24
582.74	29935.45
582.90	30113.33
583.06	30146.10
583.22	29848.85
583.38	29982.26
583.54	30162.48
583.70	29902.68
583.86	29813.74
584.02	29937.79
584.18	29883.96
584.34	30122.69
584.50	30115.67
584.66	30061.84
584.82	29703.74
584.98	29780.98
585.14	30052.48
585.30	29675.65
585.46	29731.83
585.62	30008.01
585.78	30134.40
585.94	30244.40
586.10	30335.68
586.26	30127.38
586.42	30188.23
586.58	30054.82
586.74	30005.67
586.90	30183.55
587.06	29890.98
587.22	29841.83
587.38	30213.98
587.54	30087.59
587.70	30029.07
587.86	30080.56
588.02	30569.74
588.18	30380.15
588.34	29968.22
588.49	30057.16
588.65	30024.39
588.81	29933.11
588.97	30323.98
589.13	29963.54
589.29	30155.46
589.45	30206.95
589.61	30487.82
589.77	30288.87
589.93	30705.49
590.08	30347.39
590.24	30249.08
590.40	30003.33
590.56	30370.79
590.72	30242.06
590.88	29954.18
591.04	30251.42
591.20	30588.46
591.35	30108.65
591.51	30305.26
591.67	30560.37
591.83	30712.51
591.99	30132.06
