SpectraSuite Data File
++++++++++++++++++++++++++++++++++++
Date: Fri Oct 18 13:58:40 GMT-05:00 2013
User: bianchi
Dark Spectrum Present: No
Reference Spectrum Present: No
Number of Sampled Component Spectra: 1
Spectrometers: USB2+H05261
Integration Time (usec): 50000 (USB2+H05261)
Spectra Averaged: 1 (USB2+H05261)
Boxcar Smoothing: 0 (USB2+H05261)
Correct for Electrical Dark: No (USB2+H05261)
Strobe/Lamp Enabled: No (USB2+H05261)
Correct for Detector Non-linearity: No (USB2+H05261)
Correct for Stray Light: No (USB2+H05261)
Number of Pixels in Processed Spectrum: 2048
>>>>>Begin Processed Spectral Data<<<<<
365.73	0.00
365.92	0.00
366.12	0.00
366.32	0.00
366.52	0.00
366.72	0.00
366.91	0.00
367.11	0.00
367.31	0.00
367.51	0.00
367.70	0.00
367.90	0.00
368.10	0.00
368.30	0.00
368.49	0.00
368.69	0.00
368.89	0.00
369.09	0.00
369.28	0.00
369.48	0.00
369.68	0.00
369.87	0.00
370.07	0.00
370.27	0.00
370.47	0.00
370.66	72.56
370.86	91.28
371.06	74.90
371.25	229.37
371.45	105.32
371.65	163.84
371.84	154.48
372.04	215.33
372.24	180.22
372.44	201.29
372.63	243.42
372.83	163.84
373.03	217.67
373.22	198.95
373.42	175.54
373.62	189.58
373.81	222.35
374.01	250.44
374.21	252.78
374.40	301.93
374.60	255.12
374.79	203.63
374.99	229.37
375.19	194.26
375.38	224.69
375.58	271.50
375.78	259.80
375.97	255.12
376.17	301.93
376.37	285.55
376.56	262.14
376.76	283.20
376.95	224.69
377.15	278.52
377.35	257.46
377.54	208.31
377.74	248.10
377.93	264.48
378.13	187.24
378.33	250.44
378.52	283.20
378.72	301.93
378.91	224.69
379.11	266.82
379.31	287.89
379.50	294.91
379.70	292.57
379.89	308.95
380.09	337.04
380.28	327.68
380.48	262.14
380.68	308.95
380.87	236.39
381.07	325.33
381.26	301.93
381.46	341.72
381.65	409.59
381.85	280.86
382.04	327.68
382.24	372.15
382.43	332.36
382.63	334.70
382.83	327.68
383.02	358.10
383.22	294.91
383.41	332.36
383.61	365.12
383.80	353.42
384.00	315.97
384.19	322.99
384.39	315.97
384.58	367.46
384.78	376.83
384.97	437.68
385.17	397.89
385.36	454.06
385.56	404.91
385.75	381.51
385.95	409.59
386.14	397.89
386.34	369.80
386.53	414.27
386.72	362.78
386.92	463.43
387.11	409.59
387.31	535.98
387.50	461.09
387.70	400.23
387.89	381.51
388.09	454.06
388.28	440.02
388.48	395.55
388.67	503.22
388.86	475.13
389.06	433.00
389.25	456.40
389.45	470.45
389.64	423.64
389.84	437.68
390.03	470.45
390.22	402.57
390.42	428.32
390.61	435.34
390.81	526.62
391.00	458.74
391.19	512.58
391.39	463.43
391.58	543.00
391.78	470.45
391.97	472.79
392.16	510.24
392.36	627.26
392.55	552.37
392.75	631.94
392.94	524.28
393.13	545.34
393.33	540.66
393.52	575.77
393.71	688.12
393.91	510.24
394.10	507.90
394.29	580.45
394.49	531.30
394.68	601.52
394.88	582.79
395.07	599.18
395.26	627.26
395.46	613.22
395.65	559.39
395.84	653.01
396.04	702.16
396.23	587.47
396.42	571.09
396.62	617.90
396.81	674.07
397.00	688.12
397.19	730.25
397.39	641.31
397.58	531.30
397.77	741.95
397.97	753.65
398.16	664.71
398.35	760.67
398.55	650.67
398.74	704.50
398.93	739.61
399.12	688.12
399.32	704.50
399.51	739.61
399.70	741.95
399.90	734.93
400.09	748.97
400.28	671.73
400.47	664.71
400.67	711.52
400.86	795.78
401.05	755.99
401.24	837.91
401.44	798.12
401.63	751.31
401.82	835.57
402.01	826.21
402.21	814.51
402.40	814.51
402.59	828.55
402.78	915.15
402.97	891.74
403.17	819.19
403.36	805.14
403.55	870.68
403.74	947.92
403.93	807.48
404.13	966.64
404.32	786.42
404.51	851.96
404.70	870.68
404.89	959.62
405.09	1034.52
405.28	875.36
405.47	936.21
405.66	983.02
405.85	966.64
406.05	959.62
406.24	1027.50
406.43	1025.15
406.62	1011.11
406.81	1036.86
407.00	1025.15
407.20	945.58
407.39	992.39
407.58	1041.54
407.77	1083.67
407.96	1104.73
408.15	1067.28
408.34	1071.97
408.54	1053.24
408.73	1139.84
408.92	1097.71
409.11	1088.35
409.30	1088.35
409.49	1116.44
409.68	1095.37
409.87	1275.59
410.07	1128.14
410.26	1186.65
410.45	1165.59
410.64	1217.08
410.83	1177.29
411.02	1226.44
411.21	1245.16
411.40	1240.48
411.59	1249.85
411.78	1296.66
411.98	1291.98
412.17	1233.46
412.36	1240.48
412.55	1308.36
412.74	1364.53
412.93	1205.38
413.12	1282.61
413.31	1369.21
413.50	1376.24
413.69	1322.40
413.88	1425.39
414.07	1439.43
414.26	1430.07
414.45	1453.47
414.64	1441.77
414.83	1584.54
415.02	1516.67
415.22	1544.75
415.41	1575.18
415.60	1605.61
415.79	1685.19
415.98	1629.01
416.17	1540.07
416.36	1509.65
416.55	1519.01
416.74	1596.25
416.93	1624.33
417.12	1586.88
417.31	1699.23
417.50	1694.55
417.69	1790.51
417.88	1689.87
418.07	1607.95
418.26	1790.51
418.45	1703.91
418.64	1724.97
418.83	1743.70
419.02	1715.61
419.21	1785.83
419.39	1842.00
419.58	1853.70
419.77	1818.60
419.96	1912.22
420.15	1839.66
420.34	1865.41
420.53	1818.60
420.72	1961.37
420.91	1923.92
421.10	1947.33
421.29	1912.22
421.48	1893.49
421.67	1877.11
421.86	1849.02
422.05	2024.56
422.24	1970.73
422.43	1942.64
422.61	1954.35
422.80	1991.80
422.99	2015.20
423.18	2015.20
423.37	2101.80
423.56	1956.69
423.75	2047.97
423.94	1921.58
424.13	1736.68
424.32	1853.70
424.50	2069.03
424.69	2019.88
424.88	2078.40
425.07	1942.64
425.26	2008.18
425.45	1984.77
425.64	2038.61
425.83	1987.11
426.01	2083.08
426.20	2073.71
426.39	2057.33
426.58	2101.80
426.77	2010.52
426.96	2160.31
427.15	2087.76
427.33	2059.67
427.52	2176.70
427.71	2120.53
427.90	2190.74
428.09	2104.14
428.28	2090.10
428.46	2172.02
428.65	2286.70
428.84	2150.95
429.03	2307.77
429.22	2190.74
429.40	2258.62
429.59	2122.87
429.78	2097.12
429.97	2085.42
430.16	2134.57
430.34	2303.09
430.53	2223.51
430.72	2275.00
430.91	2345.22
431.10	2289.04
431.28	2312.45
431.47	2328.83
431.66	2408.41
431.85	2366.28
432.03	2293.72
432.22	2450.54
432.41	2417.77
432.60	2499.69
432.79	2471.61
432.97	2562.89
433.16	2363.94
433.35	2307.77
433.54	2469.27
433.72	2511.39
433.91	2506.71
434.10	2539.48
434.28	2455.22
434.47	2448.20
434.66	2665.87
434.85	2539.48
435.03	2670.55
435.22	2516.08
435.41	2752.47
435.59	2670.55
435.78	2544.16
435.97	2712.68
436.16	2698.64
436.34	2609.70
436.53	2752.47
436.72	2722.04
436.90	2703.32
437.09	2752.47
437.28	2705.66
437.46	2551.18
437.65	2630.76
437.84	2637.78
438.02	2661.19
438.21	2726.72
438.40	2712.68
438.58	2761.83
438.77	2780.56
438.96	2773.53
439.14	2953.76
439.33	2878.86
439.52	2925.67
439.70	2970.14
439.89	2928.01
440.08	3131.64
440.26	3094.19
440.45	3119.93
440.63	3155.04
440.82	3119.93
441.01	3070.78
441.19	3166.74
441.38	3269.73
441.57	3239.30
441.75	3218.24
441.94	3208.87
442.12	3272.07
442.31	3255.69
442.50	3377.39
442.68	3424.20
442.87	3258.03
443.05	3337.60
443.24	3297.81
443.43	3286.11
443.61	3403.14
443.80	3492.08
443.98	3258.03
444.17	3164.40
444.35	3358.67
444.54	3466.33
444.73	3379.73
444.91	3358.67
445.10	3447.61
445.28	3492.08
445.47	3368.03
445.65	3421.86
445.84	3700.39
446.02	3426.54
446.21	3400.80
446.39	3529.53
446.58	3506.12
446.77	3529.53
446.95	3344.63
447.14	3520.17
447.32	3442.93
447.51	3468.67
447.69	3564.64
447.88	3588.04
448.06	3574.00
448.25	3590.38
448.43	3606.77
448.62	3566.98
448.80	3555.27
448.99	3566.98
449.17	3763.58
449.36	3660.60
449.54	3728.47
449.73	3714.43
449.91	3747.20
450.10	3595.06
450.28	3658.26
450.46	3758.90
450.65	3595.06
450.83	3726.13
451.02	3772.94
451.20	3744.86
451.39	3815.07
451.57	3742.52
451.76	3716.77
451.94	3819.75
452.13	3852.52
452.31	3758.90
452.49	3810.39
452.68	3943.80
452.86	3815.07
453.05	3810.39
453.23	3920.40
453.42	3932.10
453.60	3768.26
453.78	3964.87
453.97	3887.63
454.15	4002.32
454.34	4004.66
454.52	3992.95
454.70	3875.93
454.89	3955.51
455.07	3850.18
455.26	4032.74
455.44	4194.24
455.62	4039.76
455.81	3983.59
455.99	4105.30
456.17	4119.34
456.36	4154.45
456.54	4159.13
456.73	4271.48
456.91	4255.09
457.09	4285.52
457.28	4428.29
457.46	4189.56
457.64	4344.03
457.83	4262.12
458.01	4283.18
458.19	4465.74
458.38	4227.01
458.56	4521.92
458.74	4411.91
458.93	4346.37
459.11	4369.78
459.29	4437.66
459.48	4372.12
459.66	4552.34
459.84	4559.36
460.03	4681.07
460.21	4486.81
460.39	4484.47
460.57	4423.61
460.76	4645.96
460.94	4582.77
461.12	4681.07
461.31	4660.01
461.49	4638.94
461.67	4664.69
461.85	4772.35
462.04	4720.86
462.22	4716.18
462.40	4667.03
462.59	4662.35
462.77	4692.77
462.95	4837.89
463.13	4835.55
463.32	4903.42
463.50	4779.37
463.68	4905.76
463.86	4961.94
464.05	4702.14
464.23	4713.84
464.41	4809.80
464.59	4744.27
464.78	4877.68
464.96	4844.91
465.14	4854.27
465.32	5088.32
465.50	5018.11
465.69	5015.77
465.87	4917.47
466.05	4968.96
466.23	5020.45
466.41	4997.04
466.60	5310.68
466.78	4940.87
466.96	4975.98
467.14	4999.38
467.32	5130.45
467.51	5226.42
467.69	4957.25
467.87	5093.01
468.05	5018.11
468.23	5090.67
468.41	5046.20
468.60	5266.21
468.78	5263.86
468.96	5221.74
469.14	5310.68
469.32	5434.72
469.50	5111.73
469.69	5362.17
469.87	5420.68
470.05	5404.30
470.23	5329.40
470.41	5458.13
470.59	5369.19
470.77	5387.91
470.95	5579.84
471.14	5561.11
471.32	5561.11
471.50	5467.49
471.68	5633.67
471.86	5666.44
472.04	5621.97
472.22	5734.31
472.40	5703.89
472.58	5753.04
472.77	5636.01
472.95	5867.72
473.13	5881.77
473.31	5680.48
473.49	5767.08
473.67	5886.45
473.85	5774.10
474.03	6047.94
474.21	6094.76
474.39	6085.39
474.57	6099.44
474.75	6265.61
474.93	6214.12
475.12	6230.51
475.30	6148.59
475.48	6235.19
475.66	6087.73
475.84	6267.95
476.02	6223.48
476.20	6324.13
476.38	6363.92
476.56	6497.33
476.74	6450.52
476.92	6597.97
477.10	6506.69
477.28	6712.66
477.46	6658.82
477.64	6761.81
477.82	6892.88
478.00	6876.49
478.18	6885.86
478.36	6998.20
478.54	7002.88
478.72	7049.69
478.90	7082.46
479.08	7290.77
479.26	7248.64
479.44	7115.23
479.62	7325.88
479.80	7302.47
479.98	7255.66
480.16	7400.77
480.34	7487.37
480.52	7723.77
480.70	7573.97
480.88	7620.78
481.06	7688.66
481.24	7611.42
481.41	7850.16
481.59	7899.31
481.77	7861.86
481.95	8098.25
482.13	7934.42
482.31	8044.42
482.49	8124.00
482.67	8145.06
482.85	8294.86
483.03	8404.86
483.21	8533.59
483.39	8608.49
483.57	8641.26
483.74	8667.00
483.92	8582.74
484.10	8533.59
484.28	8748.92
484.46	8950.21
484.64	9221.71
484.82	8814.46
485.00	9102.34
485.18	9062.55
485.35	9252.14
485.53	9228.73
485.71	9305.97
485.89	9521.30
486.07	9364.48
486.25	9472.15
486.43	9844.29
486.61	9600.88
486.78	9980.04
486.96	10073.67
487.14	9909.83
487.32	10225.80
487.50	10174.31
487.68	10005.79
487.85	10305.38
488.03	10335.81
488.21	10466.88
488.39	10473.90
488.57	10576.88
488.75	10586.24
488.92	10899.87
489.10	10949.03
489.28	10972.43
489.46	11007.54
489.64	11103.50
489.81	11487.35
489.99	11157.33
490.17	11194.78
490.35	11580.97
490.53	11508.41
490.70	11590.33
490.88	11557.57
491.06	11763.53
491.24	11716.72
491.41	11730.76
491.59	11943.75
491.77	12074.82
491.95	12208.23
492.13	12049.08
492.30	12269.09
492.48	12255.04
492.66	12320.58
492.84	12255.04
493.01	12512.50
493.19	12519.53
493.37	12608.47
493.54	12631.87
493.72	12706.77
493.90	12840.18
494.08	13053.17
494.25	12912.74
494.43	13135.09
494.61	13205.30
494.79	13060.19
494.96	13130.41
495.14	13067.21
495.32	13549.36
495.49	13444.04
495.67	13825.54
495.85	13647.66
496.02	13628.94
496.20	13891.08
496.38	13891.08
496.55	13884.06
496.73	14068.96
496.91	14150.88
497.09	14401.32
497.26	14167.26
497.44	14209.39
497.62	14380.25
497.79	14516.00
497.97	14457.49
498.14	14626.01
498.32	14920.92
498.50	14876.44
498.67	15051.99
498.85	14853.04
499.03	14981.77
499.20	15042.62
499.38	15108.16
499.56	15288.38
499.73	15147.95
499.91	15279.02
500.08	15405.41
500.26	15337.53
500.44	15424.13
500.61	15475.62
500.79	15449.88
500.97	15412.43
501.14	15946.07
501.32	15655.84
501.49	15637.12
501.67	15618.39
501.84	16035.01
502.02	16044.37
502.20	16039.69
502.37	16091.18
502.55	16044.37
502.72	16252.68
502.90	16126.29
503.07	16037.35
503.25	16128.63
503.43	16252.68
503.60	16561.63
503.78	16418.86
503.95	16496.10
504.13	16554.61
504.30	16617.80
504.48	16573.33
504.65	16765.26
504.83	16903.35
505.01	16828.45
505.18	16915.05
505.36	17184.21
505.53	16610.78
505.71	17046.12
505.88	16877.60
506.06	16858.88
506.23	17249.75
506.41	17348.05
506.58	17221.66
506.76	17348.05
506.93	17338.69
507.11	17160.81
507.28	17493.16
507.46	17371.46
507.63	17724.88
507.81	17479.12
507.98	17502.53
508.16	17607.85
508.33	17806.80
508.50	17797.43
508.68	17968.29
508.85	18148.51
509.03	18232.77
509.20	18274.90
509.38	18085.32
509.55	18551.09
509.73	18384.91
509.90	18078.30
510.08	18073.62
510.25	18036.17
510.42	18721.95
510.60	18424.70
510.77	18689.18
510.95	18785.14
511.12	18490.23
511.30	18506.62
511.47	18883.44
511.64	18867.06
511.82	18743.01
511.99	18815.57
512.17	18970.04
512.34	18972.38
512.51	18747.69
512.69	19241.54
512.86	19105.79
513.04	19529.43
513.21	19447.51
513.38	19318.78
513.56	19447.51
513.73	19459.21
513.90	19257.93
514.08	19187.71
514.25	19756.46
514.43	19585.60
514.60	19854.76
514.77	19456.87
514.95	19796.25
515.12	19527.09
515.29	19700.29
515.47	20212.87
515.64	19953.07
515.81	20002.22
515.99	19887.53
516.16	20322.87
516.33	20245.63
516.51	20683.31
516.68	20292.44
516.85	20053.71
517.03	20519.48
517.20	20386.07
517.37	20308.83
517.54	20175.42
517.72	20482.03
517.89	20374.36
518.06	20566.29
518.24	20325.21
518.41	20514.80
518.58	20854.17
518.75	20432.88
518.93	20828.43
519.10	20744.17
519.27	20795.66
519.45	20659.91
519.62	21015.67
519.79	20608.42
519.96	21153.76
520.14	21095.25
520.31	21207.59
520.48	21179.51
520.65	20823.75
520.83	21504.84
521.00	21109.29
521.17	21128.02
521.34	21565.70
521.52	21305.90
521.69	21399.52
521.86	21553.99
522.03	21881.67
522.20	21605.49
522.38	21944.86
522.55	21654.64
522.72	21722.51
522.89	22127.42
523.07	21968.27
523.24	22148.49
523.41	21972.95
523.58	21919.12
523.75	21984.65
523.92	21804.43
524.10	22029.12
524.27	22263.18
524.44	22153.17
524.61	22539.36
524.78	22153.17
524.96	22279.56
525.13	22267.86
525.30	22492.55
525.47	22431.69
525.64	22560.42
525.81	22579.15
525.98	22670.43
526.16	22682.13
526.33	22937.25
526.50	22860.01
526.67	22604.89
526.84	22771.07
527.01	22892.78
527.18	23117.47
527.36	23016.83
527.53	22951.29
527.70	23323.44
527.87	23356.21
528.04	22986.40
528.21	22902.14
528.38	23077.68
528.55	23075.34
528.72	23023.85
528.89	23697.92
529.07	23243.86
529.24	23140.88
529.41	23365.57
529.58	23054.28
529.75	23538.77
529.92	23470.89
530.09	23304.71
530.26	23510.68
530.43	23545.79
530.60	23683.88
530.77	23325.78
530.94	23782.18
531.11	23555.15
531.28	23967.09
531.46	23882.83
531.63	23824.31
531.80	23800.91
531.97	23946.02
532.14	23948.36
532.31	23747.08
532.48	23939.00
532.65	23831.33
532.82	24023.26
532.99	24360.30
533.16	23934.32
533.33	24748.82
533.50	24556.90
533.67	24306.46
533.84	24098.16
534.01	24360.30
534.18	24278.38
534.35	24519.45
534.52	24390.72
534.69	24835.42
534.86	24772.23
535.03	24400.08
535.20	24613.07
535.37	24533.50
535.54	24720.74
535.71	24589.67
535.88	24638.82
536.05	24465.62
536.22	24907.98
536.38	24933.73
536.55	24900.96
536.72	24826.06
536.89	24561.58
537.06	24732.44
537.23	24573.28
537.40	24786.27
537.57	24922.02
537.74	24896.28
537.91	25034.37
538.08	25165.44
538.25	24936.07
538.42	24868.19
538.59	25245.02
538.75	25214.59
538.92	25209.91
539.09	25390.13
539.26	25617.16
539.43	25371.41
539.60	25399.49
539.77	25455.67
539.94	25319.92
540.11	25535.24
540.28	25507.16
540.44	25462.69
540.61	25717.81
540.78	25455.67
540.95	25956.54
541.12	25752.91
541.29	25874.62
541.46	25937.82
541.62	25572.69
541.79	25528.22
541.96	25109.27
542.13	25446.30
542.30	25799.73
542.47	25729.51
542.63	25785.68
542.80	26218.68
542.97	25996.33
543.14	26321.66
543.31	26251.45
543.48	26115.70
543.64	26286.56
543.81	26663.38
543.98	26391.88
544.15	26471.46
544.32	26443.37
544.48	26576.78
544.65	26251.45
544.82	26307.62
544.99	26040.80
545.16	26314.64
545.32	26745.30
545.49	26436.35
545.66	26419.97
545.83	26803.82
546.00	26693.81
546.16	26874.03
546.33	26658.70
546.50	26616.57
546.67	26663.38
546.83	26663.38
547.00	26726.58
547.17	26799.13
547.34	26576.78
547.50	26972.33
547.67	27138.51
547.84	27119.79
548.00	26799.13
548.17	26874.03
548.34	26801.47
548.51	27164.26
548.67	27435.76
548.84	26965.31
549.01	27239.15
549.18	27124.47
549.34	27295.33
549.51	26981.70
549.68	27047.23
549.84	27227.45
550.01	27243.84
550.18	27037.87
550.34	27246.18
550.51	27328.10
550.68	27594.92
550.84	27117.45
551.01	27234.47
551.18	27110.43
551.34	27199.37
551.51	27304.69
551.68	27585.55
551.84	27826.63
552.01	27190.00
552.18	27854.72
552.34	27295.33
552.51	27899.19
552.68	27349.16
552.84	27365.54
553.01	27597.26
553.18	27599.60
553.34	27887.48
553.51	27894.50
553.67	27800.88
553.84	28037.28
554.01	27850.03
554.17	27475.55
554.34	27714.28
554.51	27948.34
554.67	27983.44
554.84	27796.20
555.00	27812.59
555.17	28166.01
555.33	27843.01
555.50	27985.79
555.67	28304.10
555.83	28226.86
556.00	28133.24
556.16	28046.64
556.33	28091.11
556.50	28430.49
556.66	28119.20
556.83	28102.81
556.99	28364.95
557.16	28472.62
557.32	28048.98
557.49	28533.47
557.65	27899.19
557.82	28463.25
557.98	28315.80
558.15	28402.40
558.32	28334.53
558.48	28233.88
558.65	28545.17
558.81	28498.36
558.98	28374.31
559.14	28430.49
559.31	28329.84
559.47	28474.96
559.64	28498.36
559.80	28388.36
559.97	28959.45
560.13	28102.81
560.30	28563.90
560.46	28879.87
560.63	28781.57
560.79	28580.28
560.96	28734.76
561.12	28409.42
561.29	28617.73
561.45	28545.17
561.61	28725.39
561.78	28856.46
561.94	28783.91
562.11	28975.83
562.27	28790.93
562.44	28657.52
562.60	28659.86
562.77	28624.75
562.93	28500.70
563.10	29104.56
563.26	29036.69
563.42	29041.37
563.59	29420.53
563.75	28830.72
563.92	29078.82
564.08	28814.34
564.24	28786.25
564.41	28772.21
564.57	29287.12
564.74	29008.60
564.90	28940.72
565.07	28837.74
565.23	29116.26
565.39	29095.20
565.56	29350.32
565.72	28776.89
565.88	29125.63
566.05	29200.52
566.21	28896.25
566.38	28999.24
566.54	29380.74
566.70	29319.89
566.87	29806.72
567.03	29099.88
567.19	29193.50
567.36	29287.12
567.52	29429.90
567.68	29219.25
567.85	28746.46
568.01	29170.10
568.17	29144.35
568.34	29465.00
568.50	29212.23
568.66	28973.49
568.83	30061.84
568.99	29092.86
569.15	29111.58
569.32	29174.78
569.48	29008.60
569.64	29521.18
569.81	29268.40
569.97	29237.97
570.13	29109.24
570.30	28753.48
570.46	29556.28
570.62	29467.34
570.78	29462.66
570.95	29261.38
571.11	29359.68
571.27	29071.79
571.43	29343.30
571.60	29436.92
571.76	29266.06
571.92	28877.53
572.09	29752.89
572.25	29776.30
572.41	29312.87
572.57	29312.87
572.74	29333.93
572.90	29600.76
573.06	29174.78
573.22	29116.26
573.38	29383.09
573.55	29579.69
573.71	29860.55
573.87	29715.44
574.03	29275.42
574.20	29472.03
574.36	29137.33
574.52	29308.19
574.68	29074.13
574.84	29275.42
575.01	29392.45
575.17	29593.73
575.33	29905.02
575.49	29319.89
575.65	29411.17
575.82	28961.79
575.98	29752.89
576.14	29647.57
576.30	29575.01
576.46	29425.22
576.62	29715.44
576.79	29380.74
576.95	29488.41
577.11	29687.36
577.27	29745.87
577.43	29418.19
577.59	29542.24
577.75	29223.93
577.92	29326.91
578.08	29294.14
578.24	29474.37
578.40	29659.27
578.56	29729.48
578.72	29680.33
578.88	30054.82
579.04	29666.29
579.21	29825.45
579.37	29830.13
579.53	29638.20
579.69	29280.10
579.85	29448.62
580.01	29736.51
580.17	29366.70
580.33	29518.84
580.49	29670.97
580.65	29759.91
580.82	29685.01
580.98	29764.59
581.14	29638.20
581.30	29860.55
581.46	29656.93
581.62	29198.18
581.78	29518.84
581.94	29935.45
582.10	29373.72
582.26	29802.04
582.42	29755.23
582.58	30122.69
582.74	29570.33
582.90	29881.62
583.06	30103.97
583.22	29729.48
583.38	29706.08
583.54	29727.14
583.70	29872.26
583.86	29577.35
584.02	29432.24
584.18	30108.65
584.34	29839.49
584.50	29926.09
584.66	29692.04
584.82	29579.69
584.98	29610.12
585.14	29677.99
585.30	29151.37
585.46	29825.45
585.62	29530.54
585.78	29670.97
585.94	29294.14
586.10	30085.25
586.26	29862.90
586.42	29951.84
586.58	29996.31
586.74	29553.94
586.90	29851.19
587.06	29635.86
587.22	29806.72
587.38	29614.80
587.54	29951.84
587.70	30059.50
587.86	30038.44
588.02	29977.58
588.18	29841.83
588.34	29858.21
588.49	30141.42
588.65	29790.34
588.81	29652.25
588.97	30054.82
589.13	29722.46
589.29	30068.86
589.45	29954.18
589.61	29961.20
589.77	30047.80
589.93	30022.05
590.08	30321.64
590.24	30087.59
590.40	30078.22
590.56	29949.50
590.72	30157.80
590.88	29923.75
591.04	29975.24
591.20	30050.14
591.35	29701.40
591.51	30401.22
591.67	30345.05
591.83	30415.26
591.99	30260.79
