SpectraSuite Data File
++++++++++++++++++++++++++++++++++++
Date: Fri Oct 18 13:58:29 GMT-05:00 2013
User: bianchi
Dark Spectrum Present: No
Reference Spectrum Present: No
Number of Sampled Component Spectra: 1
Spectrometers: USB2+H05261
Integration Time (usec): 50000 (USB2+H05261)
Spectra Averaged: 1 (USB2+H05261)
Boxcar Smoothing: 0 (USB2+H05261)
Correct for Electrical Dark: No (USB2+H05261)
Strobe/Lamp Enabled: No (USB2+H05261)
Correct for Detector Non-linearity: No (USB2+H05261)
Correct for Stray Light: No (USB2+H05261)
Number of Pixels in Processed Spectrum: 2048
>>>>>Begin Processed Spectral Data<<<<<
365.73	0.00
365.92	0.00
366.12	0.00
366.32	0.00
366.52	0.00
366.72	0.00
366.91	0.00
367.11	0.00
367.31	0.00
367.51	0.00
367.70	0.00
367.90	0.00
368.10	0.00
368.30	0.00
368.49	0.00
368.69	0.00
368.89	0.00
369.09	0.00
369.28	0.00
369.48	0.00
369.68	0.00
369.87	0.00
370.07	0.00
370.27	2.34
370.47	0.00
370.66	37.45
370.86	51.49
371.06	114.69
371.25	149.79
371.45	117.03
371.65	182.56
371.84	126.39
372.04	175.54
372.24	177.88
372.44	149.79
372.63	152.13
372.83	248.10
373.03	119.37
373.22	212.99
373.42	208.31
373.62	234.05
373.81	210.65
374.01	222.35
374.21	236.39
374.40	241.08
374.60	198.95
374.79	220.01
374.99	278.52
375.19	245.76
375.38	301.93
375.58	182.56
375.78	297.25
375.97	217.67
376.17	285.55
376.37	194.26
376.56	227.03
376.76	191.92
376.95	245.76
377.15	327.68
377.35	271.50
377.54	315.97
377.74	322.99
377.93	304.27
378.13	252.78
378.33	217.67
378.52	161.50
378.72	262.14
378.91	294.91
379.11	320.65
379.31	299.59
379.50	339.38
379.70	290.23
379.89	217.67
380.09	313.63
380.28	234.05
380.48	322.99
380.68	299.59
380.87	348.74
381.07	430.66
381.26	315.97
381.46	348.74
381.65	318.31
381.85	430.66
382.04	325.33
382.24	344.06
382.43	341.72
382.63	325.33
382.83	411.93
383.02	348.74
383.22	388.53
383.41	360.44
383.61	318.31
383.80	346.40
384.00	425.98
384.19	372.15
384.39	334.70
384.58	404.91
384.78	397.89
384.97	411.93
385.17	348.74
385.36	362.78
385.56	388.53
385.75	381.51
385.95	383.85
386.14	479.81
386.34	421.30
386.53	447.04
386.72	400.23
386.92	428.32
387.11	477.47
387.31	437.68
387.50	383.85
387.70	425.98
387.89	395.55
388.09	463.43
388.28	433.00
388.48	425.98
388.67	477.47
388.86	456.40
389.06	435.34
389.25	456.40
389.45	444.70
389.64	381.51
389.84	528.96
390.03	514.92
390.22	472.79
390.42	620.24
390.61	444.70
390.81	456.40
391.00	472.79
391.19	524.28
391.39	486.83
391.58	503.22
391.78	552.37
391.97	496.19
392.16	594.50
392.36	531.30
392.55	503.22
392.75	493.85
392.94	458.74
393.13	554.71
393.33	498.53
393.52	498.53
393.71	608.54
393.91	514.92
394.10	594.50
394.29	524.28
394.49	573.43
394.68	564.07
394.88	568.75
395.07	643.65
395.26	580.45
395.46	638.97
395.65	657.69
395.84	615.56
396.04	725.57
396.23	615.56
396.42	674.07
396.62	634.29
396.81	676.41
397.00	608.54
397.19	650.67
397.39	699.82
397.58	685.78
397.77	638.97
397.97	744.29
398.16	634.29
398.35	645.99
398.55	692.80
398.74	704.50
398.93	777.06
399.12	828.55
399.32	697.48
399.51	723.23
399.70	692.80
399.90	739.61
400.09	774.72
400.28	830.89
400.47	779.40
400.67	786.42
400.86	746.63
401.05	809.83
401.24	781.74
401.44	823.87
401.63	755.99
401.82	777.06
402.01	807.48
402.21	826.21
402.40	835.57
402.59	821.53
402.78	767.70
402.97	826.21
403.17	938.55
403.36	823.87
403.55	891.74
403.74	940.90
403.93	856.64
404.13	772.38
404.32	851.96
404.51	863.66
404.70	929.19
404.89	987.71
405.09	990.05
405.28	1011.11
405.47	947.92
405.66	933.87
405.85	947.92
406.05	959.62
406.24	992.39
406.43	999.41
406.62	1006.43
406.81	1046.22
407.00	997.07
407.20	1039.20
407.39	1018.13
407.58	1032.18
407.77	1008.77
407.96	1053.24
408.15	1034.52
408.34	1067.28
408.54	1191.33
408.73	961.96
408.92	1048.56
409.11	1102.39
409.30	1083.67
409.49	1048.56
409.68	1214.74
409.87	1153.88
410.07	1198.35
410.26	1219.42
410.45	1160.91
410.64	1240.48
410.83	1170.27
411.02	1245.16
411.21	1174.95
411.40	1188.99
411.59	1256.87
411.78	1238.14
411.98	1322.40
412.17	1156.22
412.36	1256.87
412.55	1256.87
412.74	1233.46
412.93	1385.60
413.12	1306.02
413.31	1329.42
413.50	1383.26
413.69	1366.87
413.88	1516.67
414.07	1490.92
414.26	1460.49
414.45	1504.96
414.64	1432.41
414.83	1500.28
415.02	1486.24
415.22	1570.50
415.41	1643.06
415.60	1591.56
415.79	1514.33
415.98	1558.80
416.17	1521.35
416.36	1593.90
416.55	1607.95
416.74	1586.88
416.93	1636.03
417.12	1624.33
417.31	1563.48
417.50	1680.50
417.69	1750.72
417.88	1722.63
418.07	1717.95
418.26	1694.55
418.45	1804.55
418.64	1870.09
418.83	1809.23
419.02	1727.32
419.21	1788.17
419.39	1937.96
419.58	1732.00
419.77	1724.97
419.96	1811.57
420.15	1872.43
420.34	1741.36
420.53	1877.11
420.72	1916.90
420.91	1916.90
421.10	1935.62
421.29	1895.83
421.48	1900.52
421.67	1998.82
421.86	1874.77
422.05	1942.64
422.24	1966.05
422.43	1898.17
422.61	1959.03
422.80	2017.54
422.99	1966.05
423.18	2001.16
423.37	1930.94
423.56	1998.82
423.75	2052.65
423.94	2087.76
424.13	1811.57
424.32	1959.03
424.50	2015.20
424.69	2066.69
424.88	2085.42
425.07	2062.01
425.26	1926.26
425.45	2139.25
425.64	2005.84
425.83	2047.97
426.01	2120.53
426.20	2162.66
426.39	1952.01
426.58	2012.86
426.77	1956.69
426.96	2083.08
427.15	2057.33
427.33	2043.29
427.52	2157.97
427.71	2106.48
427.90	2157.97
428.09	2111.16
428.28	2120.53
428.46	2204.78
428.65	2132.23
428.84	2211.81
429.03	2298.41
429.22	2230.53
429.40	2188.40
429.59	2296.07
429.78	2172.02
429.97	2129.89
430.16	2179.04
430.34	2356.92
430.53	2289.04
430.72	2361.60
430.91	2272.66
431.10	2296.07
431.28	2354.58
431.47	2413.09
431.66	2466.92
431.85	2359.26
432.03	2406.07
432.22	2499.69
432.41	2424.80
432.60	2382.67
432.79	2429.48
432.97	2342.88
433.16	2473.95
433.35	2506.71
433.54	2448.20
433.72	2445.86
433.91	2438.84
434.10	2424.80
434.28	2464.58
434.47	2506.71
434.66	2548.84
434.85	2523.10
435.03	2562.89
435.22	2572.25
435.41	2672.89
435.59	2619.06
435.78	2609.70
435.97	2565.23
436.16	2658.85
436.34	2722.04
436.53	2607.36
436.72	2782.90
436.90	2576.93
437.09	2771.19
437.28	2647.15
437.46	2773.53
437.65	2670.55
437.84	2848.43
438.02	2785.24
438.21	2752.47
438.40	2682.25
438.58	2935.03
438.77	2803.96
438.96	2871.84
439.14	3000.57
439.33	2949.08
439.52	3026.31
439.70	2815.66
439.89	2960.78
440.08	3035.67
440.26	3016.95
440.45	3023.97
440.63	3145.68
440.82	3236.96
441.01	3014.61
441.19	3187.81
441.38	3091.85
441.57	3049.72
441.75	3300.16
441.94	3290.79
442.12	3150.36
442.31	3353.99
442.50	3183.13
442.68	3316.54
442.87	3295.47
443.05	3262.71
443.24	3419.52
443.43	3323.56
443.61	3328.24
443.80	3410.16
443.98	3337.60
444.17	3192.49
444.35	3396.12
444.54	3325.90
444.73	3405.48
444.91	3251.00
445.10	3363.35
445.28	3475.70
445.47	3447.61
445.65	3414.84
445.84	3489.74
446.02	3534.21
446.21	3485.06
446.39	3461.65
446.58	3545.91
446.77	3515.48
446.95	3559.95
447.14	3480.38
447.32	3576.34
447.51	3510.80
447.69	3545.91
447.88	3543.57
448.06	3655.92
448.25	3494.42
448.43	3442.93
448.62	3421.86
448.80	3454.63
448.99	3583.36
449.17	3641.87
449.36	3463.99
449.54	3716.77
449.73	3585.70
449.91	3709.75
450.10	3709.75
450.28	3660.60
450.46	3864.22
450.65	3740.18
450.83	3801.03
451.02	3723.79
451.20	3786.99
451.39	3698.05
451.57	3709.75
451.76	3822.09
451.94	3733.15
452.13	3833.80
452.31	3864.22
452.49	3751.88
452.68	3822.09
452.86	3824.44
453.05	3880.61
453.23	3899.33
453.42	3911.04
453.60	3854.86
453.78	3901.67
453.97	3861.88
454.15	3810.39
454.34	3812.73
454.52	3892.31
454.70	3854.86
454.89	4037.42
455.07	4060.83
455.26	4056.15
455.44	4170.83
455.62	4035.08
455.81	4100.62
455.99	4117.00
456.17	4138.07
456.36	3988.27
456.54	4079.55
456.73	4283.18
456.91	4393.19
457.09	4297.22
457.28	4407.23
457.46	4208.28
457.64	4301.90
457.83	4472.76
458.01	4280.84
458.19	4250.41
458.38	4383.82
458.56	4468.08
458.74	4407.23
458.93	4454.04
459.11	4245.73
459.29	4449.36
459.48	4519.57
459.66	4507.87
459.84	4503.19
460.03	4505.53
460.21	4402.55
460.39	4535.96
460.57	4566.39
460.76	4606.17
460.94	4575.75
461.12	4645.96
461.31	4550.00
461.49	4737.24
461.67	4564.04
461.85	4751.29
462.04	4835.55
462.22	4716.18
462.40	4875.34
462.59	4798.10
462.77	4753.63
462.95	4884.70
463.13	4744.27
463.32	4758.31
463.50	4830.87
463.68	4835.55
463.86	4772.35
464.05	4882.36
464.23	4884.70
464.41	4884.70
464.59	4884.70
464.78	5036.83
464.96	5027.47
465.14	4924.49
465.32	4994.70
465.50	4919.81
465.69	4971.30
465.87	4966.62
466.05	4891.72
466.23	4854.27
466.41	4978.32
466.60	5366.85
466.78	5078.96
466.96	4854.27
467.14	5043.85
467.32	5125.77
467.51	5011.09
467.69	4910.44
467.87	5107.05
468.05	5093.01
468.23	5195.99
468.41	5116.41
468.60	5090.67
468.78	5259.18
468.96	5195.99
469.14	5406.64
469.32	5298.97
469.50	5203.01
469.69	5338.76
469.87	5495.58
470.05	5350.46
470.23	5341.10
470.41	5350.46
470.59	5298.97
470.77	5558.77
470.95	5437.06
471.14	5416.00
471.32	5432.38
471.50	5540.05
471.68	5612.60
471.86	5474.51
472.04	5736.65
472.22	5724.95
472.40	5659.42
472.58	5755.38
472.77	5596.22
472.95	5895.81
473.13	5923.90
473.31	5832.62
473.49	5659.42
473.67	5647.71
473.85	5734.31
474.03	6038.58
474.21	6076.03
474.39	6071.35
474.57	6050.28
474.75	6200.08
474.93	6120.50
475.12	6008.16
475.30	6186.04
475.48	6120.50
475.66	6249.23
475.84	6218.80
476.02	6370.94
476.20	6258.59
476.38	6497.33
476.56	6604.99
476.74	6471.58
476.92	6462.22
477.10	6560.52
477.28	6555.84
477.46	6663.51
477.64	6745.42
477.82	6686.91
478.00	6979.48
478.18	6878.83
478.36	7089.48
478.54	6944.37
478.72	7084.80
478.90	7105.87
479.08	7131.61
479.26	7094.16
479.44	7246.30
479.62	7325.88
479.80	7342.26
479.98	7365.67
480.16	7559.93
480.34	7517.80
480.52	7536.52
480.70	7705.04
480.88	7620.78
481.06	7744.83
481.24	7709.72
481.41	7676.96
481.59	7971.86
481.77	7927.39
481.95	7915.69
482.13	7941.44
482.31	8133.36
482.49	8011.65
482.67	8189.53
482.85	8205.92
483.03	8491.46
483.21	8634.24
483.39	8645.94
483.57	8711.47
483.74	8734.88
483.92	8650.62
484.10	8746.58
484.28	8901.06
484.46	9006.38
484.64	9149.15
484.82	8765.31
485.00	8978.30
485.18	9043.83
485.35	9268.52
485.53	9149.15
485.71	9455.76
485.89	9671.09
486.07	9486.19
486.25	9579.81
486.43	9497.89
486.61	9575.13
486.78	9771.74
486.96	10050.26
487.14	9923.87
487.32	9994.09
487.50	10171.97
487.68	10099.41
487.85	10539.43
488.03	10356.87
488.21	10553.48
488.39	10338.15
488.57	10583.90
488.75	10485.60
488.92	10794.55
489.10	10815.62
489.28	10862.43
489.46	10885.83
489.64	10963.07
489.81	11169.04
489.99	11290.74
490.17	11218.19
490.35	11356.28
490.53	11557.57
490.70	11548.20
490.88	11543.52
491.06	11793.96
491.24	11623.10
491.41	11754.17
491.59	11936.73
491.77	11826.73
491.95	12208.23
492.13	12112.27
492.30	11934.39
492.48	12212.92
492.66	12081.85
492.84	12428.24
493.01	12372.07
493.19	12496.12
493.37	12676.34
493.54	12540.59
493.72	12711.45
493.90	12765.28
494.08	13132.75
494.25	13085.94
494.43	13057.85
494.61	13163.17
494.79	13282.54
494.96	13174.88
495.14	13408.93
495.32	13628.94
495.49	13577.45
495.67	13530.64
495.85	13647.66
496.02	13731.92
496.20	13752.99
496.38	13975.34
496.55	13813.84
496.73	14073.64
496.91	13944.91
497.09	14022.15
497.26	14239.82
497.44	14141.52
497.62	14200.03
497.79	14560.47
497.97	14494.94
498.14	14691.54
498.32	14892.83
498.50	14597.92
498.67	14824.95
498.85	15047.30
499.03	14977.09
499.20	14897.51
499.38	14728.99
499.56	15257.95
499.73	15159.65
499.91	15302.42
500.08	15417.11
500.26	15442.85
500.44	15389.02
500.61	15484.98
500.79	15461.58
500.97	15641.80
501.14	15875.85
501.32	15892.24
501.49	15707.34
501.67	15494.35
501.84	15674.57
502.02	15791.59
502.20	16063.10
502.37	15826.70
502.55	15873.51
502.72	16315.87
502.90	16264.38
503.07	15974.16
503.25	16285.45
503.43	16067.78
503.60	16383.75
503.78	16594.40
503.95	16730.15
504.13	16540.57
504.30	16659.93
504.48	16711.42
504.65	16702.06
504.83	16898.67
505.01	16826.11
505.18	16868.24
505.36	17025.06
505.53	16915.05
505.71	17062.51
505.88	17174.85
506.06	17163.15
506.23	17153.79
506.41	17280.18
506.58	17160.81
506.76	17259.11
506.93	17539.97
507.11	17366.78
507.28	17551.68
507.46	17369.12
507.63	17549.34
507.81	17872.33
507.98	17750.62
508.16	17790.41
508.33	17905.10
508.50	17933.18
508.68	18073.62
508.85	18132.13
509.03	17994.04
509.20	18176.60
509.38	18146.17
509.55	18525.34
509.73	17951.91
509.90	18082.98
510.08	18218.73
510.25	18281.92
510.42	18476.19
510.60	18579.17
510.77	18640.03
510.95	18714.92
511.12	19051.96
511.30	18553.43
511.47	18696.20
511.64	18937.27
511.82	18981.74
511.99	18934.93
512.17	19082.39
512.34	18541.72
512.51	18970.04
512.69	19105.79
512.86	19232.18
513.04	19314.10
513.21	19232.18
513.38	19400.70
513.56	19484.96
513.73	19356.23
513.90	19232.18
514.08	19559.86
514.25	19590.28
514.43	19346.87
514.60	19747.10
514.77	19700.29
514.95	19506.02
515.12	19852.42
515.29	19742.42
515.47	19934.34
515.64	20091.16
515.81	20053.71
515.99	20222.23
516.16	20112.22
516.33	20098.18
516.51	20505.43
516.68	20018.60
516.85	20140.31
517.03	20107.54
517.20	20570.97
517.37	20357.98
517.54	20493.73
517.72	20580.33
517.89	20449.26
518.06	20826.09
518.24	20561.61
518.41	20269.04
518.58	20463.30
518.75	20657.57
518.93	21003.97
519.10	20594.37
519.27	20992.26
519.45	20774.60
519.62	20891.62
519.79	21029.71
519.96	20966.52
520.14	21242.70
520.31	21135.04
520.48	21282.49
520.65	21390.16
520.83	21270.79
521.00	21422.92
521.17	21184.19
521.34	21305.90
521.52	21186.53
521.69	21680.38
521.86	21535.27
522.03	21635.91
522.20	21626.55
522.38	21893.37
522.55	21748.26
522.72	21736.56
522.89	22022.10
523.07	22380.20
523.24	21979.97
523.41	22054.87
523.58	21942.52
523.75	21930.82
523.92	21769.32
524.10	22054.87
524.27	22001.04
524.44	22199.98
524.61	22139.13
524.78	22441.06
524.96	22094.66
525.13	22436.38
525.30	22309.99
525.47	22518.29
525.64	22471.48
525.81	22405.95
525.98	22401.27
526.16	22670.43
526.33	22864.69
526.50	22895.12
526.67	22504.25
526.84	22499.57
527.01	22586.17
527.18	22703.20
527.36	22719.58
527.53	23246.20
527.70	22963.00
527.87	23314.08
528.04	23194.71
528.21	22799.16
528.38	22937.25
528.55	23000.44
528.72	23122.15
528.89	23108.11
529.07	23143.22
529.24	23054.28
529.41	23302.37
529.58	23082.36
529.75	23414.72
529.92	23590.26
530.09	23482.59
530.26	23885.17
530.43	23878.15
530.60	23426.42
530.77	23608.98
530.94	23503.66
531.11	23445.15
531.28	23704.95
531.46	23665.16
531.63	23878.15
531.80	23915.59
531.97	23754.10
532.14	24020.92
532.31	24072.41
532.48	24292.42
532.65	24070.07
532.82	23929.64
532.99	23852.40
533.16	23962.40
533.33	24416.47
533.50	24283.06
533.67	24329.87
533.84	24236.25
534.01	24278.38
534.18	23955.38
534.35	24425.83
534.52	24058.37
534.69	24297.10
534.86	24603.71
535.03	24563.92
535.20	24615.41
535.37	24673.93
535.54	24477.32
535.71	24243.27
535.88	24856.49
536.05	24615.41
536.22	24966.49
536.38	25027.35
536.55	24933.73
536.72	24851.81
536.89	24500.73
537.06	24767.55
537.23	25132.67
537.40	25151.40
537.57	24968.84
537.74	25001.60
537.91	25233.32
538.08	25095.22
538.25	24968.84
538.42	25263.74
538.59	25256.72
538.75	25027.35
538.92	25144.38
539.09	25165.44
539.26	25329.28
539.43	25504.82
539.60	25425.24
539.77	25200.55
539.94	25504.82
540.11	25216.93
540.28	25666.31
540.44	25495.46
540.61	25518.86
540.78	25420.56
540.95	25781.00
541.12	25474.39
541.29	25434.60
541.46	25408.86
541.62	25888.67
541.79	25472.05
541.96	25345.66
542.13	25467.37
542.30	25668.66
542.47	25895.69
542.63	25848.88
542.80	25991.65
542.97	26078.25
543.14	26347.41
543.31	26108.68
543.48	25785.68
543.64	26047.82
543.81	26485.50
543.98	26382.52
544.15	26544.02
544.32	26494.86
544.48	26714.87
544.65	26195.28
544.82	26525.29
544.99	26328.69
545.16	26265.49
545.32	26279.54
545.49	26316.98
545.66	26738.28
545.83	26569.76
546.00	26955.95
546.16	26883.39
546.33	26192.94
546.50	26384.86
546.67	26859.99
546.83	26307.62
547.00	26810.84
547.17	26366.13
547.34	26551.04
547.50	26878.71
547.67	27190.00
547.84	26862.33
548.00	27232.13
548.17	26932.54
548.34	26979.36
548.51	27239.15
548.67	27037.87
548.84	27103.40
549.01	26909.14
549.18	27047.23
549.34	26845.94
549.51	27274.26
549.68	27101.06
549.84	27042.55
550.01	27353.84
550.18	27143.19
550.34	27332.78
550.51	27391.29
550.68	27379.59
550.84	27126.81
551.01	27569.17
551.18	27454.48
551.34	27175.96
551.51	27253.20
551.68	27522.36
551.84	27709.60
552.01	27873.44
552.18	27775.14
552.34	27388.95
552.51	27583.21
552.68	27433.42
552.84	27676.83
553.01	27889.82
553.18	27744.71
553.34	28250.27
553.51	27630.02
553.67	27695.56
553.84	27852.38
554.01	27847.69
554.17	27810.25
554.34	27725.99
554.51	27793.86
554.67	28053.66
554.84	27882.80
555.00	27599.60
555.17	27948.34
555.33	28224.52
555.50	28011.53
555.67	27857.06
555.83	27718.96
556.00	28112.17
556.16	28423.47
556.33	28418.78
556.50	27948.34
556.66	28334.53
556.83	27871.10
556.99	28276.01
557.16	28669.22
557.32	28423.47
557.49	28301.76
557.65	28088.77
557.82	28187.07
557.98	28072.39
558.15	28386.02
558.32	28498.36
558.48	28240.90
558.65	28556.88
558.81	28837.74
558.98	28226.86
559.14	28521.77
559.31	28493.68
559.47	28390.70
559.64	28503.04
559.80	28474.96
559.97	28711.35
560.13	28374.31
560.30	28622.41
560.46	28694.97
560.63	28741.78
560.79	28306.44
560.96	28790.93
561.12	28713.69
561.29	28479.64
561.45	28641.14
561.61	28563.90
561.78	28577.94
561.94	28884.55
562.11	29207.55
562.27	28694.97
562.44	28910.30
562.60	28528.79
562.77	28648.16
562.93	28788.59
563.10	28835.40
563.26	28416.44
563.42	29090.52
563.59	28985.19
563.75	29226.27
563.92	29483.73
564.08	29064.77
564.24	28940.72
564.41	28322.82
564.57	28545.17
564.74	28636.45
564.90	28795.61
565.07	29074.13
565.23	29036.69
565.39	29472.03
565.56	29317.55
565.72	28781.57
565.88	29172.44
566.05	28652.84
566.21	29020.30
566.38	29195.84
566.54	29034.35
566.70	28856.46
566.87	29392.45
567.03	29069.45
567.19	29558.63
567.36	29287.12
567.52	29329.25
567.68	29132.65
567.85	29193.50
568.01	29488.41
568.17	29020.30
568.34	29170.10
568.50	29343.30
568.66	29097.54
568.83	29366.70
568.99	29165.42
569.15	29013.28
569.32	29535.22
569.48	28966.47
569.64	29195.84
569.81	29340.96
569.97	29043.71
570.13	29146.69
570.30	29226.27
570.46	29237.97
570.62	29118.60
570.78	29158.39
570.95	29319.89
571.11	29333.93
571.27	29017.96
571.43	29223.93
571.60	29003.92
571.76	29282.44
571.92	29448.62
572.09	29586.71
572.25	29743.53
572.41	29371.38
572.57	29350.32
572.74	29675.65
572.90	29661.61
573.06	29392.45
573.22	29649.91
573.38	29235.63
573.55	29228.61
573.71	29355.00
573.87	29418.19
574.03	29301.17
574.20	29340.96
574.36	29385.43
574.52	29472.03
574.68	29586.71
574.84	29387.77
575.01	29631.18
575.17	29572.67
575.33	29654.59
575.49	29017.96
575.65	29549.26
575.82	29605.44
575.98	29371.38
576.14	29507.13
576.30	29582.03
576.46	29296.49
576.62	29511.81
576.79	29460.32
576.95	29418.19
577.11	29397.13
577.27	29734.17
577.43	29656.93
577.59	29703.74
577.75	29806.72
577.92	29343.30
578.08	29546.92
578.24	29434.58
578.40	29535.22
578.56	29575.01
578.72	29738.85
578.88	29701.40
579.04	30036.09
579.21	29397.13
579.37	29956.52
579.53	29883.96
579.69	29500.11
579.85	29677.99
580.01	29441.60
580.17	29483.73
580.33	29565.65
580.49	29530.54
580.65	29626.50
580.82	29624.16
580.98	29462.66
581.14	29244.99
581.30	29589.05
581.46	29621.82
581.62	29806.72
581.78	29535.22
581.94	29745.87
582.10	29420.53
582.26	29472.03
582.42	29607.78
582.58	29553.94
582.74	29949.50
582.90	29907.37
583.06	29900.34
583.22	29687.36
583.38	29593.73
583.54	29579.69
583.70	29680.33
583.86	29830.13
584.02	29621.82
584.18	30043.12
584.34	30031.41
584.50	29867.58
584.66	29865.24
584.82	29497.77
584.98	29785.66
585.14	29422.87
585.30	29577.35
585.46	29502.45
585.62	29420.53
585.78	29855.87
585.94	29989.28
586.10	29720.12
586.26	29902.68
586.42	29802.04
586.58	29771.61
586.74	29553.94
586.90	29317.55
587.06	29537.56
587.22	29816.08
587.38	29560.97
587.54	29586.71
587.70	30141.42
587.86	29797.36
588.02	29867.58
588.18	30118.01
588.34	30122.69
588.49	30101.63
588.65	29518.84
588.81	29514.16
588.97	30230.36
589.13	29605.44
589.29	30087.59
589.45	29565.65
589.61	29895.66
589.77	30195.25
589.93	30267.81
590.08	29802.04
590.24	30366.11
590.40	30384.83
590.56	30286.53
590.72	30071.20
590.88	30110.99
591.04	29741.19
591.20	30047.80
591.35	30309.94
591.51	30829.54
591.67	30382.49
591.83	30438.67
591.99	30040.78
