SpectraSuite Data File
++++++++++++++++++++++++++++++++++++
Date: Fri Oct 18 13:58:40 GMT-05:00 2013
User: bianchi
Dark Spectrum Present: No
Reference Spectrum Present: No
Number of Sampled Component Spectra: 1
Spectrometers: USB2+H05261
Integration Time (usec): 50000 (USB2+H05261)
Spectra Averaged: 1 (USB2+H05261)
Boxcar Smoothing: 0 (USB2+H05261)
Correct for Electrical Dark: No (USB2+H05261)
Strobe/Lamp Enabled: No (USB2+H05261)
Correct for Detector Non-linearity: No (USB2+H05261)
Correct for Stray Light: No (USB2+H05261)
Number of Pixels in Processed Spectrum: 2048
>>>>>Begin Processed Spectral Data<<<<<
365.73	0.00
365.92	0.00
366.12	0.00
366.32	0.00
366.52	0.00
366.72	0.00
366.91	0.00
367.11	0.00
367.31	0.00
367.51	0.00
367.70	0.00
367.90	0.00
368.10	0.00
368.30	0.00
368.49	0.00
368.69	0.00
368.89	0.00
369.09	0.00
369.28	0.00
369.48	0.00
369.68	0.00
369.87	0.00
370.07	0.00
370.27	0.00
370.47	0.00
370.66	121.71
370.86	135.75
371.06	175.54
371.25	163.84
371.45	58.51
371.65	208.31
371.84	100.64
372.04	154.48
372.24	133.41
372.44	168.52
372.63	250.44
372.83	271.50
373.03	191.92
373.22	236.39
373.42	210.65
373.62	250.44
373.81	287.89
374.01	229.37
374.21	339.38
374.40	245.76
374.60	259.80
374.79	234.05
374.99	271.50
375.19	276.18
375.38	301.93
375.58	273.84
375.78	294.91
375.97	278.52
376.17	299.59
376.37	229.37
376.56	255.12
376.76	241.08
376.95	259.80
377.15	283.20
377.35	194.26
377.54	334.70
377.74	262.14
377.93	252.78
378.13	327.68
378.33	259.80
378.52	266.82
378.72	292.57
378.91	255.12
379.11	332.36
379.31	327.68
379.50	299.59
379.70	271.50
379.89	332.36
380.09	322.99
380.28	283.20
380.48	264.48
380.68	243.42
380.87	285.55
381.07	325.33
381.26	308.95
381.46	318.31
381.65	318.31
381.85	283.20
382.04	257.46
382.24	330.02
382.43	346.40
382.63	393.21
382.83	376.83
383.02	416.62
383.22	346.40
383.41	388.53
383.61	339.38
383.80	334.70
384.00	428.32
384.19	327.68
384.39	297.25
384.58	344.06
384.78	414.27
384.97	372.15
385.17	435.34
385.36	397.89
385.56	421.30
385.75	374.49
385.95	393.21
386.14	425.98
386.34	393.21
386.53	360.44
386.72	360.44
386.92	362.78
387.11	402.57
387.31	470.45
387.50	376.83
387.70	414.27
387.89	444.70
388.09	423.64
388.28	500.87
388.48	444.70
388.67	402.57
388.86	423.64
389.06	479.81
389.25	447.04
389.45	507.90
389.64	367.46
389.84	435.34
390.03	468.11
390.22	479.81
390.42	409.59
390.61	477.47
390.81	491.51
391.00	465.77
391.19	482.15
391.39	454.06
391.58	472.79
391.78	517.26
391.97	554.71
392.16	561.73
392.36	573.43
392.55	538.32
392.75	531.30
392.94	524.28
393.13	578.11
393.33	545.34
393.52	566.41
393.71	470.45
393.91	531.30
394.10	550.03
394.29	540.66
394.49	603.86
394.68	561.73
394.88	620.24
395.07	648.33
395.26	573.43
395.46	610.88
395.65	685.78
395.84	589.82
396.04	559.39
396.23	650.67
396.42	617.90
396.62	704.50
396.81	706.84
397.00	711.52
397.19	624.92
397.39	631.94
397.58	692.80
397.77	641.31
397.97	669.39
398.16	695.14
398.35	746.63
398.55	706.84
398.74	695.14
398.93	725.57
399.12	746.63
399.32	627.26
399.51	692.80
399.70	784.08
399.90	692.80
400.09	816.85
400.28	833.23
400.47	788.76
400.67	763.01
400.86	793.44
401.05	763.01
401.24	755.99
401.44	812.17
401.63	926.85
401.82	868.34
402.01	781.74
402.21	681.10
402.40	819.19
402.59	793.44
402.78	844.93
402.97	933.87
403.17	807.48
403.36	889.40
403.55	826.21
403.74	830.89
403.93	957.28
404.13	947.92
404.32	922.17
404.51	830.89
404.70	877.70
404.89	924.51
405.09	894.08
405.28	891.74
405.47	858.98
405.66	973.66
405.85	908.13
406.05	858.98
406.24	915.15
406.43	1039.20
406.62	1050.90
406.81	1018.13
407.00	980.68
407.20	999.41
407.39	978.34
407.58	1071.97
407.77	1109.41
407.96	1043.88
408.15	1057.92
408.34	1067.28
408.54	1123.46
408.73	1090.69
408.92	1142.18
409.11	1184.31
409.30	1146.86
409.49	1078.99
409.68	1116.44
409.87	1165.59
410.07	1158.57
410.26	1172.61
410.45	1226.44
410.64	1188.99
410.83	1338.79
411.02	1210.06
411.21	1174.95
411.40	1268.57
411.59	1350.49
411.78	1308.36
411.98	1296.66
412.17	1299.00
412.36	1282.61
412.55	1263.89
412.74	1352.83
412.93	1359.85
413.12	1327.08
413.31	1380.92
413.50	1317.72
413.69	1306.02
413.88	1331.76
414.07	1479.22
414.26	1390.28
414.45	1514.33
414.64	1416.02
414.83	1451.13
415.02	1511.99
415.22	1488.58
415.41	1528.37
415.60	1474.54
415.79	1589.22
415.98	1645.40
416.17	1638.38
416.36	1619.65
416.55	1614.97
416.74	1682.85
416.93	1645.40
417.12	1687.53
417.31	1640.72
417.50	1572.84
417.69	1732.00
417.88	1692.21
418.07	1769.44
418.26	1715.61
418.45	1699.23
418.64	1792.85
418.83	1790.51
419.02	1743.70
419.21	1846.68
419.39	1717.95
419.58	1778.81
419.77	1860.73
419.96	1771.79
420.15	1870.09
420.34	1947.33
420.53	1856.04
420.72	1872.43
420.91	1909.88
421.10	1900.52
421.29	1940.30
421.48	1842.00
421.67	2057.33
421.86	1942.64
422.05	1907.54
422.24	1973.07
422.43	2008.18
422.61	2010.52
422.80	2010.52
422.99	2148.61
423.18	2005.84
423.37	2040.95
423.56	2057.33
423.75	2005.84
423.94	1935.62
424.13	1874.77
424.32	1937.96
424.50	2125.21
424.69	2106.48
424.88	1984.77
425.07	1937.96
425.26	1952.01
425.45	1916.90
425.64	2076.06
425.83	2026.90
426.01	2001.16
426.20	1970.73
426.39	2029.24
426.58	2036.27
426.77	2129.89
426.96	2066.69
427.15	1980.09
427.33	2101.80
427.52	2153.29
427.71	2221.17
427.90	2078.40
428.09	2125.21
428.28	2249.25
428.46	2019.88
428.65	2115.84
428.84	2127.55
429.03	2307.77
429.22	2090.10
429.40	2083.08
429.59	2165.00
429.78	2174.36
429.97	2118.18
430.16	2193.08
430.34	2186.06
430.53	2352.24
430.72	2258.62
430.91	2331.17
431.10	2310.11
431.28	2338.20
431.47	2387.35
431.66	2452.88
431.85	2314.79
432.03	2392.03
432.22	2354.58
432.41	2331.17
432.60	2476.29
432.79	2548.84
432.97	2401.39
433.16	2565.23
433.35	2457.56
433.54	2525.44
433.72	2560.55
433.91	2473.95
434.10	2443.52
434.28	2574.59
434.47	2562.89
434.66	2607.36
434.85	2574.59
435.03	2609.70
435.22	2609.70
435.41	2600.34
435.59	2558.21
435.78	2637.78
435.97	2647.15
436.16	2597.99
436.34	2586.29
436.53	2679.91
436.72	2761.83
436.90	2698.64
437.09	2815.66
437.28	2600.34
437.46	2708.00
437.65	2729.06
437.84	2848.43
438.02	2647.15
438.21	2846.09
438.40	2670.55
438.58	2970.14
438.77	2944.39
438.96	2747.79
439.14	2918.65
439.33	2988.86
439.52	2951.42
439.70	2911.63
439.89	2995.89
440.08	3035.67
440.26	3026.31
440.45	3052.06
440.63	3061.42
440.82	3089.51
441.01	3204.19
441.19	3073.12
441.38	3251.00
441.57	3108.23
441.75	3180.79
441.94	3276.75
442.12	3185.47
442.31	3307.18
442.50	3255.69
442.68	3194.83
442.87	3351.65
443.05	3262.71
443.24	3330.58
443.43	3414.84
443.61	3351.65
443.80	3501.44
443.98	3323.56
444.17	3330.58
444.35	3330.58
444.54	3538.89
444.73	3241.64
444.91	3447.61
445.10	3449.95
445.28	3454.63
445.47	3372.71
445.65	3424.20
445.84	3466.33
446.02	3403.14
446.21	3503.78
446.39	3543.57
446.58	3428.88
446.77	3574.00
446.95	3529.53
447.14	3438.25
447.32	3538.89
447.51	3440.59
447.69	3574.00
447.88	3531.87
448.06	3461.65
448.25	3515.48
448.43	3548.25
448.62	3506.12
448.80	3618.47
448.99	3440.59
449.17	3632.51
449.36	3527.19
449.54	3618.47
449.73	3592.72
449.91	3566.98
450.10	3698.05
450.28	3754.22
450.46	3681.66
450.65	3735.50
450.83	3723.79
451.02	3702.73
451.20	3744.86
451.39	3763.58
451.57	3707.41
451.76	3669.96
451.94	3836.14
452.13	3782.31
452.31	3768.26
452.49	3826.78
452.68	4007.00
452.86	3878.27
453.05	3857.20
453.23	3941.46
453.42	3810.39
453.60	3857.20
453.78	3829.12
453.97	3889.97
454.15	3801.03
454.34	3852.52
454.52	3969.55
454.70	4016.36
454.89	3983.59
455.07	4032.74
455.26	4175.52
455.44	4152.11
455.62	3875.93
455.81	4086.58
455.99	4044.45
456.17	4273.82
456.36	4053.81
456.54	4194.24
456.73	4173.18
456.91	4170.83
457.09	4322.97
457.28	4294.88
457.46	4163.81
457.64	4299.56
457.83	4201.26
458.01	4297.22
458.19	4362.76
458.38	4353.40
458.56	4416.59
458.74	4252.75
458.93	4421.27
459.11	4269.14
459.29	4477.44
459.48	4477.44
459.66	4542.98
459.84	4482.13
460.03	4580.43
460.21	4477.44
460.39	4603.83
460.57	4531.28
460.76	4606.17
460.94	4507.87
461.12	4521.92
461.31	4636.60
461.49	4725.54
461.67	4681.07
461.85	4755.97
462.04	4753.63
462.22	4669.37
462.40	4652.98
462.59	4744.27
462.77	4746.61
462.95	4617.88
463.13	4737.24
463.32	4835.55
463.50	4767.67
463.68	4795.76
463.86	4847.25
464.05	4795.76
464.23	4777.03
464.41	4924.49
464.59	4727.88
464.78	4947.89
464.96	4933.85
465.14	4912.78
465.32	4975.98
465.50	5067.26
465.69	4933.85
465.87	4973.64
466.05	5064.92
466.23	5050.88
466.41	4917.47
466.60	5181.95
466.78	4938.53
466.96	5004.07
467.14	4931.51
467.32	5203.01
467.51	5036.83
467.69	4884.70
467.87	5018.11
468.05	5282.59
468.23	5013.43
468.41	5102.37
468.60	5081.30
468.78	5240.46
468.96	5069.60
469.14	5261.52
469.32	5219.39
469.50	5081.30
469.69	5212.37
469.87	5282.59
470.05	5575.16
470.23	5441.75
470.41	5357.49
470.59	5465.15
470.77	5469.83
470.95	5448.77
471.14	5453.45
471.32	5533.03
471.50	5750.70
471.68	5467.49
471.86	5479.19
472.04	5703.89
472.22	5774.10
472.40	5809.21
472.58	5682.82
472.77	5636.01
472.95	5797.51
473.13	5900.49
473.31	5720.27
473.49	5912.19
473.67	5933.26
473.85	5944.96
474.03	5970.71
474.21	5877.09
474.39	5954.32
474.57	6176.67
474.75	5959.00
474.93	6038.58
475.12	6050.28
475.30	6195.40
475.48	6150.93
475.66	6214.12
475.84	6244.55
476.02	6410.73
476.20	6307.74
476.38	6490.31
476.56	6438.81
476.74	6359.24
476.92	6628.40
477.10	6581.59
477.28	6604.99
477.46	6546.48
477.64	6679.89
477.82	6700.95
478.00	6883.52
478.18	6846.07
478.36	6988.84
478.54	6995.86
478.72	6918.62
478.90	7192.47
479.08	7208.85
479.26	7234.60
479.44	7164.38
479.62	7309.49
479.80	7424.18
479.98	7375.03
480.16	7552.91
480.34	7679.30
480.52	7487.37
480.70	7583.34
480.88	7566.95
481.06	7651.21
481.24	7616.10
481.41	7742.49
481.59	7932.08
481.77	7793.98
481.95	8056.12
482.13	8173.15
482.31	7929.74
482.49	8109.96
482.67	8327.63
482.85	8210.60
483.03	8290.18
483.21	8461.04
483.39	8671.68
483.57	8664.66
483.74	8587.43
483.92	8484.44
484.10	8561.68
484.28	8975.95
484.46	9036.81
484.64	9050.85
484.82	8933.82
485.00	8912.76
485.18	9350.44
485.35	9266.18
485.53	9259.16
485.71	9308.31
485.89	9406.61
486.07	9397.25
486.25	9537.68
486.43	9645.35
486.61	9624.28
486.78	9872.38
486.96	9837.27
487.14	9935.57
487.32	9947.28
487.50	9923.87
487.68	10038.56
487.85	10319.42
488.03	10249.21
488.21	10541.77
488.39	10607.31
488.57	10546.45
488.75	10719.65
488.92	11000.52
489.10	10794.55
489.28	11014.56
489.46	11173.72
489.64	10878.81
489.81	11159.67
489.99	11410.11
490.17	11243.93
490.35	11403.09
490.53	11435.86
490.70	11569.27
490.88	11555.22
491.06	11625.44
491.24	11721.40
491.41	11723.74
491.59	11831.41
491.77	12123.98
491.95	12056.10
492.13	12241.00
492.30	12414.20
492.48	12070.14
492.66	12205.89
492.84	12154.40
493.01	12315.90
493.19	12318.24
493.37	12475.06
493.54	12674.00
493.72	12840.18
493.90	12856.56
494.08	12812.09
494.25	13062.53
494.43	13020.40
494.61	13242.75
494.79	13369.14
494.96	13200.62
495.14	13252.11
495.32	13502.55
495.49	13427.65
495.67	13500.21
495.85	13680.43
496.02	13657.03
496.20	13635.96
496.38	13692.13
496.55	13734.26
496.73	14321.74
496.91	14118.11
497.09	14230.46
497.26	14099.39
497.44	14136.84
497.62	14478.55
497.79	14721.97
497.97	14368.55
498.14	14565.15
498.32	14469.19
498.50	14895.17
498.67	14998.15
498.85	14635.37
499.03	15122.20
499.20	15110.50
499.38	14803.89
499.56	15075.39
499.73	15115.18
499.91	15208.80
500.08	15272.00
500.26	15077.73
500.44	15414.77
500.61	15489.67
500.79	15475.62
500.97	15424.13
501.14	15602.01
501.32	15807.98
501.49	15550.52
501.67	15744.78
501.84	15971.82
502.02	15950.75
502.20	15824.36
502.37	16229.27
502.55	16259.70
502.72	16308.85
502.90	16287.79
503.07	16208.21
503.25	16177.78
503.43	16400.13
503.60	16418.86
503.78	16379.07
503.95	16695.04
504.13	16325.24
504.30	16727.81
504.48	16603.76
504.65	16737.17
504.83	16821.43
505.01	16889.31
505.18	17116.34
505.36	17071.87
505.53	16872.92
505.71	16854.20
505.88	17109.32
506.06	16980.59
506.23	17317.62
506.41	17408.90
506.58	17397.20
506.76	17619.55
506.93	17369.12
507.11	17163.15
507.28	17542.32
507.46	17425.29
507.63	17717.86
507.81	17984.68
507.98	17551.68
508.16	17954.25
508.33	17722.54
508.50	18031.49
508.68	17853.61
508.85	18010.42
509.03	18087.66
509.20	17884.03
509.38	18127.45
509.55	18099.36
509.73	18370.86
509.90	18396.61
510.08	18256.18
510.25	18265.54
510.42	18506.62
510.60	18452.78
510.77	18429.38
510.95	18506.62
511.12	18637.69
511.30	18604.92
511.47	18633.00
511.64	18916.21
511.82	18848.33
511.99	18944.30
512.17	18754.71
512.34	18902.17
512.51	18998.13
512.69	19159.63
512.86	18902.17
513.04	19417.08
513.21	19414.74
513.38	18923.23
513.56	19288.35
513.73	19344.53
513.90	19225.16
514.08	19286.01
514.25	19618.37
514.43	19353.89
514.60	19922.64
514.77	19487.30
514.95	19761.14
515.12	19793.91
515.29	19480.28
515.47	19896.89
515.64	20004.56
515.81	20034.99
515.99	20191.80
516.16	20147.33
516.33	20458.62
516.51	20257.34
516.68	20161.37
516.85	20137.97
517.03	20137.97
517.20	20568.63
517.37	20599.05
517.54	20563.95
517.72	20374.36
517.89	20599.05
518.06	20294.79
518.24	20411.81
518.41	20776.94
518.58	20673.95
518.75	20802.68
518.93	20786.30
519.10	20996.95
519.27	20982.90
519.45	20802.68
519.62	20760.55
519.79	20812.04
519.96	20966.52
520.14	21193.55
520.31	20840.13
520.48	21359.73
520.65	21139.72
520.83	21305.90
521.00	21448.67
521.17	21158.44
521.34	21415.90
521.52	21305.90
521.69	21640.59
521.86	21502.50
522.03	21369.09
522.20	21759.96
522.38	21736.56
522.55	21844.22
522.72	21830.18
522.89	21654.64
523.07	21937.84
523.24	21792.73
523.41	22127.42
523.58	21710.81
523.75	22160.19
523.92	21907.41
524.10	21640.59
524.27	22153.17
524.44	22522.98
524.61	22375.52
524.78	22483.19
524.96	22235.09
525.13	22288.92
525.30	22328.71
525.47	22204.66
525.64	22574.47
525.81	22635.32
525.98	22457.44
526.16	22651.70
526.33	22752.35
526.50	22574.47
526.67	22890.44
526.84	22609.58
527.01	22927.89
527.18	22897.46
527.36	22967.68
527.53	23065.98
527.70	23257.90
527.87	23248.54
528.04	23138.54
528.21	23021.51
528.38	22920.87
528.55	23005.13
528.72	23035.55
528.89	23281.31
529.07	23262.58
529.24	23040.23
529.41	23440.47
529.58	23222.80
529.75	23241.52
529.92	23332.80
530.09	23337.48
530.26	23936.66
530.43	23456.85
530.60	23529.41
530.77	23431.10
530.94	23686.22
531.11	23931.98
531.28	23819.63
531.46	23981.13
531.63	23758.78
531.80	23847.72
531.97	23836.02
532.14	23941.34
532.31	23501.32
532.48	24142.63
532.65	24379.02
532.82	23726.01
532.99	23840.70
533.16	23826.65
533.33	24180.07
533.50	24418.81
533.67	24587.33
533.84	24428.17
534.01	24194.12
534.18	23857.08
534.35	24521.79
534.52	24334.55
534.69	24526.47
534.86	24699.67
535.03	24395.40
535.20	24482.00
535.37	24889.26
535.54	24524.13
535.71	24805.00
535.88	24762.87
536.05	24549.88
536.22	24821.38
536.38	24893.94
536.55	25015.65
536.72	24870.53
536.89	24716.06
537.06	24683.29
537.23	24966.49
537.40	25095.22
537.57	25046.07
537.74	24870.53
537.91	25219.27
538.08	25200.55
538.25	25329.28
538.42	24950.11
538.59	25240.34
538.75	24891.60
538.92	24889.26
539.09	25516.52
539.26	25530.56
539.43	25312.89
539.60	25769.30
539.77	25371.41
539.94	25394.81
540.11	25336.30
540.28	25546.95
540.44	25635.89
540.61	25504.82
540.78	25556.31
540.95	25458.01
541.12	25469.71
541.29	25434.60
541.46	25551.63
541.62	25773.98
541.79	25205.23
541.96	25450.99
542.13	25467.37
542.30	26139.10
542.47	25902.71
542.63	25986.97
542.80	25881.64
542.97	26277.19
543.14	26115.70
543.31	25956.54
543.48	26228.04
543.64	26616.57
543.81	26148.46
543.98	26637.64
544.15	26038.46
544.32	26478.48
544.48	26967.65
544.65	26370.82
544.82	26307.62
544.99	26082.93
545.16	26408.26
545.32	26043.14
545.49	26441.03
545.66	27122.13
545.83	26782.75
546.00	27089.36
546.16	26764.03
546.33	26181.23
546.50	26412.95
546.67	26405.92
546.83	26614.23
547.00	26778.07
547.17	26852.97
547.34	26864.67
547.50	26829.56
547.67	27328.10
547.84	26698.49
548.00	26986.38
548.17	27213.41
548.34	26749.98
548.51	26932.54
548.67	27098.72
548.84	27285.97
549.01	27087.02
549.18	27044.89
549.34	27026.17
549.51	27049.57
549.68	27054.25
549.84	27016.80
550.01	27358.52
550.18	26998.08
550.34	27295.33
550.51	27814.93
550.68	27281.28
550.84	27211.07
551.01	27704.92
551.18	27384.27
551.34	27201.71
551.51	27363.20
551.68	27360.86
551.84	27498.95
552.01	27288.31
552.18	27850.03
552.34	27489.59
552.51	27304.69
552.68	27573.85
552.84	27754.07
553.01	27592.58
553.18	27459.16
553.34	27770.46
553.51	27566.83
553.67	27976.42
553.84	28226.86
554.01	28039.62
554.17	27873.44
554.34	28048.98
554.51	27604.28
554.67	27817.27
554.84	27793.86
555.00	27931.95
555.17	28020.89
555.33	28381.34
555.50	27775.14
555.67	28032.60
555.83	28091.11
556.00	27744.71
556.16	28334.53
556.33	28166.01
556.50	28013.87
556.66	28496.02
556.83	28421.13
556.99	28126.22
557.16	28091.11
557.32	28360.27
557.49	28411.76
557.65	27913.23
557.82	28091.11
557.98	28236.22
558.15	28189.41
558.32	28510.07
558.48	27908.55
558.65	28465.60
558.81	28184.73
558.98	28393.04
559.14	28290.06
559.31	28236.22
559.47	28418.78
559.64	28521.77
559.80	28776.89
559.97	28425.81
560.13	28304.10
560.30	28524.11
560.46	28767.52
560.63	28547.51
560.79	28847.10
560.96	28694.97
561.12	28580.28
561.29	28744.12
561.45	28481.98
561.61	28884.55
561.78	28744.12
561.94	28720.71
562.11	28954.77
562.27	28938.38
562.44	29039.03
562.60	28701.99
562.77	28788.59
562.93	29144.35
563.10	28800.29
563.26	28720.71
563.42	28849.44
563.59	28769.86
563.75	28931.36
563.92	28980.51
564.08	28938.38
564.24	28875.19
564.41	28891.57
564.57	28751.14
564.74	28758.16
564.90	29123.29
565.07	28863.49
565.23	28821.36
565.39	28924.34
565.56	29207.55
565.72	29006.26
565.88	28929.02
566.05	28826.04
566.21	29071.79
566.38	28957.11
566.54	29209.89
566.70	29001.58
566.87	29350.32
567.03	29362.02
567.19	29214.57
567.36	29020.30
567.52	28957.11
567.68	29373.72
567.85	29275.42
568.01	28666.88
568.17	29252.02
568.34	29638.20
568.50	29329.25
568.66	29610.12
568.83	29401.81
568.99	29261.38
569.15	29139.67
569.32	29034.35
569.48	28807.31
569.64	29544.58
569.81	29575.01
569.97	29158.39
570.13	29134.99
570.30	29092.86
570.46	29509.47
570.62	29340.96
570.78	29181.80
570.95	29249.67
571.11	29455.64
571.27	28985.19
571.43	29439.26
571.60	29149.03
571.76	29057.75
571.92	29340.96
572.09	29282.44
572.25	29411.17
572.41	29497.77
572.57	29434.58
572.74	29692.04
572.90	29659.27
573.06	28634.11
573.22	29362.02
573.38	29567.99
573.55	29472.03
573.71	29603.10
573.87	29755.23
574.03	29553.94
574.20	29219.25
574.36	29415.85
574.52	29692.04
574.68	29427.56
574.84	29345.64
575.01	29556.28
575.17	29500.11
575.33	29425.22
575.49	29331.59
575.65	29811.40
575.82	29907.37
575.98	29605.44
576.14	29825.45
576.30	29570.33
576.46	29497.77
576.62	29600.76
576.79	29689.70
576.95	29343.30
577.11	29565.65
577.27	29514.16
577.43	29488.41
577.59	29244.99
577.75	29919.07
577.92	29429.90
578.08	29701.40
578.24	29558.63
578.40	29326.91
578.56	29682.67
578.72	29642.88
578.88	29542.24
579.04	29823.11
579.21	29617.14
579.37	29715.44
579.53	29633.52
579.69	29450.96
579.85	29727.14
580.01	29551.60
580.17	29483.73
580.33	29373.72
580.49	29729.48
580.65	29898.00
580.82	29579.69
580.98	29886.30
581.14	29832.47
581.30	30146.10
581.46	29600.76
581.62	29706.08
581.78	29715.44
581.94	29708.42
582.10	29530.54
582.26	29839.49
582.42	29181.80
582.58	29968.22
582.74	29560.97
582.90	29731.83
583.06	29886.30
583.22	29689.70
583.38	29785.66
583.54	29928.43
583.70	29659.27
583.86	29539.90
584.02	29427.56
584.18	29649.91
584.34	29715.44
584.50	29898.00
584.66	29862.90
584.82	29741.19
584.98	29717.78
585.14	29596.07
585.30	29607.78
585.46	29577.35
585.62	29509.47
585.78	29553.94
585.94	29881.62
586.10	29876.94
586.26	29802.04
586.42	30005.67
586.58	30096.95
586.74	29713.10
586.90	29661.61
587.06	29624.16
587.22	29820.77
587.38	29986.94
587.54	29986.94
587.70	30118.01
587.86	29652.25
588.02	29834.81
588.18	30401.22
588.34	30059.50
588.49	29846.51
588.65	29909.71
588.81	30129.72
588.97	29895.66
589.13	29607.78
589.29	29589.05
589.45	29993.97
589.61	30125.04
589.77	30045.46
589.93	29820.77
590.08	30323.98
590.24	29909.71
590.40	30195.25
590.56	30312.28
590.72	29727.14
590.88	29535.22
591.04	29923.75
591.20	30185.89
591.35	30061.84
591.51	30396.54
591.67	30476.12
591.83	30356.75
591.99	30183.55
