SpectraSuite Data File
++++++++++++++++++++++++++++++++++++
Date: Fri Oct 18 13:57:59 GMT-05:00 2013
User: bianchi
Dark Spectrum Present: No
Reference Spectrum Present: No
Number of Sampled Component Spectra: 1
Spectrometers: USB2+H05261
Integration Time (usec): 50000 (USB2+H05261)
Spectra Averaged: 1 (USB2+H05261)
Boxcar Smoothing: 0 (USB2+H05261)
Correct for Electrical Dark: No (USB2+H05261)
Strobe/Lamp Enabled: No (USB2+H05261)
Correct for Detector Non-linearity: No (USB2+H05261)
Correct for Stray Light: No (USB2+H05261)
Number of Pixels in Processed Spectrum: 2048
>>>>>Begin Processed Spectral Data<<<<<
365.73	0.00
365.92	0.00
366.12	0.00
366.32	0.00
366.52	0.00
366.72	0.00
366.91	0.00
367.11	0.00
367.31	0.00
367.51	0.00
367.70	0.00
367.90	0.00
368.10	0.00
368.30	0.00
368.49	0.00
368.69	0.00
368.89	0.00
369.09	0.00
369.28	0.00
369.48	0.00
369.68	0.00
369.87	4.68
370.07	0.00
370.27	0.00
370.47	0.00
370.66	126.39
370.86	121.71
371.06	93.62
371.25	212.99
371.45	131.07
371.65	161.50
371.84	138.09
372.04	91.28
372.24	201.29
372.44	276.18
372.63	180.22
372.83	241.08
373.03	107.66
373.22	168.52
373.42	149.79
373.62	252.78
373.81	191.92
374.01	152.13
374.21	241.08
374.40	227.03
374.60	250.44
374.79	301.93
374.99	238.73
375.19	306.61
375.38	205.97
375.58	290.23
375.78	203.63
375.97	287.89
376.17	264.48
376.37	212.99
376.56	222.35
376.76	194.26
376.95	264.48
377.15	301.93
377.35	271.50
377.54	255.12
377.74	290.23
377.93	187.24
378.13	290.23
378.33	304.27
378.52	313.63
378.72	362.78
378.91	238.73
379.11	332.36
379.31	339.38
379.50	318.31
379.70	332.36
379.89	360.44
380.09	290.23
380.28	360.44
380.48	360.44
380.68	273.84
380.87	362.78
381.07	369.80
381.26	306.61
381.46	327.68
381.65	318.31
381.85	297.25
382.04	304.27
382.24	250.44
382.43	334.70
382.63	339.38
382.83	428.32
383.02	322.99
383.22	409.59
383.41	327.68
383.61	332.36
383.80	402.57
384.00	322.99
384.19	304.27
384.39	409.59
384.58	358.10
384.78	367.46
384.97	355.76
385.17	393.21
385.36	383.85
385.56	351.08
385.75	402.57
385.95	447.04
386.14	447.04
386.34	477.47
386.53	351.08
386.72	442.36
386.92	461.09
387.11	433.00
387.31	430.66
387.50	334.70
387.70	344.06
387.89	447.04
388.09	505.56
388.28	337.04
388.48	416.62
388.67	482.15
388.86	500.87
389.06	500.87
389.25	430.66
389.45	545.34
389.64	491.51
389.84	519.60
390.03	571.09
390.22	463.43
390.42	454.06
390.61	550.03
390.81	505.56
391.00	463.43
391.19	561.73
391.39	486.83
391.58	514.92
391.78	503.22
391.97	571.09
392.16	517.26
392.36	559.39
392.55	559.39
392.75	507.90
392.94	648.33
393.13	528.96
393.33	533.64
393.52	585.13
393.71	550.03
393.91	674.07
394.10	674.07
394.29	550.03
394.49	554.71
394.68	594.50
394.88	685.78
395.07	596.84
395.26	606.20
395.46	608.54
395.65	648.33
395.84	660.03
396.04	660.03
396.23	704.50
396.42	648.33
396.62	660.03
396.81	716.20
397.00	655.35
397.19	622.58
397.39	594.50
397.58	706.84
397.77	725.57
397.97	660.03
398.16	678.76
398.35	746.63
398.55	638.97
398.74	732.59
398.93	706.84
399.12	695.14
399.32	744.29
399.51	784.08
399.70	774.72
399.90	739.61
400.09	760.67
400.28	753.65
400.47	821.53
400.67	734.93
400.86	854.30
401.05	751.31
401.24	772.38
401.44	805.14
401.63	830.89
401.82	819.19
402.01	821.53
402.21	821.53
402.40	784.08
402.59	866.00
402.78	858.98
402.97	901.11
403.17	809.83
403.36	929.19
403.55	898.77
403.74	915.15
403.93	919.83
404.13	947.92
404.32	1076.65
404.51	903.45
404.70	1001.75
404.89	992.39
405.09	1060.26
405.28	931.53
405.47	1001.75
405.66	980.68
405.85	1008.77
406.05	961.96
406.24	961.96
406.43	976.00
406.62	987.71
406.81	1081.33
407.00	1057.92
407.20	987.71
407.39	997.07
407.58	1123.46
407.77	1067.28
407.96	1078.99
408.15	1121.12
408.34	1069.62
408.54	1020.47
408.73	1118.78
408.92	1156.22
409.11	1184.31
409.30	1121.12
409.49	1137.50
409.68	1153.88
409.87	1172.61
410.07	1165.59
410.26	1153.88
410.45	1226.44
410.64	1242.82
410.83	1357.51
411.02	1233.46
411.21	1383.26
411.40	1172.61
411.59	1242.82
411.78	1299.00
411.98	1273.25
412.17	1331.76
412.36	1254.53
412.55	1453.47
412.74	1423.05
412.93	1324.74
413.12	1394.96
413.31	1310.70
413.50	1273.25
413.69	1301.34
413.88	1409.00
414.07	1455.81
414.26	1483.90
414.45	1387.94
414.64	1502.62
414.83	1586.88
415.02	1493.26
415.22	1591.56
415.41	1603.27
415.60	1565.82
415.79	1528.37
415.98	1591.56
416.17	1633.69
416.36	1734.34
416.55	1755.40
416.74	1657.10
416.93	1586.88
417.12	1685.19
417.31	1818.60
417.50	1675.82
417.69	1785.83
417.88	1781.15
418.07	1802.21
418.26	1710.93
418.45	1820.94
418.64	1827.96
418.83	2003.50
419.02	1832.64
419.21	1809.23
419.39	1900.52
419.58	1865.41
419.77	1830.30
419.96	1853.70
420.15	1863.07
420.34	1823.28
420.53	1928.60
420.72	1902.86
420.91	1984.77
421.10	1928.60
421.29	2010.52
421.48	1940.30
421.67	2012.86
421.86	1989.46
422.05	1940.30
422.24	1963.71
422.43	1987.11
422.61	1949.67
422.80	2052.65
422.99	1886.47
423.18	2050.31
423.37	2113.50
423.56	2099.46
423.75	2012.86
423.94	2101.80
424.13	1823.28
424.32	1937.96
424.50	2076.06
424.69	2165.00
424.88	2125.21
425.07	2092.44
425.26	2040.95
425.45	2104.14
425.64	2047.97
425.83	2115.84
426.01	2090.10
426.20	2153.29
426.39	2134.57
426.58	2080.74
426.77	2155.63
426.96	2141.59
427.15	2108.82
427.33	2195.42
427.52	2267.98
427.71	2148.61
427.90	2200.10
428.09	2284.36
428.28	2326.49
428.46	2228.19
428.65	2314.79
428.84	2244.57
429.03	2237.55
429.22	2230.53
429.40	2286.70
429.59	2368.62
429.78	2111.16
429.97	2197.76
430.16	2284.36
430.34	2368.62
430.53	2518.42
430.72	2345.22
430.91	2354.58
431.10	2324.15
431.28	2356.92
431.47	2363.94
431.66	2530.12
431.85	2448.20
432.03	2415.43
432.22	2408.41
432.41	2523.10
432.60	2581.61
432.79	2562.89
432.97	2583.95
433.16	2511.39
433.35	2555.86
433.54	2497.35
433.72	2532.46
433.91	2633.10
434.10	2597.99
434.28	2581.61
434.47	2686.94
434.66	2609.70
434.85	2743.11
435.03	2633.10
435.22	2569.91
435.41	2590.97
435.59	2745.45
435.78	2789.92
435.97	2722.04
436.16	2654.17
436.34	2684.59
436.53	2771.19
436.72	2822.69
436.90	2621.40
437.09	2796.94
437.28	2724.38
437.46	2782.90
437.65	2932.69
437.84	2719.70
438.02	2789.92
438.21	2747.79
438.40	2766.51
438.58	2834.39
438.77	2932.69
438.96	2937.37
439.14	2932.69
439.33	2960.78
439.52	2974.82
439.70	3026.31
439.89	3084.83
440.08	3094.19
440.26	3110.57
440.45	3105.89
440.63	3197.17
440.82	3164.40
441.01	3019.29
441.19	3222.92
441.38	3145.68
441.57	3311.86
441.75	3246.32
441.94	3304.84
442.12	3382.07
442.31	3468.67
442.50	3365.69
442.68	3267.39
442.87	3318.88
443.05	3386.76
443.24	3419.52
443.43	3339.94
443.61	3361.01
443.80	3602.08
443.98	3396.12
444.17	3496.76
444.35	3452.29
444.54	3459.31
444.73	3428.88
444.91	3499.10
445.10	3531.87
445.28	3375.05
445.47	3534.21
445.65	3478.04
445.84	3550.59
446.02	3550.59
446.21	3618.47
446.39	3557.61
446.58	3604.42
446.77	3602.08
446.95	3552.93
447.14	3550.59
447.32	3566.98
447.51	3550.59
447.69	3405.48
447.88	3702.73
448.06	3449.95
448.25	3496.76
448.43	3700.39
448.62	3672.30
448.80	3620.81
448.99	3712.09
449.17	3700.39
449.36	3648.90
449.54	3702.73
449.73	3798.69
449.91	3833.80
450.10	3705.07
450.28	3796.35
450.46	3803.37
450.65	3698.05
450.83	3873.59
451.02	3756.56
451.20	3878.27
451.39	3967.21
451.57	3815.07
451.76	3747.20
451.94	3817.41
452.13	3920.40
452.31	3861.88
452.49	3927.42
452.68	3946.14
452.86	3969.55
453.05	3978.91
453.23	4086.58
453.42	3845.50
453.60	4028.06
453.78	3918.06
453.97	3941.46
454.15	4044.45
454.34	4074.87
454.52	4184.88
454.70	4007.00
454.89	4131.05
455.07	4081.89
455.26	4105.30
455.44	4208.28
455.62	4039.76
455.81	4152.11
455.99	4168.49
456.17	4255.09
456.36	4182.54
456.54	4231.69
456.73	4444.68
456.91	4421.27
457.09	4407.23
457.28	4365.10
457.46	4355.74
457.64	4533.62
457.83	4458.72
458.01	4358.08
458.19	4486.81
458.38	4542.98
458.56	4573.41
458.74	4482.13
458.93	4585.11
459.11	4442.34
459.29	4379.14
459.48	4486.81
459.66	4554.68
459.84	4582.77
460.03	4648.30
460.21	4594.47
460.39	4730.22
460.57	4638.94
460.76	4737.24
460.94	4727.88
461.12	4774.69
461.31	4702.14
461.49	4664.69
461.67	4739.58
461.85	4875.34
462.04	4620.22
462.22	5067.26
462.40	4819.16
462.59	4664.69
462.77	4943.21
462.95	4826.18
463.13	4858.95
463.32	4922.15
463.50	5004.07
463.68	4929.17
463.86	4990.02
464.05	4788.74
464.23	4837.89
464.41	4966.62
464.59	4772.35
464.78	4980.66
464.96	5050.88
465.14	4933.85
465.32	5142.16
465.50	5186.63
465.69	4980.66
465.87	4938.53
466.05	4933.85
466.23	5149.18
466.41	5041.51
466.60	5111.73
466.78	4985.34
466.96	5226.42
467.14	5036.83
467.32	5205.35
467.51	5476.85
467.69	5036.83
467.87	5331.74
468.05	5221.74
468.23	5104.71
468.41	5097.69
468.60	5261.52
468.78	5291.95
468.96	5359.83
469.14	5416.00
469.32	5378.55
469.50	5259.18
469.69	5385.57
469.87	5626.65
470.05	5554.09
470.23	5542.39
470.41	5413.66
470.59	5589.20
470.77	5472.17
470.95	5614.95
471.14	5832.62
471.32	5558.77
471.50	5558.77
471.68	5757.72
471.86	5755.38
472.04	5818.57
472.22	5870.06
472.40	5741.33
472.58	5748.36
472.77	5947.30
472.95	5830.27
473.13	5966.03
473.31	5982.41
473.49	6012.84
473.67	5944.96
473.85	6033.90
474.03	6038.58
474.21	6141.57
474.39	6162.63
474.57	6069.01
474.75	6298.38
474.93	6249.23
475.12	6363.92
475.30	6101.78
475.48	6249.23
475.66	6403.71
475.84	6527.75
476.02	6530.09
476.20	6450.52
476.38	6710.32
476.56	6525.41
476.74	6520.73
476.92	6703.29
477.10	6668.19
477.28	6881.18
477.46	6745.42
477.64	6729.04
477.82	6876.49
478.00	7108.21
478.18	7129.27
478.36	6986.50
478.54	7171.40
478.72	7077.78
478.90	7140.97
479.08	7309.49
479.26	7318.86
479.44	7272.04
479.62	7517.80
479.80	7571.63
479.98	7508.44
480.16	7714.41
480.34	7660.57
480.52	7887.61
480.70	7698.02
480.88	7566.95
481.06	7920.37
481.24	7878.24
481.41	7992.93
481.59	8004.63
481.77	8299.54
481.95	8067.83
482.13	8308.90
482.31	8226.98
482.49	8388.48
482.67	8465.72
482.85	8538.27
483.03	8732.54
483.21	8624.87
483.39	8702.11
483.57	8791.05
483.74	8858.93
483.92	8830.84
484.10	8982.98
484.28	9294.27
484.46	9352.78
484.64	9404.27
484.82	9097.66
485.00	9186.60
485.18	9483.85
485.35	9563.43
485.53	9600.88
485.71	9521.30
485.89	9858.34
486.07	9792.80
486.25	9963.66
486.43	9916.85
486.61	9774.08
486.78	10008.13
486.96	10066.64
487.14	10368.57
487.32	10368.57
487.50	10356.87
487.68	10551.14
487.85	10640.08
488.03	10757.10
488.21	10637.73
488.39	10768.80
488.57	11028.60
488.75	10815.62
488.92	11112.86
489.10	11332.87
489.28	11243.93
489.46	11447.56
489.64	11218.19
489.81	11620.76
489.99	11391.39
490.17	11473.31
490.35	11735.45
490.53	11683.95
490.70	11899.28
490.88	11880.56
491.06	12119.29
491.24	11983.54
491.41	11955.46
491.59	12067.80
491.77	12542.93
491.95	12339.30
492.13	12407.18
492.30	12615.49
492.48	12542.93
492.66	12683.36
492.84	12580.38
493.01	12657.62
493.19	12898.69
493.37	12898.69
493.54	12896.35
493.72	13378.50
493.90	13163.17
494.08	13282.54
494.25	13312.97
494.43	13221.69
494.61	13729.58
494.79	13446.38
494.96	13668.73
495.14	13682.77
495.32	13860.65
495.49	13930.87
495.67	13944.91
495.85	14066.62
496.02	13973.00
496.20	14092.37
496.38	14462.17
496.55	14267.91
496.73	14413.02
496.91	14445.79
497.09	14513.66
497.26	14743.03
497.44	14647.07
497.62	14593.24
497.79	14911.55
497.97	14843.68
498.14	15105.82
498.32	14913.89
498.50	15197.10
498.67	15225.18
498.85	15393.70
499.03	15447.54
499.20	15323.49
499.38	15360.94
499.56	15367.96
499.73	15552.86
499.91	15555.20
500.08	15332.85
500.26	15466.26
500.44	15602.01
500.61	15833.72
500.79	15922.66
500.97	16102.89
501.14	16070.12
501.32	16140.33
501.49	16081.82
501.67	16105.23
501.84	16046.71
502.02	16416.52
502.20	16236.30
502.37	16318.22
502.55	16421.20
502.72	16615.46
502.90	16524.18
503.07	16690.36
503.25	16755.90
503.43	16657.59
503.60	16903.35
503.78	16809.73
503.95	16776.96
504.13	17050.80
504.30	16940.80
504.48	16814.41
504.65	16835.47
504.83	17041.44
505.01	17294.22
505.18	17224.00
505.36	17425.29
505.53	17348.05
505.71	17441.67
505.88	17366.78
506.06	17432.31
506.23	17942.55
506.41	17886.37
506.58	17881.69
506.76	17933.18
506.93	17710.83
507.11	17605.51
507.28	17853.61
507.46	17811.48
507.63	18239.79
507.81	18040.85
507.98	17912.12
508.16	17778.71
508.33	17902.76
508.50	18235.11
508.68	18197.67
508.85	18387.25
509.03	18572.15
509.20	18403.63
509.38	18455.12
509.55	18848.33
509.73	18562.79
509.90	18792.16
510.08	18808.54
510.25	19075.37
510.42	18862.38
510.60	19073.03
510.77	19080.05
510.95	19152.60
511.12	19117.50
511.30	18923.23
511.47	19187.71
511.64	19051.96
511.82	19419.42
511.99	19445.17
512.17	19550.49
512.34	19396.02
512.51	19613.69
512.69	19609.01
512.86	19260.27
513.04	19784.55
513.21	19711.99
513.38	19810.29
513.56	19765.82
513.73	19819.66
513.90	19894.55
514.08	20013.92
514.25	19763.48
514.43	20247.97
514.60	20421.17
514.77	20554.58
514.95	20482.03
515.12	20325.21
515.29	20467.98
515.47	20465.64
515.64	20809.70
515.81	20790.98
515.99	20793.32
516.16	20704.38
516.33	20816.72
516.51	20783.96
516.68	20542.88
516.85	20718.42
517.03	20924.39
517.20	20987.58
517.37	21039.08
517.54	21212.28
517.72	20924.39
517.89	21083.55
518.06	20898.64
518.24	21039.08
518.41	21029.71
518.58	21179.51
518.75	21018.01
518.93	21364.41
519.10	21549.31
519.27	21446.33
519.45	21095.25
519.62	21682.72
519.79	21483.78
519.96	21458.03
520.14	21802.09
520.31	21500.16
520.48	22265.52
520.65	21841.88
520.83	22031.46
521.00	21774.00
521.17	22008.06
521.34	21563.36
521.52	22111.04
521.69	21912.10
521.86	22101.68
522.03	21947.20
522.20	22288.92
522.38	22403.61
522.55	22228.07
522.72	22321.69
522.89	22464.46
523.07	22628.30
523.24	22434.03
523.41	22700.86
523.58	22281.90
523.75	22658.73
523.92	22581.49
524.10	22560.42
524.27	22787.46
524.44	22611.92
524.61	22869.37
524.78	22965.34
524.96	22852.99
525.13	22892.78
525.30	22895.12
525.47	23164.28
525.64	23283.65
525.81	23159.60
525.98	23477.91
526.16	23330.46
526.33	23131.51
526.50	23625.37
526.67	22869.37
526.84	23154.92
527.01	23459.19
527.18	23475.57
527.36	23482.59
527.53	23749.42
527.70	23875.80
527.87	23826.65
528.04	23489.62
528.21	23702.61
528.38	23831.33
528.55	24011.56
528.72	23447.49
528.89	23662.82
529.07	24084.11
529.24	23747.08
529.41	24243.27
529.58	23955.38
529.75	24201.14
529.92	23887.51
530.09	24084.11
530.26	24123.90
530.43	24292.42
530.60	24386.04
530.77	24119.22
530.94	24301.78
531.11	23861.76
531.28	24093.47
531.46	24168.37
531.63	24690.31
531.80	24353.27
531.97	24779.25
532.14	24435.19
532.31	24102.84
532.48	24510.09
532.65	24718.40
532.82	24411.79
532.99	24386.04
533.16	24725.42
533.33	24788.61
533.50	24996.92
533.67	25209.91
533.84	24603.71
534.01	24732.44
534.18	24807.34
534.35	25247.36
534.52	25333.96
534.69	24673.93
534.86	25303.53
535.03	25050.75
535.20	25137.35
535.37	25429.92
535.54	25514.18
535.71	25034.37
535.88	25568.01
536.05	25436.94
536.22	25291.83
536.38	25263.74
536.55	25486.09
536.72	25483.75
536.89	25294.17
537.06	25186.50
537.23	25846.54
537.40	25504.82
537.57	25666.31
537.74	25525.88
537.91	26057.18
538.08	25703.76
538.25	25748.23
538.42	25785.68
538.59	26101.65
538.75	25745.89
538.92	26073.57
539.09	25834.83
539.26	25947.18
539.43	25914.41
539.60	25970.58
539.77	26129.74
539.94	26099.31
540.11	25912.07
540.28	26019.74
540.44	26223.36
540.61	26263.15
540.78	26361.45
540.95	26422.31
541.12	26052.50
541.29	26300.60
541.46	26026.76
541.62	26387.20
541.79	26923.18
541.96	25795.04
542.13	26281.88
542.30	26532.31
542.47	26529.97
542.63	26614.23
542.80	26867.01
542.97	26925.52
543.14	26874.03
543.31	26726.58
543.48	26693.81
543.64	27278.94
543.81	26717.22
543.98	27166.60
544.15	27248.52
544.32	26951.27
544.48	26969.99
544.65	27103.40
544.82	27274.26
544.99	26998.08
545.16	27211.07
545.32	27082.34
545.49	27637.05
545.66	27679.18
545.83	27604.28
546.00	27812.59
546.16	27292.99
546.33	26920.84
546.50	27225.11
546.67	27737.69
546.83	27119.79
547.00	27693.22
547.17	27461.51
547.34	27257.88
547.50	27538.74
547.67	27618.32
547.84	27608.96
548.00	27681.52
548.17	27929.61
548.34	27882.80
548.51	28105.15
548.67	27852.38
548.84	27463.85
549.01	27711.94
549.18	27653.43
549.34	28112.17
549.51	27948.34
549.68	27482.57
549.84	27899.19
550.01	27936.63
550.18	27747.05
550.34	27997.49
550.51	28098.13
550.68	28247.93
550.84	28011.53
551.01	28425.81
551.18	27641.73
551.34	27971.74
551.51	27875.78
551.68	28390.70
551.84	28151.96
552.01	28416.44
552.18	28130.90
552.34	28191.75
552.51	28484.32
552.68	28386.02
552.84	28397.72
553.01	28627.09
553.18	28528.79
553.34	28734.76
553.51	28470.28
553.67	28524.11
553.84	28507.72
554.01	28783.91
554.17	28622.41
554.34	28350.91
554.51	28748.80
554.67	28727.74
554.84	28919.66
555.00	28222.18
555.17	28648.16
555.33	28903.28
555.50	29029.66
555.67	28954.77
555.83	28599.01
556.00	28811.99
556.16	29090.52
556.33	28863.49
556.50	28854.12
556.66	29249.67
556.83	29076.48
556.99	29429.90
557.16	29434.58
557.32	29125.63
557.49	29310.53
557.65	29160.73
557.82	29067.11
557.98	28748.80
558.15	29270.74
558.32	29387.77
558.48	29017.96
558.65	29514.16
558.81	29315.21
558.98	29139.67
559.14	29008.60
559.31	28929.02
559.47	28863.49
559.64	29432.24
559.80	29219.25
559.97	29207.55
560.13	29275.42
560.30	29343.30
560.46	29355.00
560.63	29399.47
560.79	29685.01
560.96	29383.09
561.12	29261.38
561.29	29633.52
561.45	29670.97
561.61	29736.51
561.78	29689.70
561.94	29549.26
562.11	29544.58
562.27	29935.45
562.44	29352.66
562.60	29680.33
562.77	29816.08
562.93	29556.28
563.10	30129.72
563.26	29357.34
563.42	29755.23
563.59	29596.07
563.75	29565.65
563.92	29603.10
564.08	29425.22
564.24	29986.94
564.41	29567.99
564.57	29715.44
564.74	29621.82
564.90	29780.98
565.07	29928.43
565.23	30073.54
565.39	29795.02
565.56	30225.68
565.72	29921.41
565.88	30075.88
566.05	29879.28
566.21	29841.83
566.38	29940.13
566.54	30267.81
566.70	30047.80
566.87	30054.82
567.03	29989.28
567.19	30305.26
567.36	30057.16
567.52	29930.77
567.68	29970.56
567.85	29989.28
568.01	29802.04
568.17	29907.37
568.34	29708.42
568.50	30101.63
568.66	30185.89
568.83	30176.53
568.99	30078.22
569.15	29968.22
569.32	29963.54
569.48	30068.86
569.64	30096.95
569.81	30284.19
569.97	29926.09
570.13	30068.86
570.30	30059.50
570.46	30157.80
570.62	30466.75
570.78	29584.37
570.95	30307.60
571.11	30525.27
571.27	29710.76
571.43	30057.16
571.60	30087.59
571.76	30008.01
571.92	30426.96
572.09	30441.01
572.25	30239.72
572.41	30277.17
572.57	30307.60
572.74	30167.16
572.90	29933.11
573.06	30354.41
573.22	30291.21
573.38	30405.90
573.55	30267.81
573.71	30377.81
573.87	30464.41
574.03	29979.92
574.20	30682.08
574.36	30331.00
574.52	30787.41
574.68	30417.60
574.84	30232.70
575.01	30267.81
575.17	30286.53
575.33	30333.34
575.49	30457.39
575.65	30696.13
575.82	30656.34
575.98	30082.91
576.14	30576.76
576.30	30546.33
576.46	30541.65
576.62	30260.79
576.79	30125.04
576.95	30288.87
577.11	30759.32
577.27	30345.05
577.43	30759.32
577.59	30485.48
577.75	30342.70
577.92	30274.83
578.08	30323.98
578.24	30347.39
578.40	29788.00
578.56	30291.21
578.72	30270.15
578.88	30408.24
579.04	31016.78
579.21	30522.93
579.37	30169.51
579.53	30541.65
579.69	30071.20
579.85	30106.31
580.01	30206.95
580.17	30218.66
580.33	30630.59
580.49	30773.36
580.65	30754.64
580.82	30387.18
580.98	30316.96
581.14	30637.61
581.30	30651.66
581.46	30403.56
581.62	30654.00
581.78	30228.02
581.94	30703.15
582.10	30047.80
582.26	31000.40
582.42	30689.10
582.58	30672.72
582.74	30508.88
582.90	30508.88
583.06	30808.47
583.22	30721.87
583.38	30574.42
583.54	30642.29
583.70	30501.86
583.86	30244.40
584.02	30485.48
584.18	30691.44
584.34	30965.29
584.50	30934.86
584.66	30611.87
584.82	30508.88
584.98	30787.41
585.14	30256.11
585.30	30511.22
585.46	30204.61
585.62	30637.61
585.78	30782.73
585.94	29961.20
586.10	30693.79
586.26	30859.96
586.42	30548.67
586.58	30668.04
586.74	30771.02
586.90	30532.29
587.06	30712.51
587.22	30661.02
587.38	30499.52
587.54	30883.37
587.70	30675.06
587.86	30911.46
588.02	30962.95
588.18	31346.79
588.34	30934.86
588.49	30920.82
588.65	30740.60
588.81	30810.81
588.97	30677.40
589.13	30899.75
589.29	30813.15
589.45	30857.62
589.61	31241.47
589.77	30904.43
589.93	30969.97
590.08	31302.32
590.24	31206.36
590.40	30778.04
590.56	31318.71
590.72	30590.80
590.88	30487.82
591.04	30611.87
591.20	31236.79
591.35	30962.95
591.51	31473.18
591.67	31075.29
591.83	31260.20
591.99	31475.52
