SpectraSuite Data File
++++++++++++++++++++++++++++++++++++
Date: Fri Oct 18 13:58:02 GMT-05:00 2013
User: bianchi
Dark Spectrum Present: No
Reference Spectrum Present: No
Number of Sampled Component Spectra: 1
Spectrometers: USB2+H05261
Integration Time (usec): 50000 (USB2+H05261)
Spectra Averaged: 1 (USB2+H05261)
Boxcar Smoothing: 0 (USB2+H05261)
Correct for Electrical Dark: No (USB2+H05261)
Strobe/Lamp Enabled: No (USB2+H05261)
Correct for Detector Non-linearity: No (USB2+H05261)
Correct for Stray Light: No (USB2+H05261)
Number of Pixels in Processed Spectrum: 2048
>>>>>Begin Processed Spectral Data<<<<<
365.73	0.00
365.92	0.00
366.12	0.00
366.32	0.00
366.52	0.00
366.72	0.00
366.91	0.00
367.11	0.00
367.31	0.00
367.51	0.00
367.70	0.00
367.90	0.00
368.10	0.00
368.30	0.00
368.49	0.00
368.69	0.00
368.89	0.00
369.09	0.00
369.28	0.00
369.48	0.00
369.68	0.00
369.87	0.00
370.07	0.00
370.27	0.00
370.47	0.00
370.66	32.77
370.86	105.32
371.06	147.45
371.25	208.31
371.45	187.24
371.65	98.30
371.84	79.58
372.04	203.63
372.24	170.86
372.44	187.24
372.63	140.43
372.83	147.45
373.03	168.52
373.22	241.08
373.42	217.67
373.62	224.69
373.81	205.97
374.01	180.22
374.21	318.31
374.40	276.18
374.60	262.14
374.79	224.69
374.99	243.42
375.19	248.10
375.38	273.84
375.58	292.57
375.78	234.05
375.97	241.08
376.17	290.23
376.37	264.48
376.56	299.59
376.76	229.37
376.95	175.54
377.15	311.29
377.35	269.16
377.54	248.10
377.74	355.76
377.93	250.44
378.13	280.86
378.33	262.14
378.52	236.39
378.72	297.25
378.91	294.91
379.11	287.89
379.31	273.84
379.50	313.63
379.70	294.91
379.89	351.08
380.09	297.25
380.28	299.59
380.48	332.36
380.68	330.02
380.87	285.55
381.07	353.42
381.26	287.89
381.46	322.99
381.65	301.93
381.85	353.42
382.04	271.50
382.24	390.87
382.43	259.80
382.63	372.15
382.83	395.55
383.02	374.49
383.22	358.10
383.41	433.00
383.61	341.72
383.80	397.89
384.00	353.42
384.19	306.61
384.39	381.51
384.58	421.30
384.78	449.38
384.97	444.70
385.17	351.08
385.36	372.15
385.56	355.76
385.75	463.43
385.95	383.85
386.14	348.74
386.34	390.87
386.53	414.27
386.72	442.36
386.92	435.34
387.11	395.55
387.31	402.57
387.50	400.23
387.70	416.62
387.89	463.43
388.09	465.77
388.28	486.83
388.48	479.81
388.67	496.19
388.86	533.64
389.06	454.06
389.25	503.22
389.45	461.09
389.64	397.89
389.84	517.26
390.03	409.59
390.22	543.00
390.42	465.77
390.61	554.71
390.81	507.90
391.00	528.96
391.19	589.82
391.39	533.64
391.58	538.32
391.78	531.30
391.97	477.47
392.16	543.00
392.36	531.30
392.55	510.24
392.75	465.77
392.94	423.64
393.13	582.79
393.33	650.67
393.52	552.37
393.71	545.34
393.91	538.32
394.10	664.71
394.29	559.39
394.49	603.86
394.68	559.39
394.88	587.47
395.07	613.22
395.26	547.69
395.46	564.07
395.65	638.97
395.84	657.69
396.04	713.86
396.23	643.65
396.42	704.50
396.62	704.50
396.81	627.26
397.00	713.86
397.19	704.50
397.39	671.73
397.58	671.73
397.77	734.93
397.97	580.45
398.16	674.07
398.35	688.12
398.55	622.58
398.74	826.21
398.93	791.10
399.12	676.41
399.32	695.14
399.51	795.78
399.70	784.08
399.90	727.91
400.09	767.70
400.28	814.51
400.47	791.10
400.67	718.54
400.86	770.04
401.05	842.59
401.24	828.55
401.44	821.53
401.63	837.91
401.82	795.78
402.01	812.17
402.21	791.10
402.40	833.23
402.59	854.30
402.78	830.89
402.97	854.30
403.17	835.57
403.36	826.21
403.55	823.87
403.74	903.45
403.93	891.74
404.13	856.64
404.32	901.11
404.51	814.51
404.70	830.89
404.89	990.05
405.09	959.62
405.28	1027.50
405.47	858.98
405.66	929.19
405.85	978.34
406.05	1015.79
406.24	983.02
406.43	976.00
406.62	1057.92
406.81	1048.56
407.00	987.71
407.20	1008.77
407.39	1015.79
407.58	976.00
407.77	1076.65
407.96	1071.97
408.15	1050.90
408.34	1086.01
408.54	1090.69
408.73	1095.37
408.92	1139.84
409.11	1114.10
409.30	1116.44
409.49	1135.16
409.68	1170.27
409.87	1170.27
410.07	1268.57
410.26	1107.07
410.45	1240.48
410.64	1291.98
410.83	1224.10
411.02	1095.37
411.21	1207.72
411.40	1231.12
411.59	1275.59
411.78	1294.32
411.98	1254.53
412.17	1306.02
412.36	1203.04
412.55	1301.34
412.74	1373.89
412.93	1320.06
413.12	1277.93
413.31	1411.34
413.50	1287.29
413.69	1413.68
413.88	1404.32
414.07	1441.77
414.26	1465.18
414.45	1362.19
414.64	1420.71
414.83	1558.80
415.02	1511.99
415.22	1465.18
415.41	1563.48
415.60	1493.26
415.79	1486.24
415.98	1600.93
416.17	1612.63
416.36	1605.61
416.55	1570.50
416.74	1621.99
416.93	1572.84
417.12	1596.25
417.31	1743.70
417.50	1811.57
417.69	1717.95
417.88	1757.74
418.07	1708.59
418.26	1888.81
418.45	1823.28
418.64	1914.56
418.83	1891.15
419.02	1818.60
419.21	1816.26
419.39	1902.86
419.58	1839.66
419.77	1710.93
419.96	1952.01
420.15	1914.56
420.34	1909.88
420.53	1898.17
420.72	1872.43
420.91	1975.41
421.10	1949.67
421.29	1968.39
421.48	1949.67
421.67	2040.95
421.86	2031.58
422.05	2050.31
422.24	1977.75
422.43	2054.99
422.61	1994.14
422.80	2090.10
422.99	2043.29
423.18	2031.58
423.37	2099.46
423.56	2099.46
423.75	2052.65
423.94	1963.71
424.13	1860.73
424.32	1902.86
424.50	2003.50
424.69	2172.02
424.88	2150.95
425.07	2076.06
425.26	2200.10
425.45	2038.61
425.64	1930.94
425.83	2012.86
426.01	2094.78
426.20	2097.12
426.39	2218.83
426.58	2127.55
426.77	2127.55
426.96	2162.66
427.15	2099.46
427.33	2080.74
427.52	2111.16
427.71	2155.63
427.90	2300.75
428.09	2111.16
428.28	2277.34
428.46	2249.25
428.65	2265.64
428.84	2368.62
429.03	2279.68
429.22	2162.66
429.40	2272.66
429.59	2275.00
429.78	2127.55
429.97	2132.23
430.16	2256.28
430.34	2275.00
430.53	2377.98
430.72	2317.13
430.91	2300.75
431.10	2408.41
431.28	2499.69
431.47	2363.94
431.66	2513.74
431.85	2373.30
432.03	2469.27
432.22	2509.05
432.41	2445.86
432.60	2572.25
432.79	2396.71
432.97	2518.42
433.16	2532.46
433.35	2551.18
433.54	2455.22
433.72	2452.88
433.91	2569.91
434.10	2523.10
434.28	2555.86
434.47	2640.12
434.66	2590.97
434.85	2626.08
435.03	2569.91
435.22	2677.57
435.41	2813.32
435.59	2607.36
435.78	2693.96
435.97	2752.47
436.16	2719.70
436.34	2670.55
436.53	2605.02
436.72	2743.11
436.90	2724.38
437.09	2815.66
437.28	2654.17
437.46	2843.75
437.65	2675.23
437.84	2738.43
438.02	2846.09
438.21	2738.43
438.40	2773.53
438.58	2906.95
438.77	2897.58
438.96	2839.07
439.14	2808.64
439.33	3012.27
439.52	2967.80
439.70	3112.91
439.89	3084.83
440.08	3080.14
440.26	3108.23
440.45	3054.40
440.63	3035.67
440.82	3082.49
441.01	3215.90
441.19	3052.06
441.38	3222.92
441.57	3272.07
441.75	3222.92
441.94	3265.05
442.12	3295.47
442.31	3274.41
442.50	3389.10
442.68	3386.76
442.87	3309.52
443.05	3323.56
443.24	3426.54
443.43	3478.04
443.61	3428.88
443.80	3515.48
443.98	3480.38
444.17	3218.24
444.35	3321.22
444.54	3482.72
444.73	3431.23
444.91	3478.04
445.10	3473.36
445.28	3405.48
445.47	3428.88
445.65	3403.14
445.84	3517.83
446.02	3552.93
446.21	3473.36
446.39	3494.42
446.58	3517.83
446.77	3536.55
446.95	3361.01
447.14	3604.42
447.32	3508.46
447.51	3517.83
447.69	3445.27
447.88	3599.74
448.06	3501.44
448.25	3543.57
448.43	3613.79
448.62	3693.37
448.80	3583.36
448.99	3627.83
449.17	3700.39
449.36	3609.11
449.54	3777.62
449.73	3625.49
449.91	3824.44
450.10	3632.51
450.28	3770.60
450.46	3808.05
450.65	3815.07
450.83	3768.26
451.02	3714.43
451.20	3988.27
451.39	3784.65
451.57	3772.94
451.76	3805.71
451.94	3894.65
452.13	4056.15
452.31	3789.33
452.49	3878.27
452.68	4021.04
452.86	3864.22
453.05	3913.38
453.23	3955.51
453.42	3866.56
453.60	3932.10
453.78	3985.93
453.97	3922.74
454.15	3983.59
454.34	3981.25
454.52	4121.68
454.70	3988.27
454.89	4140.41
455.07	4222.33
455.26	4215.30
455.44	4184.88
455.62	4196.58
455.81	4095.94
455.99	4243.39
456.17	4023.38
456.36	4145.09
456.54	4311.27
456.73	4229.35
456.91	4479.79
457.09	4418.93
457.28	4559.36
457.46	4461.06
457.64	4353.40
457.83	4519.57
458.01	4332.33
458.19	4348.72
458.38	4435.32
458.56	4454.04
458.74	4393.19
458.93	4447.02
459.11	4538.30
459.29	4395.53
459.48	4575.75
459.66	4491.49
459.84	4636.60
460.03	4589.79
460.21	4713.84
460.39	4594.47
460.57	4578.09
460.76	4737.24
460.94	4507.87
461.12	4601.49
461.31	4732.56
461.49	4652.98
461.67	4704.48
461.85	4730.22
462.04	4788.74
462.22	4924.49
462.40	4884.70
462.59	4781.71
462.77	4800.44
462.95	4795.76
463.13	4873.00
463.32	4957.25
463.50	4908.10
463.68	5041.51
463.86	4901.08
464.05	4812.14
464.23	4947.89
464.41	4961.94
464.59	4950.23
464.78	5057.90
464.96	4915.12
465.14	4912.78
465.32	5104.71
465.50	5191.31
465.69	5104.71
465.87	5004.07
466.05	5006.41
466.23	5004.07
466.41	5034.49
466.60	5380.89
466.78	5093.01
466.96	5055.56
467.14	5029.81
467.32	5100.03
467.51	5142.16
467.69	5109.39
467.87	5153.86
468.05	5214.71
468.23	5139.82
468.41	5245.14
468.60	5298.97
468.78	5310.68
468.96	5322.38
469.14	5336.42
469.32	5343.44
469.50	5352.81
469.69	5528.35
469.87	5458.13
470.05	5624.31
470.23	5430.04
470.41	5376.21
470.59	5591.54
470.77	5577.50
470.95	5523.66
471.14	5547.07
471.32	5591.54
471.50	5528.35
471.68	5750.70
471.86	5692.18
472.04	5809.21
472.22	5781.12
472.40	5678.14
472.58	5792.83
472.77	5799.85
472.95	5797.51
473.13	5987.09
473.31	5895.81
473.49	6005.81
473.67	6045.60
473.85	5729.63
474.03	5928.58
474.21	6003.47
474.39	6080.71
474.57	6174.33
474.75	6235.19
474.93	6441.15
475.12	6204.76
475.30	6338.17
475.48	6286.68
475.66	6347.53
475.84	6438.81
476.02	6401.37
476.20	6471.58
476.38	6576.91
476.56	6665.85
476.74	6628.40
476.92	6548.82
477.10	6532.44
477.28	6827.34
477.46	6726.70
477.64	6719.68
477.82	6923.30
478.00	7049.69
478.18	6984.16
478.36	6977.14
478.54	7061.40
478.72	7129.27
478.90	7258.00
479.08	7155.02
479.26	7290.77
479.44	7276.73
479.62	7417.16
479.80	7424.18
479.98	7630.15
480.16	7590.36
480.34	7646.53
480.52	7665.25
480.70	7803.35
480.88	7597.38
481.06	8018.68
481.24	7922.71
481.41	7929.74
481.59	7896.97
481.77	8159.11
481.95	8023.36
482.13	8170.81
482.31	8243.37
482.49	8439.97
482.67	8442.31
482.85	8421.25
483.03	8645.94
483.21	8730.20
483.39	8814.46
483.57	8725.52
483.74	8751.26
483.92	8734.88
484.10	8814.46
484.28	9104.68
484.46	9167.88
484.64	9174.90
484.82	9008.72
485.00	9259.16
485.18	9376.19
485.35	9231.07
485.53	9537.68
485.71	9406.61
485.89	9895.78
486.07	9682.80
486.25	9612.58
486.43	9631.30
486.61	10083.03
486.78	10099.41
486.96	10094.73
487.14	10249.21
487.32	10335.81
487.50	10200.05
487.68	10265.59
487.85	10391.98
488.03	10527.73
488.21	10768.80
488.39	10693.91
488.57	10712.63
488.75	10771.15
488.92	10918.60
489.10	11157.33
489.28	10951.37
489.46	11316.49
489.64	11154.99
489.81	11335.21
489.99	11564.59
490.17	11520.12
490.35	11543.52
490.53	11623.10
490.70	11714.38
490.88	11707.36
491.06	12046.74
491.24	11815.02
491.41	11899.28
491.59	12182.49
491.77	11964.82
491.95	12414.20
492.13	12287.81
492.30	12554.63
492.48	12334.62
492.66	12365.05
492.84	12788.69
493.01	12720.81
493.19	12676.34
493.37	12929.12
493.54	13001.68
493.72	13048.49
493.90	12931.46
494.08	13125.72
494.25	12971.25
494.43	13275.52
494.61	13455.74
494.79	13476.80
494.96	13336.37
495.14	13579.79
495.32	13881.72
495.49	13731.92
495.67	13530.64
495.85	14150.88
496.02	14094.71
496.20	13994.06
496.38	14136.84
496.55	14401.32
496.73	14368.55
496.91	14157.90
497.09	14644.73
497.26	14588.56
497.44	14546.43
497.62	14497.28
497.79	14789.85
497.97	14782.82
498.14	14899.85
498.32	15222.84
498.50	15063.69
498.67	15105.82
498.85	15136.24
499.03	15407.75
499.20	15262.63
499.38	15473.28
499.56	15517.75
499.73	15389.02
499.91	15517.75
500.08	15632.44
500.26	15431.15
500.44	15557.54
500.61	15676.91
500.79	15880.53
500.97	15901.60
501.14	16023.31
501.32	16116.93
501.49	15901.60
501.67	16191.83
501.84	16311.19
502.02	16343.96
502.20	16334.60
502.37	16430.56
502.55	16367.37
502.72	16458.65
502.90	16259.70
503.07	16458.65
503.25	16449.28
503.43	16514.82
503.60	16769.94
503.78	16901.01
503.95	16751.21
504.13	16554.61
504.30	16833.13
504.48	16915.05
504.65	16886.97
504.83	17060.16
505.01	17392.52
505.18	17097.61
505.36	17413.59
505.53	17085.91
505.71	17191.23
505.88	17378.48
506.06	17261.45
506.23	17535.29
506.41	17488.48
506.58	17537.63
506.76	17392.52
506.93	17666.36
507.11	17523.59
507.28	17610.19
507.46	17579.76
507.63	17987.02
507.81	17846.58
507.98	18050.21
508.16	18008.08
508.33	18185.96
508.50	18127.45
508.68	18265.54
508.85	18441.08
509.03	18417.68
509.20	18534.70
509.38	18534.70
509.55	18682.16
509.73	18597.90
509.90	18539.38
510.08	18384.91
510.25	18738.33
510.42	18579.17
510.60	18771.10
510.77	19091.75
510.95	18948.98
511.12	18735.99
511.30	19023.87
511.47	18897.49
511.64	19295.38
511.82	19040.26
511.99	19414.74
512.17	19264.95
512.34	19424.11
512.51	19459.21
512.69	19655.82
512.86	19733.06
513.04	19548.15
513.21	19709.65
513.38	19763.48
513.56	19777.53
513.73	19456.87
513.90	20030.30
514.08	19637.09
514.25	19971.79
514.43	19854.76
514.60	20198.82
514.77	20187.12
514.95	20182.44
515.12	20006.90
515.29	20252.66
515.47	20259.68
515.64	20238.61
515.81	20180.10
515.99	20418.83
516.16	20601.40
516.33	20662.25
516.51	20641.18
516.68	20505.43
516.85	20318.19
517.03	20479.69
517.20	20695.02
517.37	20884.60
517.54	20819.07
517.72	20940.77
517.89	20966.52
518.06	20835.45
518.24	20760.55
518.41	20959.50
518.58	21195.89
518.75	21207.59
518.93	21287.17
519.10	21095.25
519.27	21125.68
519.45	21317.60
519.62	21076.52
519.79	21436.97
519.96	21362.07
520.14	21436.97
520.31	21785.71
520.48	21661.66
520.65	21575.06
520.83	21816.13
521.00	21788.05
521.17	21624.21
521.34	21869.97
521.52	21851.24
521.69	21940.18
521.86	21968.27
522.03	22160.19
522.20	22328.71
522.38	22122.74
522.55	22155.51
522.72	22031.46
522.89	22548.72
523.07	22721.92
523.24	22370.84
523.41	22338.07
523.58	22328.71
523.75	22511.27
523.92	22347.44
524.10	22370.84
524.27	22632.98
524.44	22614.26
524.61	23002.78
524.78	23037.89
524.96	22668.09
525.13	23152.58
525.30	23014.49
525.47	22843.63
525.64	23047.26
525.81	23136.20
525.98	22764.05
526.16	23246.20
526.33	23260.24
526.50	23330.46
526.67	22845.97
526.84	23365.57
527.01	23370.25
527.18	23049.60
527.36	23466.21
527.53	23468.55
527.70	23697.92
527.87	23683.88
528.04	23613.66
528.21	23517.70
528.38	23594.94
528.55	23704.95
528.72	23931.98
528.89	23803.25
529.07	23733.03
529.24	23625.37
529.41	23960.06
529.58	23859.42
529.75	23819.63
529.92	23709.63
530.09	23939.00
530.26	23749.42
530.43	24184.76
530.60	24243.27
530.77	23887.51
530.94	24025.60
531.11	23910.91
531.28	23974.11
531.46	24243.27
531.63	24037.30
531.80	24467.96
531.97	24540.52
532.14	24589.67
532.31	24292.42
532.48	24671.59
532.65	24460.94
532.82	24205.82
532.99	24496.05
533.16	24395.40
533.33	24744.14
533.50	24929.05
533.67	24641.16
533.84	24781.59
534.01	24746.48
534.18	24837.76
534.35	24872.87
534.52	24584.99
534.69	24954.79
534.86	25123.31
535.03	25010.96
535.20	25223.95
535.37	25029.69
535.54	25160.76
535.71	24985.22
535.88	25039.05
536.05	25348.00
536.22	25247.36
536.38	25289.49
536.55	25671.00
536.72	25296.51
536.89	25020.33
537.06	25668.66
537.23	25261.40
537.40	25223.95
537.57	25509.50
537.74	25736.53
537.91	25942.50
538.08	25415.88
538.25	25649.93
538.42	25668.66
538.59	25699.08
538.75	25575.03
538.92	25685.04
539.09	25455.67
539.26	25675.68
539.43	25511.84
539.60	26099.31
539.77	25905.05
539.94	25671.00
540.11	25940.16
540.28	26012.71
540.44	26122.72
540.61	26038.46
540.78	25851.22
540.95	25907.39
541.12	26188.25
541.29	26501.89
541.46	26274.85
541.62	25862.92
541.79	26300.60
541.96	25898.03
542.13	26300.60
542.30	26157.83
542.47	26443.37
542.63	26485.50
542.80	26328.69
542.97	26696.15
543.14	26794.45
543.31	26698.49
543.48	26525.29
543.64	27138.51
543.81	26799.13
543.98	26771.05
544.15	26904.46
544.32	27161.92
544.48	26707.85
544.65	26548.70
544.82	27178.30
544.99	26705.51
545.16	26785.09
545.32	26829.56
545.49	27112.77
545.66	27117.45
545.83	27571.51
546.00	27442.78
546.16	27225.11
546.33	27124.47
546.50	26789.77
546.67	27405.33
546.83	26668.06
547.00	27414.69
547.17	27517.68
547.34	27108.08
547.50	27524.70
547.67	27447.46
547.84	27496.61
548.00	27590.24
548.17	27276.60
548.34	27260.22
548.51	27955.36
548.67	27700.24
548.84	27800.88
549.01	27583.21
549.18	27484.91
549.34	27644.07
549.51	27674.49
549.68	27922.59
549.84	27433.42
550.01	27634.71
550.18	27587.89
550.34	27988.13
550.51	28013.87
550.68	28212.82
550.84	27665.13
551.01	28198.77
551.18	27564.49
551.34	27953.02
551.51	27594.92
551.68	28009.19
551.84	28346.23
552.01	27955.36
552.18	28170.69
552.34	28084.09
552.51	28545.17
552.68	27798.54
552.84	27988.13
553.01	28526.45
553.18	28308.78
553.34	28334.53
553.51	28264.31
553.67	28191.75
553.84	28936.04
554.01	28617.73
554.17	28353.25
554.34	28294.74
554.51	28999.24
554.67	28353.25
554.84	28409.42
555.00	28613.05
555.17	28673.90
555.33	28535.81
555.50	28465.60
555.67	28610.71
555.83	28325.16
556.00	28786.25
556.16	28741.78
556.33	28971.15
556.50	28889.23
556.66	28601.35
556.83	28606.03
556.99	28741.78
557.16	28627.09
557.32	28814.34
557.49	29001.58
557.65	28753.48
557.82	28980.51
557.98	28849.44
558.15	28599.01
558.32	28734.76
558.48	28833.06
558.65	29015.62
558.81	29158.39
558.98	29010.94
559.14	28678.58
559.31	29212.23
559.47	29357.34
559.64	29071.79
559.80	29156.05
559.97	29481.39
560.13	28994.56
560.30	29261.38
560.46	29125.63
560.63	29043.71
560.79	29528.20
560.96	29699.06
561.12	28936.04
561.29	29055.41
561.45	29446.28
561.61	29205.20
561.78	29598.41
561.94	29713.10
562.11	29429.90
562.27	29149.03
562.44	29404.15
562.60	29003.92
562.77	29277.76
562.93	29097.54
563.10	29486.07
563.26	29530.54
563.42	29539.90
563.59	29806.72
563.75	29544.58
563.92	29553.94
564.08	29457.98
564.24	29298.83
564.41	29347.98
564.57	29802.04
564.74	29221.59
564.90	29275.42
565.07	29687.36
565.23	29773.95
565.39	29401.81
565.56	29631.18
565.72	29289.46
565.88	29881.62
566.05	29385.43
566.21	29376.06
566.38	29598.41
566.54	29895.66
566.70	29996.31
566.87	30043.12
567.03	30019.71
567.19	30206.95
567.36	29788.00
567.52	29593.73
567.68	29930.77
567.85	29947.15
568.01	30033.75
568.17	29687.36
568.34	29965.88
568.50	29579.69
568.66	30015.03
568.83	30188.23
568.99	29890.98
569.15	30120.35
569.32	29542.24
569.48	30024.39
569.64	30038.44
569.81	30099.29
569.97	29893.32
570.13	29947.15
570.30	30242.06
570.46	30441.01
570.62	30096.95
570.78	29900.34
570.95	29626.50
571.11	29490.75
571.27	29617.14
571.43	29923.75
571.60	29813.74
571.76	29989.28
571.92	30078.22
572.09	30192.91
572.25	30064.18
572.41	29762.25
572.57	29954.18
572.74	30279.51
572.90	30031.41
573.06	30197.59
573.22	30087.59
573.38	29663.95
573.55	29886.30
573.71	30279.51
573.87	30225.68
574.03	29947.15
574.20	30031.41
574.36	29837.15
574.52	30305.26
574.68	30312.28
574.84	30223.34
575.01	30000.99
575.17	30225.68
575.33	30000.99
575.49	30160.14
575.65	30221.00
575.82	30485.48
575.98	30340.36
576.14	30120.35
576.30	30178.87
576.46	30096.95
576.62	29958.86
576.79	30223.34
576.95	30328.66
577.11	30244.40
577.27	30422.28
577.43	30319.30
577.59	30029.07
577.75	30096.95
577.92	30286.53
578.08	30366.11
578.24	30110.99
578.40	30017.37
578.56	30263.13
578.72	30471.43
578.88	30654.00
579.04	30419.94
579.21	30305.26
579.37	30141.42
579.53	30443.35
579.69	30370.79
579.85	30412.92
580.01	30232.70
580.17	30249.08
580.33	30352.07
580.49	30504.20
580.65	30363.77
580.82	30382.49
580.98	30263.13
581.14	30319.30
581.30	30448.03
581.46	29961.20
581.62	30174.19
581.78	30288.87
581.94	30637.61
582.10	30398.88
582.26	30328.66
582.42	30534.63
582.58	30286.53
582.74	30403.56
582.90	30649.32
583.06	30387.18
583.22	30637.61
583.38	30429.30
583.54	30206.95
583.70	30309.94
583.86	30501.86
584.02	30665.70
584.18	30639.95
584.34	30897.41
584.50	30684.42
584.66	30345.05
584.82	30543.99
584.98	30335.68
585.14	30239.72
585.30	30260.79
585.46	30017.37
585.62	29947.15
585.78	30391.86
585.94	30127.38
586.10	30462.07
586.26	30345.05
586.42	30628.25
586.58	30555.69
586.74	30431.65
586.90	30265.47
587.06	30129.72
587.22	30841.24
587.38	30331.00
587.54	30813.15
587.70	30576.76
587.86	30679.74
588.02	30810.81
588.18	30876.35
588.34	30771.02
588.49	30742.94
588.65	30518.25
588.81	30520.59
588.97	30604.84
589.13	30984.01
589.29	30541.65
589.45	30609.53
589.61	30859.96
589.77	31150.19
589.93	31028.48
590.08	30466.75
590.24	30810.81
590.40	30661.02
590.56	31094.02
590.72	30382.49
590.88	30794.43
591.04	30609.53
591.20	31084.65
591.35	31042.53
591.51	31407.65
591.67	30707.83
591.83	31101.04
591.99	30745.28
