SpectraSuite Data File
++++++++++++++++++++++++++++++++++++
Date: Fri Oct 18 13:57:55 GMT-05:00 2013
User: bianchi
Dark Spectrum Present: No
Reference Spectrum Present: No
Number of Sampled Component Spectra: 1
Spectrometers: USB2+H05261
Integration Time (usec): 50000 (USB2+H05261)
Spectra Averaged: 1 (USB2+H05261)
Boxcar Smoothing: 0 (USB2+H05261)
Correct for Electrical Dark: No (USB2+H05261)
Strobe/Lamp Enabled: No (USB2+H05261)
Correct for Detector Non-linearity: No (USB2+H05261)
Correct for Stray Light: No (USB2+H05261)
Number of Pixels in Processed Spectrum: 2048
>>>>>Begin Processed Spectral Data<<<<<
365.73	0.00
365.92	0.00
366.12	0.00
366.32	0.00
366.52	0.00
366.72	0.00
366.91	0.00
367.11	0.00
367.31	0.00
367.51	0.00
367.70	0.00
367.90	0.00
368.10	0.00
368.30	0.00
368.49	0.00
368.69	0.00
368.89	0.00
369.09	0.00
369.28	0.00
369.48	0.00
369.68	0.00
369.87	0.00
370.07	0.00
370.27	0.00
370.47	0.00
370.66	100.64
370.86	88.94
371.06	114.69
371.25	217.67
371.45	156.82
371.65	110.01
371.84	135.75
372.04	175.54
372.24	110.01
372.44	161.50
372.63	198.95
372.83	173.20
373.03	222.35
373.22	259.80
373.42	173.20
373.62	168.52
373.81	161.50
374.01	205.97
374.21	250.44
374.40	250.44
374.60	220.01
374.79	147.45
374.99	166.18
375.19	322.99
375.38	182.56
375.58	238.73
375.78	325.33
375.97	358.10
376.17	341.72
376.37	301.93
376.56	330.02
376.76	273.84
376.95	217.67
377.15	227.03
377.35	208.31
377.54	332.36
377.74	276.18
377.93	280.86
378.13	299.59
378.33	278.52
378.52	248.10
378.72	372.15
378.91	297.25
379.11	351.08
379.31	250.44
379.50	212.99
379.70	365.12
379.89	308.95
380.09	243.42
380.28	365.12
380.48	344.06
380.68	229.37
380.87	306.61
381.07	339.38
381.26	341.72
381.46	299.59
381.65	308.95
381.85	299.59
382.04	355.76
382.24	234.05
382.43	308.95
382.63	449.38
382.83	362.78
383.02	430.66
383.22	395.55
383.41	273.84
383.61	311.29
383.80	402.57
384.00	294.91
384.19	334.70
384.39	362.78
384.58	400.23
384.78	444.70
384.97	374.49
385.17	318.31
385.36	322.99
385.56	358.10
385.75	425.98
385.95	451.72
386.14	414.27
386.34	358.10
386.53	444.70
386.72	444.70
386.92	491.51
387.11	475.13
387.31	393.21
387.50	428.32
387.70	489.17
387.89	383.85
388.09	423.64
388.28	458.74
388.48	456.40
388.67	493.85
388.86	435.34
389.06	463.43
389.25	484.49
389.45	479.81
389.64	472.79
389.84	447.04
390.03	512.58
390.22	484.49
390.42	451.72
390.61	498.53
390.81	545.34
391.00	454.06
391.19	505.56
391.39	491.51
391.58	573.43
391.78	447.04
391.97	528.96
392.16	594.50
392.36	526.62
392.55	477.47
392.75	601.52
392.94	568.75
393.13	547.69
393.33	456.40
393.52	514.92
393.71	585.13
393.91	615.56
394.10	559.39
394.29	580.45
394.49	559.39
394.68	592.16
394.88	685.78
395.07	699.82
395.26	585.13
395.46	575.77
395.65	683.44
395.84	599.18
396.04	683.44
396.23	641.31
396.42	662.37
396.62	655.35
396.81	678.76
397.00	763.01
397.19	688.12
397.39	732.59
397.58	697.48
397.77	711.52
397.97	760.67
398.16	648.33
398.35	781.74
398.55	732.59
398.74	774.72
398.93	713.86
399.12	858.98
399.32	716.20
399.51	767.70
399.70	725.57
399.90	718.54
400.09	800.46
400.28	793.44
400.47	802.80
400.67	763.01
400.86	786.42
401.05	887.06
401.24	812.17
401.44	812.17
401.63	828.55
401.82	877.70
402.01	866.00
402.21	880.04
402.40	821.53
402.59	915.15
402.78	910.47
402.97	931.53
403.17	924.51
403.36	873.02
403.55	905.79
403.74	945.58
403.93	917.49
404.13	933.87
404.32	908.13
404.51	957.28
404.70	997.07
404.89	976.00
405.09	1027.50
405.28	1015.79
405.47	994.73
405.66	971.32
405.85	1015.79
406.05	978.34
406.24	929.19
406.43	1020.47
406.62	1095.37
406.81	1130.48
407.00	1184.31
407.20	1025.15
407.39	983.02
407.58	1118.78
407.77	1137.50
407.96	1111.75
408.15	1078.99
408.34	1132.82
408.54	1179.63
408.73	1095.37
408.92	1114.10
409.11	1146.86
409.30	1165.59
409.49	1203.04
409.68	1170.27
409.87	1153.88
410.07	1179.63
410.26	1165.59
410.45	1322.40
410.64	1294.32
410.83	1331.76
411.02	1256.87
411.21	1266.23
411.40	1240.48
411.59	1345.81
411.78	1371.55
411.98	1371.55
412.17	1280.27
412.36	1205.38
412.55	1383.26
412.74	1451.13
412.93	1324.74
413.12	1390.28
413.31	1521.35
413.50	1488.58
413.69	1439.43
413.88	1462.83
414.07	1547.09
414.26	1451.13
414.45	1432.41
414.64	1479.22
414.83	1554.12
415.02	1509.65
415.22	1593.90
415.41	1507.30
415.60	1607.95
415.79	1661.78
415.98	1664.12
416.17	1680.50
416.36	1614.97
416.55	1682.85
416.74	1652.42
416.93	1708.59
417.12	1666.46
417.31	1778.81
417.50	1729.66
417.69	1853.70
417.88	1760.08
418.07	1753.06
418.26	1748.38
418.45	1802.21
418.64	1886.47
418.83	1844.34
419.02	1867.75
419.21	1856.04
419.39	1804.55
419.58	1956.69
419.77	1825.62
419.96	1825.62
420.15	1909.88
420.34	1867.75
420.53	1937.96
420.72	2040.95
420.91	2005.84
421.10	1966.05
421.29	1937.96
421.48	1902.86
421.67	2064.35
421.86	1977.75
422.05	2062.01
422.24	1968.39
422.43	2036.27
422.61	2078.40
422.80	2010.52
422.99	2207.13
423.18	2036.27
423.37	2223.51
423.56	2155.63
423.75	1923.92
423.94	2054.99
424.13	1900.52
424.32	1905.20
424.50	2080.74
424.69	2172.02
424.88	2122.87
425.07	2087.76
425.26	2083.08
425.45	2099.46
425.64	2003.50
425.83	2090.10
426.01	2221.17
426.20	2134.57
426.39	2047.97
426.58	2160.31
426.77	2127.55
426.96	2157.97
427.15	2111.16
427.33	2230.53
427.52	2165.00
427.71	2244.57
427.90	2169.68
428.09	2265.64
428.28	2258.62
428.46	2289.04
428.65	2214.15
428.84	2406.07
429.03	2279.68
429.22	2368.62
429.40	2279.68
429.59	2338.20
429.78	2183.72
429.97	2232.87
430.16	2417.77
430.34	2392.03
430.53	2485.65
430.72	2555.86
430.91	2504.37
431.10	2441.18
431.28	2385.01
431.47	2377.98
431.66	2478.63
431.85	2420.11
432.03	2525.44
432.22	2476.29
432.41	2520.76
432.60	2553.52
432.79	2537.14
432.97	2548.84
433.16	2450.54
433.35	2588.63
433.54	2509.05
433.72	2626.08
433.91	2665.87
434.10	2616.72
434.28	2581.61
434.47	2684.59
434.66	2663.53
434.85	2649.49
435.03	2677.57
435.22	2668.21
435.41	2658.85
435.59	2724.38
435.78	2693.96
435.97	2810.98
436.16	2801.62
436.34	2722.04
436.53	2700.98
436.72	2785.24
436.90	2818.00
437.09	2850.77
437.28	2712.68
437.46	2818.00
437.65	2796.94
437.84	2920.99
438.02	2829.71
438.21	2864.82
438.40	2876.52
438.58	2876.52
438.77	2918.65
438.96	2977.16
439.14	3066.10
439.33	3047.38
439.52	2974.82
439.70	3112.91
439.89	3119.93
440.08	3068.44
440.26	3030.99
440.45	3199.51
440.63	3169.09
440.82	3227.60
441.01	3272.07
441.19	3080.14
441.38	3337.60
441.57	3342.28
441.75	3342.28
441.94	3487.40
442.12	3370.37
442.31	3419.52
442.50	3386.76
442.68	3454.63
442.87	3599.74
443.05	3442.93
443.24	3524.85
443.43	3468.67
443.61	3459.31
443.80	3585.70
443.98	3363.35
444.17	3494.42
444.35	3503.78
444.54	3606.77
444.73	3644.21
444.91	3494.42
445.10	3550.59
445.28	3552.93
445.47	3581.02
445.65	3445.27
445.84	3590.38
446.02	3550.59
446.21	3534.21
446.39	3716.77
446.58	3709.75
446.77	3688.68
446.95	3574.00
447.14	3662.94
447.32	3510.80
447.51	3562.30
447.69	3578.68
447.88	3599.74
448.06	3578.68
448.25	3611.45
448.43	3655.92
448.62	3618.47
448.80	3644.21
448.99	3770.60
449.17	3707.41
449.36	3632.51
449.54	3904.01
449.73	3805.71
449.91	3918.06
450.10	3854.86
450.28	3754.22
450.46	3810.39
450.65	3880.61
450.83	3868.91
451.02	3913.38
451.20	4007.00
451.39	3943.80
451.57	3812.73
451.76	3812.73
451.94	3852.52
452.13	4072.53
452.31	3943.80
452.49	3988.27
452.68	3957.85
452.86	3999.98
453.05	4133.39
453.23	4102.96
453.42	4007.00
453.60	4004.66
453.78	4088.92
453.97	3894.65
454.15	4023.38
454.34	3990.61
454.52	4131.05
454.70	4044.45
454.89	4173.18
455.07	4198.92
455.26	4079.55
455.44	4201.26
455.62	4341.69
455.81	4304.25
455.99	4166.15
456.17	4117.00
456.36	4154.45
456.54	4379.14
456.73	4311.27
456.91	4362.76
457.09	4489.15
457.28	4585.11
457.46	4365.10
457.64	4503.19
457.83	4416.59
458.01	4461.06
458.19	4582.77
458.38	4465.74
458.56	4685.75
458.74	4587.45
458.93	4524.26
459.11	4599.15
459.29	4538.30
459.48	4751.29
459.66	4428.29
459.84	4739.58
460.03	4674.05
460.21	4723.20
460.39	4744.27
460.57	4643.62
460.76	4856.61
460.94	4826.18
461.12	4702.14
461.31	4812.14
461.49	4765.33
461.67	4732.56
461.85	4943.21
462.04	4723.20
462.22	5219.39
462.40	4908.10
462.59	4933.85
462.77	4847.25
462.95	4945.55
463.13	5083.64
463.32	4990.02
463.50	5060.24
463.68	5057.90
463.86	5093.01
464.05	4997.04
464.23	5067.26
464.41	4964.28
464.59	4840.23
464.78	5195.99
464.96	5001.72
465.14	5193.65
465.32	5093.01
465.50	5100.03
465.69	5270.89
465.87	5118.75
466.05	5184.29
466.23	5078.96
466.41	5198.33
466.60	5329.40
466.78	5301.31
466.96	5153.86
467.14	5329.40
467.32	5268.55
467.51	5387.91
467.69	5193.65
467.87	5322.38
468.05	5390.25
468.23	5486.22
468.41	5366.85
468.60	5427.70
468.78	5383.23
468.96	5425.36
469.14	5561.11
469.32	5652.39
469.50	5341.10
469.69	5521.32
469.87	5589.20
470.05	5530.69
470.23	5619.63
470.41	5563.45
470.59	5741.33
470.77	5518.98
470.95	5713.25
471.14	5778.78
471.32	5682.82
471.50	5860.70
471.68	5575.16
471.86	5905.17
472.04	5951.98
472.22	5893.47
472.40	5874.74
472.58	5813.89
472.77	5989.43
472.95	6090.07
473.13	6157.95
473.31	6094.76
473.49	6188.38
473.67	6139.23
473.85	6057.31
474.03	6047.94
474.21	6108.80
474.39	6249.23
474.57	6300.72
474.75	6438.81
474.93	6253.91
475.12	6572.22
475.30	6504.35
475.48	6434.13
475.66	6394.34
475.84	6490.31
476.02	6593.29
476.20	6572.22
476.38	6520.73
476.56	6644.78
476.74	6813.30
476.92	6647.12
477.10	6768.83
477.28	6754.79
477.46	6834.36
477.64	6974.80
477.82	7115.23
478.00	7307.15
478.18	7133.95
478.36	7328.22
478.54	7323.54
478.72	7204.17
478.90	7290.77
479.08	7524.82
479.26	7658.23
479.44	7555.25
479.62	7543.55
479.80	7576.31
479.98	7564.61
480.16	7653.55
480.34	7754.19
480.52	7817.39
480.70	8006.97
480.88	7836.11
481.06	7995.27
481.24	7829.09
481.41	8079.53
481.59	8383.80
481.77	8561.68
481.95	8395.50
482.13	8421.25
482.31	8259.75
482.49	8582.74
482.67	8493.80
482.85	8947.87
483.03	8784.03
483.21	9018.08
483.39	8990.00
483.57	8627.21
483.74	8769.99
483.92	9015.74
484.10	8952.55
484.28	9362.14
484.46	9647.69
484.64	9238.09
484.82	9219.37
485.00	9453.42
485.18	9540.02
485.35	9900.47
485.53	9757.69
485.71	9774.08
485.89	9923.87
486.07	9778.76
486.25	9879.40
486.43	10033.88
486.61	10143.88
486.78	10251.55
486.96	10150.90
487.14	10649.44
487.32	10429.43
487.50	10506.66
487.68	10490.28
487.85	10682.20
488.03	10817.96
488.21	11049.67
488.39	10991.16
488.57	11030.94
488.75	10965.41
488.92	11215.85
489.10	11379.68
489.28	11468.62
489.46	11693.32
489.64	11323.51
489.81	11847.79
489.99	11864.18
490.17	11496.71
490.35	11761.19
490.53	11864.18
490.70	12084.19
490.88	11892.26
491.06	12388.46
491.24	12400.16
491.41	12170.79
491.59	12489.10
491.77	12121.63
491.95	12505.48
492.13	12592.08
492.30	12901.03
492.48	12716.13
492.66	12758.26
492.84	12624.85
493.01	12980.61
493.19	13004.02
493.37	13291.90
493.54	13263.82
493.72	13350.42
493.90	13259.13
494.08	13301.26
494.25	13582.13
494.43	13701.50
494.61	13778.73
494.79	13860.65
494.96	13657.03
495.14	13958.96
495.32	14083.00
495.49	13923.85
495.67	14101.73
495.85	14267.91
496.02	14338.12
496.20	14642.39
496.38	14310.04
496.55	14427.06
496.73	14829.63
496.91	14644.73
497.09	14878.79
497.26	15009.86
497.44	15005.17
497.62	14841.34
497.79	15190.08
497.97	15129.22
498.14	15426.47
498.32	15337.53
498.50	15281.36
498.67	15428.81
498.85	15726.06
499.03	15599.67
499.20	15506.05
499.38	15618.39
499.56	15866.49
499.73	15693.29
499.91	15896.92
500.08	16163.74
500.26	15908.62
500.44	16063.10
500.61	16238.64
500.79	16430.56
500.97	16137.99
501.14	16559.29
501.32	16540.57
501.49	16521.84
501.67	16393.11
501.84	16430.56
502.02	16695.04
502.20	16428.22
502.37	16627.17
502.55	16762.92
502.72	16652.91
502.90	16524.18
503.07	16783.98
503.25	16901.01
503.43	17179.53
503.60	17064.85
503.78	17003.99
503.95	17076.55
504.13	17308.26
504.30	17130.38
504.48	17469.76
504.65	17186.55
504.83	17429.97
505.01	17682.75
505.18	17486.14
505.36	17916.80
505.53	17507.21
505.71	17713.17
505.88	17617.21
506.06	17685.09
506.23	17671.04
506.41	18003.40
506.58	18272.56
506.76	18003.40
506.93	18162.56
507.11	18209.37
507.28	18190.64
507.46	18181.28
507.63	18422.36
507.81	18445.76
507.98	18249.16
508.16	18462.15
508.33	18387.25
508.50	18497.25
508.68	18693.86
508.85	18651.73
509.03	18719.60
509.20	18970.04
509.38	18998.13
509.55	19037.92
509.73	19077.71
509.90	18904.51
510.08	19218.14
510.25	19253.25
510.42	19164.31
510.60	19424.11
510.77	19466.24
510.95	19339.85
511.12	19344.53
511.30	19246.23
511.47	19524.75
511.64	19618.37
511.82	19800.93
511.99	19660.50
512.17	19829.02
512.34	19707.31
512.51	19939.02
512.69	19826.68
512.86	19943.70
513.04	20215.21
513.21	20034.99
513.38	19910.94
513.56	20243.29
513.73	20262.02
513.90	20430.54
514.08	20215.21
514.25	20400.11
514.43	20367.34
514.60	20882.26
514.77	20610.76
514.95	20458.62
515.12	20521.82
515.29	20510.11
515.47	20980.56
515.64	20917.37
515.81	20917.37
515.99	21057.80
516.16	21165.46
516.33	21128.02
516.51	21022.69
516.68	21289.51
516.85	21078.86
517.03	21352.71
517.20	21378.45
517.37	21404.20
517.54	21429.94
517.72	21245.04
517.89	21106.95
518.06	21413.56
518.24	21469.73
518.41	21823.16
518.58	21387.82
518.75	21884.01
518.93	21759.96
519.10	21612.51
519.27	21759.96
519.45	21729.53
519.62	21972.95
519.79	22108.70
519.96	22218.71
520.14	22075.93
520.31	21912.10
520.48	22127.42
520.65	22356.80
520.83	22178.92
521.00	22333.39
521.17	21921.46
521.34	22541.70
521.52	22312.33
521.69	22703.20
521.86	22548.72
522.03	22302.96
522.20	22766.39
522.38	22801.50
522.55	22705.54
522.72	22675.11
522.89	22778.09
523.07	22820.22
523.24	22857.67
523.41	22857.67
523.58	23040.23
523.75	23089.38
523.92	22934.91
524.10	22848.31
524.27	23073.00
524.44	23068.32
524.61	23346.84
524.78	23468.55
524.96	23248.54
525.13	23344.50
525.30	23211.09
525.47	23131.51
525.64	23723.67
525.81	23323.44
525.98	23681.54
526.16	23948.36
526.33	23978.79
526.50	23957.72
526.67	23452.17
526.84	23550.47
527.01	23824.31
527.18	23812.61
527.36	24180.07
527.53	24372.00
527.70	24636.48
527.87	24446.90
528.04	24210.50
528.21	24374.34
528.38	23953.04
528.55	24322.85
528.72	24386.04
528.89	24023.26
529.07	24491.37
529.24	24135.60
529.41	24517.11
529.58	24622.44
529.75	24449.24
529.92	24500.73
530.09	24563.92
530.26	24540.52
530.43	24287.74
530.60	24584.99
530.77	24699.67
530.94	24795.64
531.11	24694.99
531.28	24613.07
531.46	24549.88
531.63	24683.29
531.80	24968.84
531.97	25085.86
532.14	25205.23
532.31	24709.04
532.48	24882.24
532.65	25773.98
532.82	25085.86
532.99	25142.03
533.16	25118.63
533.33	25436.94
533.50	25535.24
533.67	25326.94
533.84	25245.02
534.01	25589.08
534.18	25277.79
534.35	25591.42
534.52	25364.39
534.69	25715.47
534.86	25685.04
535.03	25546.95
535.20	25818.45
535.37	25535.24
535.54	25942.50
535.71	25633.55
535.88	25834.83
536.05	25619.50
536.22	25879.30
536.38	25998.67
536.55	26008.03
536.72	25921.43
536.89	26232.72
537.06	25935.48
537.23	25673.34
537.40	26113.36
537.57	25949.52
537.74	25820.79
537.91	26560.40
538.08	26258.47
538.25	26298.26
538.42	26328.69
538.59	26635.30
538.75	26059.52
538.92	25961.22
539.09	26260.81
539.26	26480.82
539.43	26429.33
539.60	26515.93
539.77	26288.90
539.94	26558.06
540.11	26726.58
540.28	26581.46
540.44	26906.80
540.61	26768.71
540.78	26338.05
540.95	26946.59
541.12	26948.93
541.29	27028.51
541.46	26735.94
541.62	26642.32
541.79	26988.72
541.96	26410.60
542.13	26824.88
542.30	26998.08
542.47	27370.22
542.63	27101.06
542.80	27271.92
542.97	27660.45
543.14	27501.29
543.31	27246.18
543.48	27300.01
543.64	27583.21
543.81	27674.49
543.98	27543.42
544.15	27374.91
544.32	27697.90
544.48	27995.15
544.65	27515.34
544.82	27779.82
544.99	27592.58
545.16	27386.61
545.32	27520.02
545.49	27714.28
545.66	28325.16
545.83	27655.77
546.00	28112.17
546.16	27772.80
546.33	27679.18
546.50	27585.55
546.67	28390.70
546.83	27487.25
547.00	28107.49
547.17	27927.27
547.34	27852.38
547.50	28077.07
547.67	28320.48
547.84	28081.75
548.00	28086.43
548.17	28362.61
548.34	27789.18
548.51	28273.67
548.67	28432.83
548.84	28350.91
549.01	28311.12
549.18	28332.18
549.34	28318.14
549.51	28261.97
549.68	28287.71
549.84	28549.85
550.01	28645.82
550.18	28503.04
550.34	28596.67
550.51	28629.43
550.68	28510.07
550.84	28833.06
551.01	28779.23
551.18	28879.87
551.34	28573.26
551.51	28898.59
551.68	28472.62
551.84	28830.72
552.01	28868.17
552.18	28929.02
552.34	28734.76
552.51	28966.47
552.68	28858.81
552.84	29048.39
553.01	28882.21
553.18	28613.05
553.34	29303.51
553.51	28912.64
553.67	29324.57
553.84	29273.08
554.01	29132.65
554.17	29010.94
554.34	29308.19
554.51	29511.81
554.67	29247.33
554.84	29317.55
555.00	29500.11
555.17	29436.92
555.33	29378.40
555.50	29385.43
555.67	29193.50
555.83	29731.83
556.00	29352.66
556.16	29619.48
556.33	29523.52
556.50	29659.27
556.66	29820.77
556.83	29631.18
556.99	30206.95
557.16	29872.26
557.32	30047.80
557.49	29532.88
557.65	29668.63
557.82	29834.81
557.98	29865.24
558.15	29677.99
558.32	29631.18
558.48	29764.59
558.65	30204.61
558.81	29949.50
558.98	30022.05
559.14	29722.46
559.31	30061.84
559.47	29759.91
559.64	29722.46
559.80	29827.79
559.97	29881.62
560.13	29909.71
560.30	30176.53
560.46	30134.40
560.63	30092.27
560.79	30167.16
560.96	30148.44
561.12	30307.60
561.29	29848.85
561.45	30181.21
561.61	30216.32
561.78	30396.54
561.94	30232.70
562.11	30389.52
562.27	30052.48
562.44	30141.42
562.60	30162.48
562.77	29900.34
562.93	29961.20
563.10	30574.42
563.26	30288.87
563.42	30518.25
563.59	30457.39
563.75	30494.84
563.92	30265.47
564.08	30401.22
564.24	30148.44
564.41	29951.84
564.57	30043.12
564.74	30431.65
564.90	30230.36
565.07	30707.83
565.23	30539.31
565.39	30398.88
565.56	30433.99
565.72	30611.87
565.88	30759.32
566.05	30375.47
566.21	30373.13
566.38	30185.89
566.54	30590.80
566.70	31075.29
566.87	30827.20
567.03	30487.82
567.19	30817.83
567.36	30962.95
567.52	30693.79
567.68	30583.78
567.85	30548.67
568.01	31005.08
568.17	30300.58
568.34	30958.27
568.50	30803.79
568.66	31028.48
568.83	31115.08
568.99	30654.00
569.15	30703.15
569.32	30719.53
569.48	30022.05
569.64	30539.31
569.81	30785.07
569.97	30869.33
570.13	30635.27
570.30	30841.24
570.46	30897.41
570.62	30787.41
570.78	30403.56
570.95	30710.17
571.11	30654.00
571.27	30405.90
571.43	30993.37
571.60	30909.11
571.76	30712.51
571.92	30661.02
572.09	31166.57
572.25	31049.55
572.41	30796.77
572.57	30810.81
572.74	30775.70
572.90	30927.84
573.06	30515.90
573.22	30869.33
573.38	30677.40
573.55	31264.88
573.71	31241.47
573.87	31278.92
574.03	31194.66
574.20	31087.00
574.36	30747.62
574.52	31274.24
574.68	30529.95
574.84	31147.85
575.01	31192.32
575.17	31047.21
575.33	31175.94
575.49	31234.45
575.65	30892.73
575.82	30581.44
575.98	30866.98
576.14	31103.38
576.30	31206.36
576.46	31096.36
576.62	30892.73
576.79	31154.87
576.95	30974.65
577.11	31211.04
577.27	31412.33
577.43	31201.68
577.59	31391.26
577.75	30962.95
577.92	31168.91
578.08	31042.53
578.24	30822.51
578.40	31005.08
578.56	31042.53
578.72	30988.69
578.88	31271.90
579.04	31323.39
579.21	31063.59
579.37	31702.56
579.53	31218.07
579.69	30923.16
579.85	30984.01
580.01	30969.97
580.17	31255.51
580.33	31360.84
580.49	31164.23
580.65	31353.82
580.82	31023.80
580.98	31253.17
581.14	31182.96
581.30	31601.91
581.46	31026.14
581.62	31028.48
581.78	31030.82
581.94	31454.46
582.10	31232.11
582.26	31323.39
582.42	31449.78
582.58	31559.78
582.74	31398.29
582.90	31267.22
583.06	31283.60
583.22	31189.98
583.38	31365.52
583.54	31065.93
583.70	31592.55
583.86	31199.34
584.02	31339.77
584.18	31660.43
584.34	31019.12
584.50	31639.36
584.66	31311.69
584.82	31049.55
584.98	31480.21
585.14	31236.79
585.30	31138.49
585.46	31585.53
585.62	31248.49
585.78	31440.42
585.94	31147.85
586.10	31101.04
586.26	31955.33
586.42	31892.14
586.58	31426.37
586.74	31510.63
586.90	31178.28
587.06	31669.79
587.22	31314.03
587.38	31288.28
587.54	31417.01
587.70	31531.70
587.86	31627.66
588.02	31669.79
588.18	31606.59
588.34	31681.49
588.49	31833.63
588.65	31398.29
588.81	30939.54
588.97	31285.94
589.13	31452.12
589.29	31346.79
589.45	31812.56
589.61	31742.35
589.77	31967.04
589.93	31775.11
590.08	31489.57
590.24	31625.32
590.40	31695.53
590.56	31641.70
590.72	31751.71
590.88	31456.80
591.04	31363.18
591.20	31630.00
591.35	31915.54
591.51	32226.84
591.67	32170.66
591.83	32170.66
