SpectraSuite Data File
++++++++++++++++++++++++++++++++++++
Date: Fri Oct 18 13:58:23 GMT-05:00 2013
User: bianchi
Dark Spectrum Present: No
Reference Spectrum Present: No
Number of Sampled Component Spectra: 1
Spectrometers: USB2+H05261
Integration Time (usec): 50000 (USB2+H05261)
Spectra Averaged: 1 (USB2+H05261)
Boxcar Smoothing: 0 (USB2+H05261)
Correct for Electrical Dark: No (USB2+H05261)
Strobe/Lamp Enabled: No (USB2+H05261)
Correct for Detector Non-linearity: No (USB2+H05261)
Correct for Stray Light: No (USB2+H05261)
Number of Pixels in Processed Spectrum: 2048
>>>>>Begin Processed Spectral Data<<<<<
365.73	0.00
365.92	0.00
366.12	0.00
366.32	0.00
366.52	0.00
366.72	0.00
366.91	0.00
367.11	0.00
367.31	0.00
367.51	0.00
367.70	0.00
367.90	0.00
368.10	0.00
368.30	0.00
368.49	0.00
368.69	0.00
368.89	0.00
369.09	0.00
369.28	0.00
369.48	0.00
369.68	0.00
369.87	0.00
370.07	0.00
370.27	0.00
370.47	0.00
370.66	180.22
370.86	84.26
371.06	121.71
371.25	156.82
371.45	131.07
371.65	159.16
371.84	163.84
372.04	152.13
372.24	215.33
372.44	231.71
372.63	196.60
372.83	294.91
373.03	159.16
373.22	262.14
373.42	149.79
373.62	196.60
373.81	205.97
374.01	269.16
374.21	271.50
374.40	248.10
374.60	203.63
374.79	229.37
374.99	252.78
375.19	276.18
375.38	269.16
375.58	278.52
375.78	285.55
375.97	245.76
376.17	234.05
376.37	241.08
376.56	285.55
376.76	301.93
376.95	243.42
377.15	294.91
377.35	245.76
377.54	262.14
377.74	222.35
377.93	306.61
378.13	264.48
378.33	234.05
378.52	231.71
378.72	306.61
378.91	285.55
379.11	348.74
379.31	348.74
379.50	287.89
379.70	304.27
379.89	383.85
380.09	280.86
380.28	313.63
380.48	294.91
380.68	299.59
380.87	243.42
381.07	285.55
381.26	386.19
381.46	313.63
381.65	337.04
381.85	423.64
382.04	332.36
382.24	322.99
382.43	369.80
382.63	351.08
382.83	381.51
383.02	379.17
383.22	365.12
383.41	313.63
383.61	245.76
383.80	351.08
384.00	292.57
384.19	311.29
384.39	376.83
384.58	344.06
384.78	362.78
384.97	315.97
385.17	376.83
385.36	374.49
385.56	353.42
385.75	390.87
385.95	348.74
386.14	430.66
386.34	421.30
386.53	358.10
386.72	444.70
386.92	374.49
387.11	416.62
387.31	433.00
387.50	404.91
387.70	433.00
387.89	461.09
388.09	423.64
388.28	435.34
388.48	486.83
388.67	440.02
388.86	447.04
389.06	468.11
389.25	514.92
389.45	423.64
389.64	428.32
389.84	451.72
390.03	458.74
390.22	519.60
390.42	543.00
390.61	418.96
390.81	472.79
391.00	514.92
391.19	503.22
391.39	566.41
391.58	484.49
391.78	533.64
391.97	545.34
392.16	528.96
392.36	566.41
392.55	472.79
392.75	550.03
392.94	437.68
393.13	510.24
393.33	463.43
393.52	599.18
393.71	610.88
393.91	543.00
394.10	496.19
394.29	540.66
394.49	528.96
394.68	580.45
394.88	629.60
395.07	582.79
395.26	578.11
395.46	641.31
395.65	688.12
395.84	627.26
396.04	688.12
396.23	638.97
396.42	566.41
396.62	688.12
396.81	578.11
397.00	643.65
397.19	596.84
397.39	653.01
397.58	692.80
397.77	561.73
397.97	643.65
398.16	695.14
398.35	767.70
398.55	690.46
398.74	697.48
398.93	760.67
399.12	699.82
399.32	791.10
399.51	716.20
399.70	798.12
399.90	751.31
400.09	748.97
400.28	737.27
400.47	802.80
400.67	802.80
400.86	791.10
401.05	809.83
401.24	821.53
401.44	777.06
401.63	819.19
401.82	898.77
402.01	833.23
402.21	840.25
402.40	842.59
402.59	795.78
402.78	919.83
402.97	819.19
403.17	889.40
403.36	830.89
403.55	774.72
403.74	837.91
403.93	924.51
404.13	1018.13
404.32	910.47
404.51	884.72
404.70	940.90
404.89	959.62
405.09	903.45
405.28	924.51
405.47	1029.84
405.66	1020.47
405.85	1062.60
406.05	1004.09
406.24	929.19
406.43	1018.13
406.62	1041.54
406.81	1083.67
407.00	973.66
407.20	1055.58
407.39	997.07
407.58	1153.88
407.77	1048.56
407.96	1074.31
408.15	1039.20
408.34	1186.65
408.54	1090.69
408.73	1027.50
408.92	1121.12
409.11	1158.57
409.30	1191.33
409.49	1081.33
409.68	1130.48
409.87	1151.54
410.07	1090.69
410.26	1226.44
410.45	1116.44
410.64	1254.53
410.83	1226.44
411.02	1174.95
411.21	1193.67
411.40	1303.68
411.59	1240.48
411.78	1266.23
411.98	1252.19
412.17	1334.11
412.36	1334.11
412.55	1348.15
412.74	1341.13
412.93	1432.41
413.12	1348.15
413.31	1458.15
413.50	1369.21
413.69	1416.02
413.88	1411.34
414.07	1479.22
414.26	1451.13
414.45	1467.52
414.64	1504.96
414.83	1544.75
415.02	1500.28
415.22	1549.43
415.41	1598.59
415.60	1493.26
415.79	1558.80
415.98	1614.97
416.17	1582.20
416.36	1547.09
416.55	1570.50
416.74	1643.06
416.93	1629.01
417.12	1643.06
417.31	1549.43
417.50	1657.10
417.69	1797.53
417.88	1802.21
418.07	1699.23
418.26	1682.85
418.45	1827.96
418.64	1884.13
418.83	1797.53
419.02	1781.15
419.21	1898.17
419.39	1856.04
419.58	1764.76
419.77	1865.41
419.96	1825.62
420.15	1968.39
420.34	1879.45
420.53	1820.94
420.72	1963.71
420.91	1891.15
421.10	1947.33
421.29	2001.16
421.48	1923.92
421.67	1877.11
421.86	2031.58
422.05	1987.11
422.24	1947.33
422.43	1980.09
422.61	2010.52
422.80	2097.12
422.99	1977.75
423.18	1912.22
423.37	2036.27
423.56	2188.40
423.75	1989.46
423.94	1959.03
424.13	1937.96
424.32	1952.01
424.50	2066.69
424.69	2190.74
424.88	2069.03
425.07	1989.46
425.26	1973.07
425.45	2150.95
425.64	2139.25
425.83	2129.89
426.01	2076.06
426.20	2029.24
426.39	2062.01
426.58	2064.35
426.77	2104.14
426.96	2054.99
427.15	2174.36
427.33	2099.46
427.52	2139.25
427.71	2186.06
427.90	2139.25
428.09	2165.00
428.28	2176.70
428.46	2230.53
428.65	2221.17
428.84	2270.32
429.03	2326.49
429.22	2204.78
429.40	2293.72
429.59	2193.08
429.78	2134.57
429.97	2190.74
430.16	2172.02
430.34	2370.96
430.53	2408.41
430.72	2289.04
430.91	2473.95
431.10	2326.49
431.28	2354.58
431.47	2387.35
431.66	2464.58
431.85	2195.42
432.03	2408.41
432.22	2539.48
432.41	2462.24
432.60	2520.76
432.79	2363.94
432.97	2532.46
433.16	2445.86
433.35	2651.83
433.54	2492.67
433.72	2525.44
433.91	2506.71
434.10	2555.86
434.28	2560.55
434.47	2693.96
434.66	2464.58
434.85	2551.18
435.03	2656.51
435.22	2619.06
435.41	2558.21
435.59	2705.66
435.78	2705.66
435.97	2698.64
436.16	2637.78
436.34	2609.70
436.53	2717.36
436.72	2724.38
436.90	2717.36
437.09	2771.19
437.28	2726.72
437.46	2782.90
437.65	2787.58
437.84	2839.07
438.02	2675.23
438.21	2752.47
438.40	2782.90
438.58	2864.82
438.77	2913.97
438.96	2843.75
439.14	3075.46
439.33	3033.33
439.52	2918.65
439.70	2984.18
439.89	3047.38
440.08	3042.70
440.26	3126.96
440.45	3283.77
440.63	3084.83
440.82	3126.96
441.01	3049.72
441.19	3166.74
441.38	3243.98
441.57	3178.45
441.75	3227.60
441.94	3363.35
442.12	3253.34
442.31	3349.31
442.50	3391.44
442.68	3281.43
442.87	3302.50
443.05	3293.13
443.24	3269.73
443.43	3353.99
443.61	3407.82
443.80	3445.27
443.98	3393.78
444.17	3290.79
444.35	3478.04
444.54	3478.04
444.73	3513.14
444.91	3501.44
445.10	3478.04
445.28	3375.05
445.47	3403.14
445.65	3522.51
445.84	3405.48
446.02	3433.57
446.21	3473.36
446.39	3435.91
446.58	3499.10
446.77	3456.97
446.95	3517.83
447.14	3492.08
447.32	3384.41
447.51	3569.32
447.69	3485.06
447.88	3576.34
448.06	3499.10
448.25	3400.80
448.43	3597.40
448.62	3520.17
448.80	3515.48
448.99	3557.61
449.17	3616.13
449.36	3672.30
449.54	3599.74
449.73	3651.24
449.91	3906.35
450.10	3782.31
450.28	3712.09
450.46	3777.62
450.65	3824.44
450.83	3779.97
451.02	3625.49
451.20	3950.82
451.39	3957.85
451.57	3786.99
451.76	3693.37
451.94	3854.86
452.13	3770.60
452.31	3925.08
452.49	3854.86
452.68	3794.01
452.86	3829.12
453.05	3920.40
453.23	4002.32
453.42	3819.75
453.60	3964.87
453.78	3854.86
453.97	4049.13
454.15	3920.40
454.34	3885.29
454.52	4154.45
454.70	3974.23
454.89	4039.76
455.07	4018.70
455.26	4100.62
455.44	4257.43
455.62	4161.47
455.81	4145.09
455.99	4241.05
456.17	4229.35
456.36	4299.56
456.54	4280.84
456.73	4236.37
456.91	4320.63
457.09	4250.41
457.28	4376.80
457.46	4210.62
457.64	4365.10
457.83	4376.80
458.01	4306.59
458.19	4479.79
458.38	4519.57
458.56	4498.51
458.74	4423.61
458.93	4449.36
459.11	4519.57
459.29	4575.75
459.48	4573.41
459.66	4383.82
459.84	4517.23
460.03	4772.35
460.21	4528.94
460.39	4592.13
460.57	4540.64
460.76	4669.37
460.94	4566.39
461.12	4552.34
461.31	4891.72
461.49	4692.77
461.67	4561.70
461.85	4737.24
462.04	4641.28
462.22	4947.89
462.40	4905.76
462.59	4755.97
462.77	4805.12
462.95	4851.93
463.13	4858.95
463.32	4830.87
463.50	4676.39
463.68	4833.21
463.86	4760.65
464.05	4938.53
464.23	4875.34
464.41	4917.47
464.59	4823.84
464.78	5107.05
464.96	4901.08
465.14	4774.69
465.32	4992.36
465.50	5102.37
465.69	5128.11
465.87	4971.30
466.05	4887.04
466.23	5085.98
466.41	5146.84
466.60	4999.38
466.78	5001.72
466.96	5001.72
467.14	5207.69
467.32	5198.33
467.51	5137.48
467.69	5088.32
467.87	5191.31
468.05	5186.63
468.23	5233.44
468.41	5224.08
468.60	5245.14
468.78	5387.91
468.96	5167.90
469.14	5458.13
469.32	5387.91
469.50	5207.69
469.69	5542.39
469.87	5406.64
470.05	5460.47
470.23	5495.58
470.41	5495.58
470.59	5558.77
470.77	5556.43
470.95	5430.04
471.14	5518.98
471.32	5572.82
471.50	5612.60
471.68	5589.20
471.86	5575.16
472.04	5614.95
472.22	5935.60
472.40	5476.85
472.58	5621.97
472.77	5841.98
472.95	5865.38
473.13	5935.60
473.31	5914.53
473.49	6031.56
473.67	5930.92
473.85	6026.88
474.03	6101.78
474.21	6237.53
474.39	6026.88
474.57	6064.33
474.75	6272.64
474.93	6366.26
475.12	6092.41
475.30	6183.70
475.48	6190.72
475.66	6169.65
475.84	6272.64
476.02	6375.62
476.20	6307.74
476.38	6560.52
476.56	6682.23
476.74	6766.49
476.92	6633.08
477.10	6640.10
477.28	6843.73
477.46	6616.69
477.64	6860.11
477.82	6925.65
478.00	6981.82
478.18	6988.84
478.36	7087.14
478.54	7009.90
478.72	7260.34
478.90	7274.38
479.08	7288.43
479.26	7246.30
479.44	7335.24
479.62	7208.85
479.80	7475.67
479.98	7421.84
480.16	7749.51
480.34	7442.90
480.52	7695.68
480.70	7728.45
480.88	7698.02
481.06	7728.45
481.24	7819.73
481.41	7894.63
481.59	8030.38
481.77	7939.10
481.95	8046.76
482.13	8205.92
482.31	8243.37
482.49	8376.78
482.67	8252.73
482.85	8393.16
483.03	8355.71
483.21	8681.05
483.39	8772.33
483.57	8648.28
483.74	8559.34
483.92	8725.52
484.10	8634.24
484.28	8933.82
484.46	9128.09
484.64	9275.54
484.82	9156.18
485.00	9076.60
485.18	9373.85
485.35	9621.94
485.53	9263.84
485.71	9488.53
485.89	9966.00
486.07	9788.12
486.25	9776.42
486.43	9617.26
486.61	9839.61
486.78	10031.54
486.96	9942.60
487.14	10181.33
487.32	10076.01
487.50	10162.61
487.68	10207.08
487.85	10438.79
488.03	10553.48
488.21	10530.07
488.39	10707.95
488.57	10630.71
488.75	10843.70
488.92	11061.37
489.10	11089.46
489.28	10897.53
489.46	11028.60
489.64	11164.36
489.81	11534.16
489.99	11487.35
490.17	11590.33
490.35	11604.38
490.53	11667.57
490.70	11681.61
490.88	11686.29
491.06	11737.79
491.24	12049.08
491.41	11850.13
491.59	12123.98
491.77	12100.57
491.95	12245.68
492.13	12250.36
492.30	12369.73
492.48	12334.62
492.66	12472.71
492.84	12489.10
493.01	12739.54
493.19	12692.73
493.37	12856.56
493.54	12842.52
493.72	13074.23
493.90	13193.60
494.08	13097.64
494.25	13013.38
494.43	13287.22
494.61	13605.53
494.79	13371.48
494.96	13724.90
495.14	13408.93
495.32	13565.74
495.49	13717.88
495.67	13465.10
495.85	13708.52
496.02	14033.85
496.20	13862.99
496.38	14195.35
496.55	14080.66
496.73	14530.05
496.91	14270.25
497.09	14328.76
497.26	14441.11
497.44	14600.26
497.62	14637.71
497.79	14719.63
497.97	14640.05
498.14	14850.70
498.32	14665.80
498.50	14820.27
498.67	14846.02
498.85	14827.29
499.03	15286.04
499.20	15201.78
499.38	15279.02
499.56	15199.44
499.73	15307.10
499.91	15613.71
500.08	15702.65
500.26	15386.68
500.44	15639.46
500.61	15791.59
500.79	15822.02
500.97	15756.49
501.14	16056.08
501.32	15798.62
501.49	16095.86
501.67	16051.39
501.84	16233.96
502.02	16140.33
502.20	16032.67
502.37	16252.68
502.55	16297.15
502.72	16292.47
502.90	16358.00
503.07	16430.56
503.25	16503.12
503.43	16365.03
503.60	16830.79
503.78	16627.17
503.95	16585.04
504.13	16826.11
504.30	16645.89
504.48	16840.15
504.65	17039.10
504.83	17064.85
505.01	17060.16
505.18	16973.56
505.36	17460.40
505.53	16889.31
505.71	17275.49
505.88	17343.37
506.06	17179.53
506.23	17502.53
506.41	17341.03
506.58	17465.08
506.76	17741.26
506.93	17631.26
507.11	17432.31
507.28	17619.55
507.46	17839.56
507.63	17965.95
507.81	18171.92
507.98	17977.65
508.16	18066.60
508.33	17816.16
508.50	17961.27
508.68	17984.68
508.85	18504.28
509.03	18331.08
509.20	18452.78
509.38	18492.57
509.55	18710.24
509.73	18562.79
509.90	18422.36
510.08	18410.65
510.25	18649.39
510.42	18530.02
510.60	19035.58
510.77	18759.39
510.95	18953.66
511.12	18827.27
511.30	18757.05
511.47	19159.63
511.64	18845.99
511.82	19360.91
511.99	19222.82
512.17	19367.93
512.34	19257.93
512.51	19229.84
512.69	19503.68
512.86	19590.28
513.04	19601.99
513.21	19360.91
513.38	19503.68
513.56	19817.32
513.73	19508.37
513.90	19660.50
514.08	19480.28
514.25	19843.06
514.43	19847.74
514.60	19882.85
514.77	19866.47
514.95	20140.31
515.12	19943.70
515.29	20072.43
515.47	20109.88
515.64	20166.06
515.81	20264.36
515.99	20182.44
516.16	20493.73
516.33	20594.37
516.51	20870.56
516.68	20276.06
516.85	20421.17
517.03	20617.78
517.20	20912.69
517.37	20629.48
517.54	20896.30
517.72	20669.27
517.89	20847.15
518.06	20526.50
518.24	20917.37
518.41	21067.16
518.58	20919.71
518.75	21158.44
518.93	21511.86
519.10	21076.52
519.27	21013.33
519.45	21322.28
519.62	21003.97
519.79	21078.86
519.96	21231.00
520.14	21418.24
520.31	21432.29
520.48	21563.36
520.65	21125.68
520.83	21586.76
521.00	21610.17
521.17	21654.64
521.34	21682.72
521.52	22244.45
521.69	21830.18
521.86	22209.34
522.03	21853.58
522.20	22061.89
522.38	22127.42
522.55	21846.56
522.72	21851.24
522.89	21715.49
523.07	22417.65
523.24	22132.11
523.41	22480.85
523.58	22249.13
523.75	22485.53
523.92	22204.66
524.10	22398.93
524.27	22604.89
524.44	22209.34
524.61	22370.84
524.78	22539.36
524.96	22817.88
525.13	22892.78
525.30	22363.82
525.47	22754.69
525.64	22710.22
525.81	23070.66
525.98	23028.53
526.16	23058.96
526.33	23152.58
526.50	23426.42
526.67	23250.88
526.84	23000.44
527.01	23115.13
527.18	22981.72
527.36	23403.02
527.53	23248.54
527.70	23510.68
527.87	23222.80
528.04	23201.73
528.21	23452.17
528.38	23131.51
528.55	23489.62
528.72	23585.58
528.89	23683.88
529.07	23592.60
529.24	23648.77
529.41	23498.98
529.58	23613.66
529.75	23854.74
529.92	23667.50
530.09	23903.89
530.26	23880.49
530.43	23805.59
530.60	23681.54
530.77	23845.38
530.94	23793.89
531.11	24009.22
531.28	23915.59
531.46	24273.70
531.63	24009.22
531.80	24189.44
531.97	24678.61
532.14	24287.74
532.31	24313.48
532.48	24247.95
532.65	24086.45
532.82	24060.71
532.99	24201.14
533.16	24411.79
533.33	24528.81
533.50	24982.88
533.67	24783.93
533.84	24517.11
534.01	24507.75
534.18	24666.91
534.35	24648.18
534.52	24659.88
534.69	24802.66
534.86	24978.20
535.03	24961.81
535.20	24807.34
535.37	25074.16
535.54	25099.90
535.71	24594.35
535.88	24748.82
536.05	24643.50
536.22	25214.59
536.38	25109.27
536.55	25319.92
536.72	25378.43
536.89	25399.49
537.06	25074.16
537.23	25296.51
537.40	25357.36
537.57	25132.67
537.74	25348.00
537.91	25458.01
538.08	25659.29
538.25	25071.82
538.42	25785.68
538.59	25509.50
538.75	25350.34
538.92	25415.88
539.09	25392.47
539.26	25645.25
539.43	25476.73
539.60	25867.60
539.77	25642.91
539.94	26001.01
540.11	25263.74
540.28	26001.01
540.44	25785.68
540.61	26101.65
540.78	25790.36
540.95	25944.84
541.12	26171.87
541.29	25834.83
541.46	26122.72
541.62	26068.89
541.79	26267.83
541.96	25928.45
542.13	26260.81
542.30	25759.94
542.47	26246.77
542.63	26710.19
542.80	26698.49
542.97	26277.19
543.14	26909.14
543.31	26396.56
543.48	26473.80
543.64	26621.25
543.81	26415.29
543.98	26616.57
544.15	27103.40
544.32	26492.52
544.48	27166.60
544.65	26696.15
544.82	26597.85
544.99	26520.61
545.16	26733.60
545.32	26740.62
545.49	27157.24
545.66	27182.98
545.83	26995.74
546.00	27108.08
546.16	26885.73
546.33	26562.74
546.50	26927.86
546.67	27470.87
546.83	26639.98
547.00	27332.78
547.17	27026.17
547.34	27161.92
547.50	27197.02
547.67	27498.95
547.84	27468.53
548.00	26948.93
548.17	27604.28
548.34	27356.18
548.51	27229.79
548.67	27241.50
548.84	27545.76
549.01	27552.79
549.18	27594.92
549.34	27583.21
549.51	27414.69
549.68	27744.71
549.84	27592.58
550.01	27576.19
550.18	27433.42
550.34	27468.53
550.51	27936.63
550.68	27866.42
550.84	27520.02
551.01	27817.27
551.18	27297.67
551.34	27255.54
551.51	27473.21
551.68	27817.27
551.84	28030.26
552.01	27828.97
552.18	28168.35
552.34	27676.83
552.51	27821.95
552.68	27744.71
552.84	28156.64
553.01	28128.56
553.18	28444.53
553.34	27847.69
553.51	28362.61
553.67	28339.21
553.84	28587.30
554.01	28112.17
554.17	28467.94
554.34	28416.44
554.51	28336.87
554.67	28264.31
554.84	28467.94
555.00	28137.92
555.17	28400.06
555.33	28339.21
555.50	28371.97
555.67	28610.71
555.83	28334.53
556.00	28355.59
556.16	28439.85
556.33	28636.45
556.50	28617.73
556.66	28711.35
556.83	28510.07
556.99	28795.61
557.16	28704.33
557.32	29067.11
557.49	28683.27
557.65	28542.83
557.82	28463.25
557.98	28645.82
558.15	28711.35
558.32	28973.49
558.48	28947.75
558.65	29039.03
558.81	28699.65
558.98	28657.52
559.14	29362.02
559.31	28538.15
559.47	29006.26
559.64	29099.88
559.80	28933.70
559.97	29432.24
560.13	29116.26
560.30	28996.90
560.46	29322.23
560.63	28662.20
560.79	28760.50
560.96	29177.12
561.12	29233.29
561.29	28776.89
561.45	28999.24
561.61	29062.43
561.78	29373.72
561.94	28910.30
562.11	29228.61
562.27	29081.16
562.44	28886.89
562.60	29193.50
562.77	29048.39
562.93	28662.20
563.10	29324.57
563.26	29053.07
563.42	29390.11
563.59	29369.04
563.75	29621.82
563.92	29486.07
564.08	29099.88
564.24	28863.49
564.41	29198.18
564.57	29605.44
564.74	29280.10
564.90	29567.99
565.07	29603.10
565.23	29296.49
565.39	29195.84
565.56	29755.23
565.72	29439.26
565.88	29333.93
566.05	29191.16
566.21	28910.30
566.38	29404.15
566.54	29483.73
566.70	30099.29
566.87	29797.36
567.03	29942.47
567.19	30162.48
567.36	29575.01
567.52	29626.50
567.68	29397.13
567.85	29441.60
568.01	29336.27
568.17	29902.68
568.34	29823.11
568.50	29839.49
568.66	29579.69
568.83	30110.99
568.99	29378.40
569.15	29546.92
569.32	29769.27
569.48	29530.54
569.64	29628.84
569.81	29743.53
569.97	29745.87
570.13	29717.78
570.30	29773.95
570.46	29769.27
570.62	29575.01
570.78	29472.03
570.95	29483.73
571.11	29640.54
571.27	29663.95
571.43	29567.99
571.60	29521.18
571.76	29366.70
571.92	29991.62
572.09	29677.99
572.25	29614.80
572.41	29736.51
572.57	29862.90
572.74	29827.79
572.90	29528.20
573.06	29780.98
573.22	30024.39
573.38	29961.20
573.55	29717.78
573.71	30136.74
573.87	29963.54
574.03	29940.13
574.20	29996.31
574.36	29792.68
574.52	29694.38
574.68	29841.83
574.84	30190.57
575.01	30127.38
575.17	30064.18
575.33	29542.24
575.49	29745.87
575.65	30363.77
575.82	29708.42
575.98	30019.71
576.14	30213.98
576.30	30190.57
576.46	29883.96
576.62	29635.86
576.79	30059.50
576.95	29970.56
577.11	30354.41
577.27	30244.40
577.43	30085.25
577.59	30300.58
577.75	29982.26
577.92	29830.13
578.08	29715.44
578.24	29713.10
578.40	30155.46
578.56	29898.00
578.72	30122.69
578.88	30518.25
579.04	30426.96
579.21	30129.72
579.37	30160.14
579.53	30295.89
579.69	30225.68
579.85	29783.32
580.01	29860.55
580.17	29549.26
580.33	30349.73
580.49	29942.47
580.65	30199.93
580.82	30213.98
580.98	30342.70
581.14	30293.55
581.30	30345.05
581.46	29886.30
581.62	29699.06
581.78	29783.32
581.94	30331.00
582.10	29832.47
582.26	30162.48
582.42	30150.78
582.58	30256.11
582.74	30483.14
582.90	29930.77
583.06	30307.60
583.22	30293.55
583.38	30218.66
583.54	30164.82
583.70	30295.89
583.86	30178.87
584.02	30071.20
584.18	30232.70
584.34	30494.84
584.50	30096.95
584.66	29895.66
584.82	29944.81
584.98	30118.01
585.14	30031.41
585.30	29977.58
585.46	30211.64
585.62	30319.30
585.78	30408.24
585.94	29855.87
586.10	30338.02
586.26	30080.56
586.42	30637.61
586.58	30110.99
586.74	30110.99
586.90	30274.83
587.06	30108.65
587.22	30375.47
587.38	30043.12
587.54	30352.07
587.70	30422.28
587.86	30164.82
588.02	30363.77
588.18	30717.19
588.34	30464.41
588.49	30178.87
588.65	29862.90
588.81	30300.58
588.97	30258.45
589.13	30197.59
589.29	30237.38
589.45	30225.68
589.61	30415.26
589.77	30342.70
589.93	30874.01
590.08	30998.06
590.24	30345.05
590.40	30445.69
590.56	30326.32
590.72	30691.44
590.88	30122.69
591.04	30157.80
591.20	30883.37
591.35	30710.17
591.51	30485.48
591.67	30817.83
591.83	30890.39
