SpectraSuite Data File
++++++++++++++++++++++++++++++++++++
Date: Fri Oct 18 13:58:11 GMT-05:00 2013
User: bianchi
Dark Spectrum Present: No
Reference Spectrum Present: No
Number of Sampled Component Spectra: 1
Spectrometers: USB2+H05261
Integration Time (usec): 50000 (USB2+H05261)
Spectra Averaged: 1 (USB2+H05261)
Boxcar Smoothing: 0 (USB2+H05261)
Correct for Electrical Dark: No (USB2+H05261)
Strobe/Lamp Enabled: No (USB2+H05261)
Correct for Detector Non-linearity: No (USB2+H05261)
Correct for Stray Light: No (USB2+H05261)
Number of Pixels in Processed Spectrum: 2048
>>>>>Begin Processed Spectral Data<<<<<
365.73	0.00
365.92	0.00
366.12	0.00
366.32	0.00
366.52	0.00
366.72	0.00
366.91	0.00
367.11	0.00
367.31	0.00
367.51	0.00
367.70	0.00
367.90	0.00
368.10	0.00
368.30	0.00
368.49	0.00
368.69	0.00
368.89	0.00
369.09	0.00
369.28	0.00
369.48	0.00
369.68	0.00
369.87	0.00
370.07	0.00
370.27	0.00
370.47	0.00
370.66	121.71
370.86	102.98
371.06	91.28
371.25	114.69
371.45	135.75
371.65	215.33
371.84	110.01
372.04	114.69
372.24	102.98
372.44	201.29
372.63	212.99
372.83	243.42
373.03	159.16
373.22	212.99
373.42	243.42
373.62	229.37
373.81	229.37
374.01	278.52
374.21	227.03
374.40	229.37
374.60	388.53
374.79	304.27
374.99	234.05
375.19	220.01
375.38	248.10
375.58	283.20
375.78	280.86
375.97	201.29
376.17	294.91
376.37	248.10
376.56	285.55
376.76	248.10
376.95	212.99
377.15	215.33
377.35	255.12
377.54	301.93
377.74	287.89
377.93	262.14
378.13	262.14
378.33	245.76
378.52	299.59
378.72	283.20
378.91	187.24
379.11	248.10
379.31	301.93
379.50	311.29
379.70	269.16
379.89	308.95
380.09	320.65
380.28	255.12
380.48	327.68
380.68	301.93
380.87	222.35
381.07	348.74
381.26	332.36
381.46	339.38
381.65	376.83
381.85	276.18
382.04	330.02
382.24	348.74
382.43	299.59
382.63	301.93
382.83	381.51
383.02	318.31
383.22	358.10
383.41	421.30
383.61	376.83
383.80	386.19
384.00	404.91
384.19	411.93
384.39	414.27
384.58	390.87
384.78	365.12
384.97	411.93
385.17	376.83
385.36	468.11
385.56	404.91
385.75	339.38
385.95	416.62
386.14	456.40
386.34	414.27
386.53	365.12
386.72	442.36
386.92	489.17
387.11	465.77
387.31	430.66
387.50	461.09
387.70	351.08
387.89	428.32
388.09	465.77
388.28	397.89
388.48	493.85
388.67	519.60
388.86	449.38
389.06	486.83
389.25	444.70
389.45	482.15
389.64	475.13
389.84	543.00
390.03	479.81
390.22	489.17
390.42	496.19
390.61	440.02
390.81	526.62
391.00	514.92
391.19	489.17
391.39	538.32
391.58	564.07
391.78	585.13
391.97	624.92
392.16	594.50
392.36	587.47
392.55	514.92
392.75	594.50
392.94	580.45
393.13	645.99
393.33	521.94
393.52	521.94
393.71	582.79
393.91	543.00
394.10	550.03
394.29	538.32
394.49	575.77
394.68	678.76
394.88	648.33
395.07	622.58
395.26	638.97
395.46	573.43
395.65	669.39
395.84	620.24
396.04	578.11
396.23	629.60
396.42	596.84
396.62	610.88
396.81	699.82
397.00	671.73
397.19	702.16
397.39	730.25
397.58	638.97
397.77	779.40
397.97	753.65
398.16	585.13
398.35	709.18
398.55	706.84
398.74	748.97
398.93	734.93
399.12	730.25
399.32	744.29
399.51	660.03
399.70	793.44
399.90	685.78
400.09	688.12
400.28	840.25
400.47	819.19
400.67	770.04
400.86	821.53
401.05	835.57
401.24	786.42
401.44	819.19
401.63	828.55
401.82	795.78
402.01	896.43
402.21	873.02
402.40	884.72
402.59	870.68
402.78	842.59
402.97	840.25
403.17	889.40
403.36	877.70
403.55	912.81
403.74	840.25
403.93	882.38
404.13	901.11
404.32	856.64
404.51	849.61
404.70	973.66
404.89	882.38
405.09	903.45
405.28	966.64
405.47	898.77
405.66	990.05
405.85	999.41
406.05	1004.09
406.24	940.90
406.43	1025.15
406.62	1013.45
406.81	1170.27
407.00	973.66
407.20	1043.88
407.39	990.05
407.58	1060.26
407.77	1018.13
407.96	1130.48
408.15	1163.25
408.34	1121.12
408.54	1130.48
408.73	1102.39
408.92	1144.52
409.11	1153.88
409.30	1125.80
409.49	1121.12
409.68	1132.82
409.87	1191.33
410.07	1214.74
410.26	1170.27
410.45	1191.33
410.64	1160.91
410.83	1210.06
411.02	1238.14
411.21	1198.35
411.40	1296.66
411.59	1315.38
411.78	1357.51
411.98	1287.29
412.17	1252.19
412.36	1334.11
412.55	1259.21
412.74	1437.09
412.93	1313.04
413.12	1320.06
413.31	1394.96
413.50	1406.66
413.69	1460.49
413.88	1371.55
414.07	1528.37
414.26	1486.24
414.45	1481.56
414.64	1528.37
414.83	1584.54
415.02	1497.94
415.22	1720.29
415.41	1575.18
415.60	1682.85
415.79	1614.97
415.98	1666.46
416.17	1643.06
416.36	1584.54
416.55	1664.12
416.74	1589.22
416.93	1680.50
417.12	1732.00
417.31	1713.27
417.50	1753.06
417.69	1778.81
417.88	1743.70
418.07	1739.02
418.26	1839.66
418.45	1769.44
418.64	1820.94
418.83	1767.10
419.02	1804.55
419.21	1884.13
419.39	1886.47
419.58	1872.43
419.77	1902.86
419.96	1914.56
420.15	1989.46
420.34	1921.58
420.53	1921.58
420.72	1935.62
420.91	2069.03
421.10	1916.90
421.29	2005.84
421.48	1942.64
421.67	1954.35
421.86	1937.96
422.05	2104.14
422.24	1956.69
422.43	1998.82
422.61	2064.35
422.80	2045.63
422.99	2038.61
423.18	2143.93
423.37	2118.18
423.56	2076.06
423.75	2026.90
423.94	1982.43
424.13	1886.47
424.32	1944.99
424.50	2125.21
424.69	2125.21
424.88	2059.67
425.07	2017.54
425.26	2073.71
425.45	2115.84
425.64	2066.69
425.83	2099.46
426.01	2104.14
426.20	2010.52
426.39	2064.35
426.58	2045.63
426.77	2148.61
426.96	2038.61
427.15	2085.42
427.33	2115.84
427.52	2078.40
427.71	2165.00
427.90	2183.72
428.09	2162.66
428.28	2160.31
428.46	2305.43
428.65	2256.28
428.84	2214.15
429.03	2389.69
429.22	2146.27
429.40	2305.43
429.59	2305.43
429.78	2221.17
429.97	2218.83
430.16	2207.13
430.34	2312.45
430.53	2331.17
430.72	2298.41
430.91	2230.53
431.10	2375.64
431.28	2335.85
431.47	2389.69
431.66	2471.61
431.85	2394.37
432.03	2450.54
432.22	2410.75
432.41	2450.54
432.60	2574.59
432.79	2504.37
432.97	2583.95
433.16	2511.39
433.35	2499.69
433.54	2532.46
433.72	2476.29
433.91	2455.22
434.10	2513.74
434.28	2464.58
434.47	2555.86
434.66	2499.69
434.85	2574.59
435.03	2558.21
435.22	2534.80
435.41	2710.34
435.59	2583.95
435.78	2630.76
435.97	2597.99
436.16	2665.87
436.34	2677.57
436.53	2708.00
436.72	2712.68
436.90	2719.70
437.09	2902.26
437.28	2651.83
437.46	2864.82
437.65	2899.92
437.84	2832.05
438.02	2808.64
438.21	2857.79
438.40	2731.41
438.58	2906.95
438.77	2857.79
438.96	2974.82
439.14	3023.97
439.33	3005.25
439.52	3129.30
439.70	3054.40
439.89	2995.89
440.08	3026.31
440.26	3131.64
440.45	3056.74
440.63	3225.26
440.82	3274.41
441.01	3201.85
441.19	3016.95
441.38	3279.09
441.57	3206.53
441.75	3330.58
441.94	3288.45
442.12	3131.64
442.31	3300.16
442.50	3365.69
442.68	3400.80
442.87	3346.97
443.05	3316.54
443.24	3379.73
443.43	3389.10
443.61	3393.78
443.80	3508.46
443.98	3363.35
444.17	3255.69
444.35	3442.93
444.54	3543.57
444.73	3562.30
444.91	3471.01
445.10	3520.17
445.28	3543.57
445.47	3386.76
445.65	3499.10
445.84	3510.80
446.02	3480.38
446.21	3658.26
446.39	3590.38
446.58	3623.15
446.77	3578.68
446.95	3461.65
447.14	3398.46
447.32	3503.78
447.51	3494.42
447.69	3590.38
447.88	3536.55
448.06	3592.72
448.25	3581.02
448.43	3588.04
448.62	3602.08
448.80	3641.87
448.99	3693.37
449.17	3803.37
449.36	3564.64
449.54	3714.43
449.73	3597.40
449.91	3798.69
450.10	3864.22
450.28	3857.20
450.46	3826.78
450.65	3747.20
450.83	3826.78
451.02	3803.37
451.20	3871.25
451.39	3913.38
451.57	3918.06
451.76	3791.67
451.94	3967.21
452.13	4021.04
452.31	3978.91
452.49	3737.84
452.68	3946.14
452.86	3981.25
453.05	3981.25
453.23	4051.47
453.42	3964.87
453.60	3786.99
453.78	3999.98
453.97	3873.59
454.15	4049.13
454.34	4081.89
454.52	4032.74
454.70	3995.29
454.89	4117.00
455.07	4091.26
455.26	4159.13
455.44	4138.07
455.62	4081.89
455.81	4189.56
455.99	4241.05
456.17	4346.37
456.36	4145.09
456.54	4402.55
456.73	4198.92
456.91	4379.14
457.09	4243.39
457.28	4526.60
457.46	4250.41
457.64	4491.49
457.83	4386.16
458.01	4313.61
458.19	4552.34
458.38	4362.76
458.56	4571.07
458.74	4575.75
458.93	4376.80
459.11	4496.17
459.29	4550.00
459.48	4587.45
459.66	4538.30
459.84	4503.19
460.03	4634.26
460.21	4596.81
460.39	4660.01
460.57	4716.18
460.76	4606.17
460.94	4500.85
461.12	4671.71
461.31	4664.69
461.49	4753.63
461.67	4671.71
461.85	4840.23
462.04	4798.10
462.22	4994.70
462.40	4744.27
462.59	4767.67
462.77	4805.12
462.95	4943.21
463.13	4772.35
463.32	4882.36
463.50	4908.10
463.68	4954.91
463.86	4842.57
464.05	4931.51
464.23	5064.92
464.41	4954.91
464.59	4875.34
464.78	4945.55
464.96	5090.67
465.14	4943.21
465.32	5139.82
465.50	4940.87
465.69	5118.75
465.87	5032.15
466.05	5069.60
466.23	5085.98
466.41	4992.36
466.60	5352.81
466.78	5123.43
466.96	5125.77
467.14	5207.69
467.32	5114.07
467.51	5160.88
467.69	5156.20
467.87	5174.92
468.05	5467.49
468.23	5219.39
468.41	5125.77
468.60	5296.63
468.78	5397.28
468.96	5289.61
469.14	5425.36
469.32	5411.32
469.50	5289.61
469.69	5291.95
469.87	5598.56
470.05	5568.13
470.23	5465.15
470.41	5565.79
470.59	5603.24
470.77	5507.28
470.95	5486.22
471.14	5746.02
471.32	5418.34
471.50	5795.17
471.68	5678.14
471.86	5748.36
472.04	5680.48
472.22	5916.87
472.40	5654.73
472.58	5856.02
472.77	5771.76
472.95	5788.14
473.13	5940.28
473.31	5902.83
473.49	5930.92
473.67	5818.57
473.85	5998.79
474.03	6090.07
474.21	6052.63
474.39	6111.14
474.57	6073.69
474.75	6080.71
474.93	6307.74
475.12	6050.28
475.30	6289.02
475.48	6333.49
475.66	6434.13
475.84	6637.76
476.02	6509.03
476.20	6328.81
476.38	6555.84
476.56	6775.85
476.74	6883.52
476.92	6586.27
477.10	6675.21
477.28	6766.49
477.46	6722.02
477.64	6970.12
477.82	6993.52
478.00	6892.88
478.18	7108.21
478.36	7105.87
478.54	7403.11
478.72	7176.08
478.90	7250.98
479.08	7267.36
479.26	7426.52
479.44	7571.63
479.62	7384.39
479.80	7478.01
479.98	7302.47
480.16	7590.36
480.34	7700.36
480.52	7777.60
480.70	7777.60
480.88	7648.87
481.06	7786.96
481.24	7826.75
481.41	7990.59
481.59	8009.31
481.77	8140.38
481.95	8161.45
482.13	8203.58
482.31	8168.47
482.49	8416.57
482.67	8379.12
482.85	8524.23
483.03	8533.59
483.21	8610.83
483.39	8718.50
483.57	8690.41
483.74	8823.82
483.92	8990.00
484.10	8882.33
484.28	8919.78
484.46	9207.67
484.64	9500.23
484.82	9256.82
485.00	9219.37
485.18	9327.03
485.35	9603.22
485.53	9727.27
485.71	9652.37
485.89	9706.20
486.07	9841.95
486.25	9720.24
486.43	9776.42
486.61	9863.02
486.78	9851.31
486.96	10277.29
487.14	10272.61
487.32	10352.19
487.50	10338.15
487.68	10064.30
487.85	10513.69
488.03	10607.31
488.21	10860.09
488.39	10736.04
488.57	11014.56
488.75	10993.50
488.92	10850.72
489.10	11087.12
489.28	11105.84
489.46	11220.53
489.64	11162.01
489.81	11587.99
489.99	11515.44
490.17	11627.78
490.35	11452.24
490.53	11733.11
490.70	11655.87
490.88	11707.36
491.06	11915.67
491.24	12168.45
491.41	12145.04
491.59	12203.55
491.77	12198.87
491.95	12442.29
492.13	12456.33
492.30	12470.37
492.48	12711.45
492.66	12678.68
492.84	12428.24
493.01	12886.99
493.19	12489.10
493.37	12945.50
493.54	12968.91
493.72	13193.60
493.90	12940.82
494.08	13362.12
494.25	13488.51
494.43	13558.72
494.61	13582.13
494.79	13542.34
494.96	13532.98
495.14	13476.80
495.32	13647.66
495.49	14029.17
495.67	14216.41
495.85	14118.11
496.02	14251.52
496.20	14281.95
496.38	14143.86
496.55	14190.67
496.73	14443.45
496.91	14590.90
497.09	14508.98
497.26	14736.01
497.44	14846.02
497.62	14738.35
497.79	14909.21
497.97	14834.32
498.14	15094.11
498.32	15276.68
498.50	15070.71
498.67	15328.17
498.85	15323.49
499.03	15103.48
499.20	15206.46
499.38	15419.45
499.56	15253.27
499.73	15782.23
499.91	15653.50
500.08	15880.53
500.26	15438.17
500.44	15747.12
500.61	15864.15
500.79	16011.60
500.97	15810.32
501.14	16248.00
501.32	15927.35
501.49	15962.45
501.67	16159.06
501.84	16240.98
502.02	16299.49
502.20	16388.43
502.37	16673.98
502.55	16489.07
502.72	16362.69
502.90	16620.14
503.07	16655.25
503.25	16318.22
503.43	16535.88
503.60	16952.50
503.78	16563.97
503.95	17139.74
504.13	17137.40
504.30	16992.29
504.48	16830.79
504.65	16954.84
504.83	17324.65
505.01	17081.23
505.18	17479.12
505.36	17603.17
505.53	17291.88
505.71	17362.09
505.88	17666.36
506.06	17270.81
506.23	17680.41
506.41	17549.34
506.58	17825.52
506.76	17884.03
506.93	17547.00
507.11	17757.64
507.28	18073.62
507.46	17970.63
507.63	18221.07
507.81	18218.73
507.98	18050.21
508.16	18434.06
508.33	18317.03
508.50	18331.08
508.68	18462.15
508.85	18415.34
509.03	18155.54
509.20	18499.59
509.38	18640.03
509.55	18801.52
509.73	18691.52
509.90	18679.82
510.08	18675.13
510.25	18920.89
510.42	18977.06
510.60	18845.99
510.77	19037.92
510.95	19403.04
511.12	19178.35
511.30	19220.48
511.47	19253.25
511.64	19278.99
511.82	19307.08
511.99	19281.33
512.17	19403.04
512.34	19627.73
512.51	19393.68
512.69	19372.61
512.86	19786.89
513.04	19889.87
513.21	19796.25
513.38	19754.12
513.56	19985.83
513.73	19791.57
513.90	20091.16
514.08	19913.28
514.25	20081.80
514.43	20247.97
514.60	20142.65
514.77	19969.45
514.95	20201.16
515.12	20252.66
515.29	20156.69
515.47	20269.04
515.64	20690.34
515.81	20446.92
515.99	20732.47
516.16	20776.94
516.33	20730.12
516.51	20634.16
516.68	20793.32
516.85	20493.73
517.03	20732.47
517.20	20870.56
517.37	20929.07
517.54	20798.00
517.72	20999.29
517.89	20692.68
518.06	20709.06
518.24	21235.68
518.41	21041.42
518.58	21429.94
518.75	21343.35
518.93	21380.79
519.10	21273.13
519.27	21486.12
519.45	21261.43
519.62	21326.96
519.79	21605.49
519.96	21479.10
520.14	21724.85
520.31	21635.91
520.48	21965.93
520.65	21673.36
520.83	21848.90
521.00	21914.44
521.17	21642.93
521.34	22216.36
521.52	21694.43
521.69	21935.50
521.86	22534.68
522.03	22298.28
522.20	22082.95
522.38	22146.15
522.55	22237.43
522.72	22211.68
522.89	22677.45
523.07	22522.98
523.24	22408.29
523.41	22789.80
523.58	22422.33
523.75	23157.26
523.92	22522.98
524.10	22733.62
524.27	22602.55
524.44	22848.31
524.61	23161.94
524.78	23206.41
524.96	22974.70
525.13	22860.01
525.30	22700.86
525.47	23082.36
525.64	23065.98
525.81	23040.23
525.98	23417.06
526.16	23152.58
526.33	23190.03
526.50	23442.81
526.67	23346.84
526.84	23513.02
527.01	23398.34
527.18	23772.82
527.36	23810.27
527.53	23323.44
527.70	23613.66
527.87	23573.88
528.04	23651.11
528.21	23775.16
528.38	23695.58
528.55	23655.79
528.72	23559.83
528.89	23775.16
529.07	23749.42
529.24	23821.97
529.41	24121.56
529.58	23779.84
529.75	23810.27
529.92	24159.01
530.09	24205.82
530.26	24233.91
530.43	24538.18
530.60	24109.86
530.77	23910.91
530.94	24379.02
531.11	24194.12
531.28	24341.57
531.46	24446.90
531.63	24339.23
531.80	24601.37
531.97	24379.02
532.14	24655.20
532.31	24425.83
532.48	24748.82
532.65	24608.39
532.82	24924.36
532.99	24610.73
533.16	24779.25
533.33	24952.45
533.50	25549.29
533.67	24905.64
533.84	24882.24
534.01	25034.37
534.18	24833.08
534.35	24905.64
534.52	24837.76
534.69	25291.83
534.86	25619.50
535.03	24919.68
535.20	25268.42
535.37	25174.80
535.54	25216.93
535.71	25053.09
535.88	25245.02
536.05	25223.95
536.22	25500.14
536.38	25425.24
536.55	25315.23
536.72	25656.95
536.89	25186.50
537.06	25635.89
537.23	25930.80
537.40	25247.36
537.57	25488.43
537.74	25572.69
537.91	25694.40
538.08	25806.75
538.25	25628.87
538.42	25738.87
538.59	25919.09
538.75	25752.91
538.92	25771.64
539.09	26005.69
539.26	26099.31
539.43	25989.31
539.60	25895.69
539.77	25972.92
539.94	26326.35
540.11	26061.87
540.28	26260.81
540.44	26384.86
540.61	26101.65
540.78	26160.17
540.95	26111.02
541.12	26125.06
541.29	26284.22
541.46	26286.56
541.62	26389.54
541.79	26403.58
541.96	26136.76
542.13	26471.46
542.30	26885.73
542.47	26478.48
542.63	26675.09
542.80	26588.49
542.97	26878.71
543.14	27030.85
543.31	27096.38
543.48	26904.46
543.64	27173.62
543.81	26909.14
543.98	26984.04
544.15	27529.38
544.32	27262.56
544.48	26955.95
544.65	27119.79
544.82	26485.50
544.99	26920.84
545.16	27438.10
545.32	27204.05
545.49	27271.92
545.66	27531.72
545.83	27381.93
546.00	27510.66
546.16	27653.43
546.33	27103.40
546.50	27316.39
546.67	26897.44
546.83	27047.23
547.00	27281.28
547.17	27496.61
547.34	27623.00
547.50	27644.07
547.67	28107.49
547.84	27391.29
548.00	27667.47
548.17	27896.85
548.34	27599.60
548.51	27854.72
548.67	28224.52
548.84	27864.08
549.01	27690.88
549.18	27449.80
549.34	27761.09
549.51	27779.82
549.68	28524.11
549.84	27807.90
550.01	28168.35
550.18	27718.96
550.34	27850.03
550.51	28313.46
550.68	28311.12
550.84	27847.69
551.01	28222.18
551.18	27992.81
551.34	28175.37
551.51	27924.93
551.68	27943.66
551.84	28559.22
552.01	28182.39
552.18	28135.58
552.34	28311.12
552.51	28694.97
552.68	28177.71
552.84	28379.00
553.01	28311.12
553.18	28322.82
553.34	28512.41
553.51	28411.76
553.67	28973.49
553.84	28828.38
554.01	28795.61
554.17	28198.77
554.34	28760.50
554.51	28542.83
554.67	29034.35
554.84	28800.29
555.00	28870.51
555.17	28659.86
555.33	28971.15
555.50	28687.95
555.67	28936.04
555.83	29216.91
556.00	28521.77
556.16	29371.38
556.33	28893.91
556.50	28950.09
556.66	29027.32
556.83	28889.23
556.99	29200.52
557.16	29184.14
557.32	29256.70
557.49	29383.09
557.65	28524.11
557.82	29057.75
557.98	28603.69
558.15	29123.29
558.32	29170.10
558.48	28624.75
558.65	29460.32
558.81	29535.22
558.98	29081.16
559.14	29043.71
559.31	29359.68
559.47	29109.24
559.64	29542.24
559.80	29296.49
559.97	29696.72
560.13	29216.91
560.30	29380.74
560.46	29228.61
560.63	29268.40
560.79	29298.83
560.96	29708.42
561.12	29486.07
561.29	28790.93
561.45	29689.70
561.61	29198.18
561.78	29401.81
561.94	29755.23
562.11	29989.28
562.27	29579.69
562.44	29366.70
562.60	29673.31
562.77	29497.77
562.93	29741.19
563.10	29717.78
563.26	30071.20
563.42	29825.45
563.59	29797.36
563.75	29890.98
563.92	30185.89
564.08	29413.51
564.24	29785.66
564.41	29544.58
564.57	29628.84
564.74	29790.34
564.90	29853.53
565.07	30038.44
565.23	30050.14
565.39	29619.48
565.56	30221.00
565.72	29858.21
565.88	29881.62
566.05	29539.90
566.21	29928.43
566.38	29844.17
566.54	29656.93
566.70	30274.83
566.87	30143.76
567.03	29895.66
567.19	30450.37
567.36	30052.48
567.52	29776.30
567.68	30155.46
567.85	29907.37
568.01	29876.94
568.17	29972.90
568.34	30022.05
568.50	30150.78
568.66	30359.09
568.83	30424.62
568.99	30012.69
569.15	30307.60
569.32	30267.81
569.48	29914.39
569.64	30050.14
569.81	30115.67
569.97	29933.11
570.13	30520.59
570.30	30242.06
570.46	30256.11
570.62	30244.40
570.78	30162.48
570.95	30338.02
571.11	29989.28
571.27	29788.00
571.43	29919.07
571.60	30426.96
571.76	30202.27
571.92	30228.02
572.09	30319.30
572.25	30185.89
572.41	30033.75
572.57	30394.20
572.74	30604.84
572.90	30242.06
573.06	30022.05
573.22	30085.25
573.38	30487.82
573.55	30298.23
573.71	30621.23
573.87	30628.25
574.03	30181.21
574.20	30216.32
574.36	30022.05
574.52	30185.89
574.68	30342.70
574.84	30368.45
575.01	30689.10
575.17	30621.23
575.33	30536.97
575.49	30162.48
575.65	30424.62
575.82	30015.03
575.98	30377.81
576.14	30450.37
576.30	30602.50
576.46	29689.70
576.62	30316.96
576.79	30335.68
576.95	30164.82
577.11	30464.41
577.27	30213.98
577.43	30721.87
577.59	30293.55
577.75	30462.07
577.92	30380.15
578.08	30527.61
578.24	30546.33
578.40	30110.99
578.56	30452.71
578.72	30827.20
578.88	30588.46
579.04	30665.70
579.21	30691.44
579.37	30211.64
579.53	30579.10
579.69	30515.90
579.85	30235.04
580.01	30663.36
580.17	30441.01
580.33	30780.39
580.49	30785.07
580.65	31079.97
580.82	30782.73
580.98	30661.02
581.14	30433.99
581.30	30515.90
581.46	30281.85
581.62	30244.40
581.78	30745.28
581.94	30370.79
582.10	30363.77
582.26	30742.94
582.42	30796.77
582.58	30572.08
582.74	30955.93
582.90	31103.38
583.06	30738.26
583.22	30597.82
583.38	30525.27
583.54	30597.82
583.70	30745.28
583.86	30724.21
584.02	30866.98
584.18	30773.36
584.34	30962.95
584.50	31325.73
584.66	30857.62
584.82	30586.12
584.98	30677.40
585.14	30483.14
585.30	30347.39
585.46	30672.72
585.62	30412.92
585.78	30656.34
585.94	30532.29
586.10	30515.90
586.26	30731.23
586.42	30525.27
586.58	30597.82
586.74	30422.28
586.90	30639.95
587.06	30661.02
587.22	30731.23
587.38	30246.74
587.54	31049.55
587.70	31068.27
587.86	30845.92
588.02	30855.28
588.18	31005.08
588.34	30794.43
588.49	31065.93
588.65	30665.70
588.81	31054.23
588.97	31072.95
589.13	30649.32
589.29	30792.09
589.45	30906.77
589.61	30866.98
589.77	31103.38
589.93	31101.04
590.08	31094.02
590.24	31283.60
590.40	31405.31
590.56	31243.81
590.72	31108.06
590.88	30857.62
591.04	30911.46
591.20	31112.74
591.35	31449.78
591.51	31777.45
591.67	31278.92
591.83	31615.96
591.99	31309.35
