SpectraSuite Data File
++++++++++++++++++++++++++++++++++++
Date: Fri Oct 18 13:57:59 GMT-05:00 2013
User: bianchi
Dark Spectrum Present: No
Reference Spectrum Present: No
Number of Sampled Component Spectra: 1
Spectrometers: USB2+H05261
Integration Time (usec): 50000 (USB2+H05261)
Spectra Averaged: 1 (USB2+H05261)
Boxcar Smoothing: 0 (USB2+H05261)
Correct for Electrical Dark: No (USB2+H05261)
Strobe/Lamp Enabled: No (USB2+H05261)
Correct for Detector Non-linearity: No (USB2+H05261)
Correct for Stray Light: No (USB2+H05261)
Number of Pixels in Processed Spectrum: 2048
>>>>>Begin Processed Spectral Data<<<<<
365.73	0.00
365.92	0.00
366.12	0.00
366.32	0.00
366.52	0.00
366.72	0.00
366.91	0.00
367.11	0.00
367.31	0.00
367.51	0.00
367.70	0.00
367.90	0.00
368.10	0.00
368.30	0.00
368.49	0.00
368.69	0.00
368.89	0.00
369.09	0.00
369.28	0.00
369.48	0.00
369.68	0.00
369.87	0.00
370.07	0.00
370.27	0.00
370.47	0.00
370.66	100.64
370.86	227.03
371.06	161.50
371.25	105.32
371.45	79.58
371.65	175.54
371.84	147.45
372.04	60.85
372.24	180.22
372.44	191.92
372.63	224.69
372.83	182.56
373.03	189.58
373.22	220.01
373.42	255.12
373.62	292.57
373.81	257.46
374.01	212.99
374.21	283.20
374.40	168.52
374.60	299.59
374.79	191.92
374.99	278.52
375.19	191.92
375.38	278.52
375.58	283.20
375.78	271.50
375.97	220.01
376.17	271.50
376.37	308.95
376.56	304.27
376.76	278.52
376.95	262.14
377.15	224.69
377.35	290.23
377.54	222.35
377.74	287.89
377.93	250.44
378.13	297.25
378.33	257.46
378.52	304.27
378.72	283.20
378.91	346.40
379.11	283.20
379.31	304.27
379.50	290.23
379.70	318.31
379.89	327.68
380.09	299.59
380.28	318.31
380.48	351.08
380.68	304.27
380.87	337.04
381.07	318.31
381.26	285.55
381.46	294.91
381.65	393.21
381.85	367.46
382.04	393.21
382.24	407.25
382.43	344.06
382.63	346.40
382.83	360.44
383.02	339.38
383.22	341.72
383.41	339.38
383.61	386.19
383.80	402.57
384.00	313.63
384.19	311.29
384.39	362.78
384.58	421.30
384.78	407.25
384.97	348.74
385.17	463.43
385.36	404.91
385.56	531.30
385.75	355.76
385.95	407.25
386.14	437.68
386.34	442.36
386.53	360.44
386.72	425.98
386.92	524.28
387.11	404.91
387.31	486.83
387.50	454.06
387.70	322.99
387.89	362.78
388.09	461.09
388.28	498.53
388.48	404.91
388.67	491.51
388.86	475.13
389.06	528.96
389.25	435.34
389.45	554.71
389.64	451.72
389.84	535.98
390.03	505.56
390.22	507.90
390.42	449.38
390.61	442.36
390.81	552.37
391.00	472.79
391.19	531.30
391.39	482.15
391.58	468.11
391.78	524.28
391.97	526.62
392.16	578.11
392.36	634.29
392.55	524.28
392.75	585.13
392.94	568.75
393.13	601.52
393.33	531.30
393.52	491.51
393.71	514.92
393.91	489.17
394.10	538.32
394.29	580.45
394.49	608.54
394.68	566.41
394.88	557.05
395.07	606.20
395.26	631.94
395.46	545.34
395.65	657.69
395.84	690.46
396.04	669.39
396.23	608.54
396.42	657.69
396.62	589.82
396.81	580.45
397.00	631.94
397.19	704.50
397.39	765.36
397.58	638.97
397.77	732.59
397.97	716.20
398.16	777.06
398.35	727.91
398.55	802.80
398.74	704.50
398.93	767.70
399.12	678.76
399.32	655.35
399.51	779.40
399.70	744.29
399.90	753.65
400.09	772.38
400.28	784.08
400.47	788.76
400.67	819.19
400.86	809.83
401.05	781.74
401.24	793.44
401.44	835.57
401.63	866.00
401.82	833.23
402.01	931.53
402.21	915.15
402.40	987.71
402.59	795.78
402.78	828.55
402.97	931.53
403.17	915.15
403.36	840.25
403.55	882.38
403.74	922.17
403.93	919.83
404.13	980.68
404.32	866.00
404.51	938.55
404.70	929.19
404.89	933.87
405.09	1039.20
405.28	917.49
405.47	947.92
405.66	933.87
405.85	983.02
406.05	978.34
406.24	940.90
406.43	976.00
406.62	1067.28
406.81	1128.14
407.00	1090.69
407.20	994.73
407.39	1018.13
407.58	1074.31
407.77	1067.28
407.96	1114.10
408.15	1074.31
408.34	1050.90
408.54	1118.78
408.73	987.71
408.92	1029.84
409.11	1184.31
409.30	1116.44
409.49	1238.14
409.68	1144.52
409.87	1188.99
410.07	1128.14
410.26	1146.86
410.45	1301.34
410.64	1249.85
410.83	1188.99
411.02	1196.01
411.21	1284.95
411.40	1371.55
411.59	1268.57
411.78	1256.87
411.98	1343.47
412.17	1343.47
412.36	1394.96
412.55	1245.16
412.74	1373.89
412.93	1291.98
413.12	1366.87
413.31	1558.80
413.50	1397.30
413.69	1359.85
413.88	1502.62
414.07	1476.88
414.26	1406.66
414.45	1467.52
414.64	1504.96
414.83	1523.69
415.02	1530.71
415.22	1540.07
415.41	1589.22
415.60	1589.22
415.79	1551.78
415.98	1610.29
416.17	1626.67
416.36	1687.53
416.55	1612.63
416.74	1624.33
416.93	1629.01
417.12	1713.27
417.31	1788.17
417.50	1767.10
417.69	1811.57
417.88	1774.13
418.07	1785.83
418.26	1722.63
418.45	1785.83
418.64	1849.02
418.83	1844.34
419.02	1736.68
419.21	1813.92
419.39	1891.15
419.58	1895.83
419.77	1846.68
419.96	1944.99
420.15	1940.30
420.34	1820.94
420.53	1839.66
420.72	1966.05
420.91	1891.15
421.10	2092.44
421.29	1930.94
421.48	1930.94
421.67	2080.74
421.86	2036.27
422.05	2054.99
422.24	1968.39
422.43	1844.34
422.61	2019.88
422.80	2085.42
422.99	1893.49
423.18	2113.50
423.37	2120.53
423.56	1947.33
423.75	2029.24
423.94	2052.65
424.13	1867.75
424.32	1952.01
424.50	2033.93
424.69	2157.97
424.88	2179.04
425.07	2111.16
425.26	2043.29
425.45	2094.78
425.64	1982.43
425.83	2054.99
426.01	2047.97
426.20	2073.71
426.39	2015.20
426.58	2045.63
426.77	2078.40
426.96	2122.87
427.15	2118.18
427.33	2204.78
427.52	2143.93
427.71	2300.75
427.90	2193.08
428.09	2207.13
428.28	2228.19
428.46	2193.08
428.65	2345.22
428.84	2282.02
429.03	2408.41
429.22	2211.81
429.40	2251.60
429.59	2415.43
429.78	2221.17
429.97	2148.61
430.16	2345.22
430.34	2253.94
430.53	2296.07
430.72	2443.52
430.91	2354.58
431.10	2307.77
431.28	2483.31
431.47	2373.30
431.66	2342.88
431.85	2445.86
432.03	2492.67
432.22	2490.33
432.41	2408.41
432.60	2534.80
432.79	2469.27
432.97	2569.91
433.16	2417.77
433.35	2380.32
433.54	2602.68
433.72	2555.86
433.91	2483.31
434.10	2558.21
434.28	2403.73
434.47	2626.08
434.66	2525.44
434.85	2696.30
435.03	2509.05
435.22	2588.63
435.41	2733.75
435.59	2661.19
435.78	2757.15
435.97	2595.65
436.16	2820.35
436.34	2637.78
436.53	2668.21
436.72	2843.75
436.90	2710.34
437.09	2771.19
437.28	2827.37
437.46	2761.83
437.65	2871.84
437.84	2888.22
438.02	2846.09
438.21	2796.94
438.40	2928.01
438.58	2965.46
438.77	2963.12
438.96	2864.82
439.14	2911.63
439.33	3000.57
439.52	3014.61
439.70	2988.86
439.89	3002.91
440.08	3143.34
440.26	3059.08
440.45	3023.97
440.63	3103.55
440.82	3178.45
441.01	3192.49
441.19	3197.17
441.38	3258.03
441.57	3262.71
441.75	3267.39
441.94	3323.56
442.12	3269.73
442.31	3307.18
442.50	3379.73
442.68	3356.33
442.87	3407.82
443.05	3316.54
443.24	3358.67
443.43	3384.41
443.61	3431.23
443.80	3625.49
443.98	3293.13
444.17	3372.71
444.35	3503.78
444.54	3707.41
444.73	3552.93
444.91	3531.87
445.10	3442.93
445.28	3433.57
445.47	3506.12
445.65	3623.15
445.84	3499.10
446.02	3487.40
446.21	3403.14
446.39	3543.57
446.58	3403.14
446.77	3574.00
446.95	3531.87
447.14	3449.95
447.32	3669.96
447.51	3695.71
447.69	3581.02
447.88	3520.17
448.06	3674.64
448.25	3627.83
448.43	3571.66
448.62	3693.37
448.80	3726.13
448.99	3653.58
449.17	3737.84
449.36	3576.34
449.54	3845.50
449.73	3747.20
449.91	3714.43
450.10	3763.58
450.28	3726.13
450.46	3702.73
450.65	3889.97
450.83	3843.16
451.02	3885.29
451.20	3843.16
451.39	3875.93
451.57	3892.31
451.76	4021.04
451.94	3901.67
452.13	3925.08
452.31	3915.72
452.49	3775.28
452.68	3831.46
452.86	4042.11
453.05	3925.08
453.23	4121.68
453.42	4117.00
453.60	3908.69
453.78	3948.48
453.97	3901.67
454.15	4039.76
454.34	3929.76
454.52	4250.41
454.70	4049.13
454.89	4210.62
455.07	4173.18
455.26	4269.14
455.44	4243.39
455.62	4119.34
455.81	4252.75
455.99	4301.90
456.17	4217.65
456.36	4142.75
456.54	4252.75
456.73	4306.59
456.91	4435.32
457.09	4418.93
457.28	4496.17
457.46	4390.84
457.64	4564.04
457.83	4456.38
458.01	4395.53
458.19	4468.08
458.38	4486.81
458.56	4617.88
458.74	4578.09
458.93	4533.62
459.11	4526.60
459.29	4468.08
459.48	4746.61
459.66	4414.25
459.84	4559.36
460.03	4695.11
460.21	4638.94
460.39	4601.49
460.57	4575.75
460.76	4643.62
460.94	4519.57
461.12	4667.03
461.31	4788.74
461.49	4828.53
461.67	4793.42
461.85	4706.82
462.04	4791.08
462.22	5102.37
462.40	4802.78
462.59	4837.89
462.77	4837.89
462.95	4936.19
463.13	4994.70
463.32	4938.53
463.50	5029.81
463.68	4954.91
463.86	4889.38
464.05	4805.12
464.23	4940.87
464.41	4858.95
464.59	4842.57
464.78	4987.68
464.96	5062.58
465.14	4936.19
465.32	4868.31
465.50	4926.83
465.69	5156.20
465.87	5167.90
466.05	5104.71
466.23	5060.24
466.41	5221.74
466.60	5235.78
466.78	5160.88
466.96	4978.32
467.14	5114.07
467.32	5167.90
467.51	5247.48
467.69	5118.75
467.87	5242.80
468.05	5334.08
468.23	5369.19
468.41	5291.95
468.60	5249.82
468.78	5249.82
468.96	5352.81
469.14	5296.63
469.32	5277.91
469.50	5348.12
469.69	5474.51
469.87	5401.96
470.05	5334.08
470.23	5537.71
470.41	5493.24
470.59	5673.46
470.77	5535.37
470.95	5603.24
471.14	5664.10
471.32	5575.16
471.50	5617.29
471.68	5898.15
471.86	5636.01
472.04	5783.46
472.22	5898.15
472.40	5713.25
472.58	6043.26
472.77	5930.92
472.95	5827.93
473.13	6057.31
473.31	5977.73
473.49	5827.93
473.67	5998.79
473.85	6057.31
474.03	6120.50
474.21	6045.60
474.39	6228.17
474.57	6022.20
474.75	6218.80
474.93	6136.88
475.12	6382.64
475.30	6497.33
475.48	6286.68
475.66	6392.00
475.84	6478.60
476.02	6420.09
476.20	6413.07
476.38	6637.76
476.56	6815.64
476.74	6710.32
476.92	6553.50
477.10	6766.49
477.28	6600.31
477.46	6637.76
477.64	6988.84
477.82	6862.45
478.00	7227.57
478.18	7061.40
478.36	7445.24
478.54	7414.82
478.72	7288.43
478.90	7276.73
479.08	7304.81
479.26	7414.82
479.44	7382.05
479.62	7405.46
479.80	7449.93
479.98	7588.02
480.16	7648.87
480.34	7660.57
480.52	7770.58
480.70	7749.51
480.88	7569.29
481.06	8021.02
481.24	7772.92
481.41	7976.55
481.59	8035.06
481.77	7866.54
481.95	8163.79
482.13	8290.18
482.31	8215.28
482.49	8458.70
482.67	8372.10
482.85	8655.30
483.03	8704.45
483.21	8692.75
483.39	8718.50
483.57	8938.51
483.74	8858.93
483.92	8842.54
484.10	8889.35
484.28	9095.32
484.46	9310.65
484.64	9331.72
484.82	9224.05
485.00	9291.93
485.18	9385.55
485.35	9362.14
485.53	9816.21
485.71	9612.58
485.89	9785.78
486.07	9781.10
486.25	9509.60
486.43	9706.20
486.61	9760.03
486.78	10164.95
486.96	10008.13
487.14	10410.70
487.32	10244.52
487.50	10305.38
487.68	10373.25
487.85	10368.57
488.03	10843.70
488.21	10810.93
488.39	10899.87
488.57	10836.68
488.75	10892.85
488.92	11243.93
489.10	11145.63
489.28	11056.69
489.46	11501.39
489.64	11389.05
489.81	11702.68
489.99	11602.04
490.17	11499.05
490.35	11838.43
490.53	11686.29
490.70	11875.88
490.88	11850.13
491.06	11798.64
491.24	12142.70
491.41	12292.49
491.59	12343.99
491.77	12299.52
491.95	12308.88
492.13	12468.03
492.30	12446.97
492.48	12549.95
492.66	12477.40
492.84	12404.84
493.01	12657.62
493.19	12823.80
493.37	12903.37
493.54	12898.69
493.72	13158.49
493.90	13231.05
494.08	13207.64
494.25	13371.48
494.43	13202.96
494.61	13748.31
494.79	13614.90
494.96	13558.72
495.14	13542.34
495.32	13853.63
495.49	13703.84
495.67	14064.28
495.85	13982.36
496.02	14036.19
496.20	14129.81
496.38	14232.80
496.55	14176.62
496.73	14611.96
496.91	14464.51
497.09	14494.94
497.26	14677.50
497.44	14712.61
497.62	14441.11
497.79	14911.55
497.97	14860.06
498.14	14829.63
498.32	15253.27
498.50	15047.30
498.67	15384.34
498.85	15169.01
499.03	15470.94
499.20	15382.00
499.38	15370.30
499.56	15508.39
499.73	15665.21
499.91	15929.69
500.08	15754.15
500.26	15648.82
500.44	15751.81
500.61	15836.06
500.79	15889.90
500.97	15962.45
501.14	16290.13
501.32	16166.08
501.49	15922.66
501.67	16194.17
501.84	16147.36
502.02	16051.39
502.20	16407.16
502.37	16575.67
502.55	16526.52
502.72	16730.15
502.90	16238.64
503.07	16624.83
503.25	16737.17
503.43	16695.04
503.60	16807.39
503.78	16994.63
503.95	16819.09
504.13	17011.01
504.30	17029.74
504.48	16952.50
504.65	17202.94
504.83	17336.35
505.01	17165.49
505.18	17163.15
505.36	17483.80
505.53	17121.02
505.71	17425.29
505.88	17727.22
506.06	17532.95
506.23	17839.56
506.41	17855.95
506.58	17940.21
506.76	17591.47
506.93	17722.54
507.11	17839.56
507.28	17895.74
507.46	17949.57
507.63	18047.87
507.81	17930.84
507.98	18045.53
508.16	18237.45
508.33	18284.26
508.50	18298.31
508.68	18066.60
508.85	18363.84
509.03	18380.23
509.20	18548.75
509.38	18815.57
509.55	18448.10
509.73	18920.89
509.90	18668.11
510.08	18700.88
510.25	18628.32
510.42	18625.98
510.60	18995.79
510.77	19267.29
510.95	19108.13
511.12	19178.35
511.30	19187.71
511.47	19199.41
511.64	19433.47
511.82	19145.58
511.99	19618.37
512.17	19274.31
512.34	19384.32
512.51	19578.58
512.69	19634.75
512.86	19660.50
513.04	19831.36
513.21	19899.23
513.38	19868.81
513.56	20013.92
513.73	19889.87
513.90	20037.33
514.08	19990.52
514.25	20004.56
514.43	20102.86
514.60	20372.02
514.77	20287.76
514.95	20451.60
515.12	20042.01
515.29	20369.68
515.47	20428.20
515.64	20510.11
515.81	20734.81
515.99	20748.85
516.16	20463.30
516.33	21092.91
516.51	20933.75
516.68	20704.38
516.85	20587.35
517.03	21233.34
517.20	21034.39
517.37	20823.75
517.54	20957.16
517.72	20748.85
517.89	21214.62
518.06	20987.58
518.24	21151.42
518.41	21392.50
518.58	21036.74
518.75	21366.75
518.93	21385.47
519.10	21504.84
519.27	21963.59
519.45	21106.95
519.62	21326.96
519.79	21645.27
519.96	21614.85
520.14	21612.51
520.31	21591.44
520.48	21511.86
520.65	21465.05
520.83	21944.86
521.00	21638.25
521.17	22064.23
521.34	22101.68
521.52	22272.54
521.69	22022.10
521.86	21919.12
522.03	22335.73
522.20	22331.05
522.38	22244.45
522.55	22209.34
522.72	22164.87
522.89	22295.94
523.07	22644.68
523.24	22717.24
523.41	22251.47
523.58	22338.07
523.75	22417.65
523.92	22593.19
524.10	22651.70
524.27	22974.70
524.44	22714.90
524.61	22993.42
524.78	23021.51
524.96	23089.38
525.13	23016.83
525.30	23065.98
525.47	23115.13
525.64	23061.30
525.81	23126.83
525.98	23433.44
526.16	23084.70
526.33	23337.48
526.50	23101.09
526.67	22869.37
526.84	23372.59
527.01	23690.90
527.18	23276.63
527.36	23679.20
527.53	24009.22
527.70	24102.84
527.87	23695.58
528.04	23562.17
528.21	23751.76
528.38	23599.62
528.55	23630.05
528.72	23754.10
528.89	24037.30
529.07	23548.13
529.24	23908.57
529.41	23913.25
529.58	24137.94
529.75	24215.18
529.92	24245.61
530.09	24004.53
530.26	24037.30
530.43	24446.90
530.60	24374.34
530.77	24222.20
530.94	24498.39
531.11	24215.18
531.28	24142.63
531.46	24339.23
531.63	24451.58
531.80	24465.62
531.97	24903.30
532.14	24842.45
532.31	24624.78
532.48	24650.52
532.65	24762.87
532.82	24489.03
532.99	24627.12
533.16	24552.22
533.33	25296.51
533.50	24905.64
533.67	25118.63
533.84	24758.19
534.01	24606.05
534.18	24549.88
534.35	24994.58
534.52	24985.22
534.69	24767.55
534.86	25195.87
535.03	25135.01
535.20	25228.63
535.37	25179.48
535.54	25551.63
535.71	25116.29
535.88	25509.50
536.05	25715.47
536.22	25486.09
536.38	25617.16
536.55	25329.28
536.72	25825.47
536.89	25413.54
537.06	25769.30
537.23	25584.40
537.40	25593.76
537.57	25717.81
537.74	25802.07
537.91	25734.19
538.08	25905.05
538.25	25811.43
538.42	25802.07
538.59	26015.05
538.75	25671.00
538.92	25729.51
539.09	25865.26
539.26	26094.63
539.43	25823.13
539.60	25736.53
539.77	25907.39
539.94	25958.88
540.11	26209.32
540.28	26120.38
540.44	26115.70
540.61	26581.46
540.78	25928.45
540.95	26239.75
541.12	26558.06
541.29	26492.52
541.46	26375.50
541.62	26363.79
541.79	26544.02
541.96	26094.63
542.13	26024.42
542.30	26604.87
542.47	26951.27
542.63	26864.67
542.80	27021.48
542.97	26529.97
543.14	26923.18
543.31	26607.21
543.48	26888.07
543.64	27094.04
543.81	26902.12
543.98	27271.92
544.15	27534.06
544.32	27255.54
544.48	27211.07
544.65	26934.88
544.82	27384.27
544.99	26972.33
545.16	27021.48
545.32	26885.73
545.49	27084.68
545.66	27527.04
545.83	27674.49
546.00	27505.98
546.16	27143.19
546.33	27534.06
546.50	27058.93
546.67	27744.71
546.83	27208.73
547.00	27475.55
547.17	27559.81
547.34	27358.52
547.50	27768.12
547.67	27653.43
547.84	27887.48
548.00	27847.69
548.17	27676.83
548.34	27688.54
548.51	27938.97
548.67	27873.44
548.84	27613.64
549.01	28025.57
549.18	27920.25
549.34	27805.56
549.51	28065.36
549.68	27878.12
549.84	27777.48
550.01	28004.51
550.18	27789.18
550.34	27857.06
550.51	28332.18
550.68	28229.20
550.84	27997.49
551.01	28694.97
551.18	28081.75
551.34	28027.92
551.51	28341.55
551.68	28498.36
551.84	28463.25
552.01	28254.95
552.18	28367.29
552.34	28058.34
552.51	28156.64
552.68	28463.25
552.84	28563.90
553.01	28624.75
553.18	28126.22
553.34	28596.67
553.51	28545.17
553.67	28463.25
553.84	29034.35
554.01	28945.41
554.17	28701.99
554.34	28641.14
554.51	28554.54
554.67	28634.11
554.84	28737.10
555.00	28751.14
555.17	28531.13
555.33	28819.02
555.50	28673.90
555.67	28577.94
555.83	29134.99
556.00	28512.41
556.16	28816.68
556.33	29118.60
556.50	29057.75
556.66	29144.35
556.83	28889.23
556.99	28947.75
557.16	29242.65
557.32	29369.04
557.49	28973.49
557.65	28489.00
557.82	28606.03
557.98	28828.38
558.15	29394.79
558.32	29326.91
558.48	28760.50
558.65	29518.84
558.81	29259.04
558.98	29198.18
559.14	29589.05
559.31	29151.37
559.47	29476.71
559.64	29237.97
559.80	29212.23
559.97	29638.20
560.13	29198.18
560.30	29523.52
560.46	29722.46
560.63	29680.33
560.79	29848.85
560.96	29839.49
561.12	29457.98
561.29	29308.19
561.45	29429.90
561.61	29635.86
561.78	30071.20
561.94	29364.36
562.11	29827.79
562.27	29867.58
562.44	29518.84
562.60	29528.20
562.77	29764.59
562.93	29518.84
563.10	29858.21
563.26	29923.75
563.42	30064.18
563.59	29350.32
563.75	29696.72
563.92	29539.90
564.08	29666.29
564.24	30359.09
564.41	29593.73
564.57	29514.16
564.74	29792.68
564.90	29851.19
565.07	30089.93
565.23	30099.29
565.39	30005.67
565.56	29694.38
565.72	29890.98
565.88	29778.64
566.05	29970.56
566.21	29954.18
566.38	29390.11
566.54	30052.48
566.70	29890.98
566.87	30623.57
567.03	30293.55
567.19	30506.54
567.36	30066.52
567.52	30354.41
567.68	29975.24
567.85	30082.91
568.01	29848.85
568.17	30462.07
568.34	29905.02
568.50	29895.66
568.66	30096.95
568.83	30405.90
568.99	29734.17
569.15	30031.41
569.32	29965.88
569.48	30033.75
569.64	30267.81
569.81	29970.56
569.97	30050.14
570.13	30295.89
570.30	30132.06
570.46	30127.38
570.62	29778.64
570.78	30178.87
570.95	30213.98
571.11	30431.65
571.27	30216.32
571.43	30359.09
571.60	30373.13
571.76	30237.38
571.92	30038.44
572.09	30169.51
572.25	30199.93
572.41	30616.55
572.57	30527.61
572.74	30574.42
572.90	30654.00
573.06	30190.57
573.22	30188.23
573.38	30295.89
573.55	30209.29
573.71	30888.05
573.87	30263.13
574.03	30466.75
574.20	30356.75
574.36	30127.38
574.52	30323.98
574.68	30492.50
574.84	30462.07
575.01	30394.20
575.17	30366.11
575.33	30548.67
575.49	30298.23
575.65	30616.55
575.82	30558.03
575.98	30649.32
576.14	30721.87
576.30	30270.15
576.46	30279.51
576.62	30295.89
576.79	30419.94
576.95	30644.63
577.11	30834.22
577.27	30543.99
577.43	30642.29
577.59	30546.33
577.75	30462.07
577.92	30202.27
578.08	30665.70
578.24	30586.12
578.40	30665.70
578.56	30445.69
578.72	30780.39
578.88	30864.64
579.04	30513.56
579.21	30766.34
579.37	30462.07
579.53	30625.91
579.69	30082.91
579.85	30562.72
580.01	30583.78
580.17	30167.16
580.33	30494.84
580.49	30483.14
580.65	30359.09
580.82	30581.44
580.98	30532.29
581.14	30836.56
581.30	31112.74
581.46	30717.19
581.62	30551.01
581.78	30384.83
581.94	30637.61
582.10	30338.02
582.26	30705.49
582.42	31084.65
582.58	31075.29
582.74	30967.63
582.90	31110.40
583.06	30909.11
583.22	30408.24
583.38	30714.85
583.54	30717.19
583.70	30380.15
583.86	30506.54
584.02	30338.02
584.18	30862.30
584.34	31115.08
584.50	30721.87
584.66	30813.15
584.82	30831.88
584.98	30604.84
585.14	30391.86
585.30	30352.07
585.46	30609.53
585.62	30464.41
585.78	30925.50
585.94	30895.07
586.10	30796.77
586.26	30859.96
586.42	31332.75
586.58	31007.42
586.74	30991.03
586.90	30497.18
587.06	30569.74
587.22	30724.21
587.38	30555.69
587.54	31208.70
587.70	31117.42
587.86	30494.84
588.02	30768.68
588.18	31346.79
588.34	30958.27
588.49	31026.14
588.65	30834.22
588.81	30801.45
588.97	31023.80
589.13	30735.92
589.29	31033.16
589.45	30752.30
589.61	30965.29
589.77	31304.67
589.93	31021.46
590.08	31374.88
590.24	31072.95
590.40	31056.57
590.56	30934.86
590.72	31096.36
590.88	30588.46
591.04	30953.58
591.20	31082.31
591.35	31330.41
591.51	31211.04
591.67	30953.58
591.83	31180.62
591.99	31559.78
