SpectraSuite Data File
++++++++++++++++++++++++++++++++++++
Date: Fri Oct 18 13:58:31 GMT-05:00 2013
User: bianchi
Dark Spectrum Present: No
Reference Spectrum Present: No
Number of Sampled Component Spectra: 1
Spectrometers: USB2+H05261
Integration Time (usec): 50000 (USB2+H05261)
Spectra Averaged: 1 (USB2+H05261)
Boxcar Smoothing: 0 (USB2+H05261)
Correct for Electrical Dark: No (USB2+H05261)
Strobe/Lamp Enabled: No (USB2+H05261)
Correct for Detector Non-linearity: No (USB2+H05261)
Correct for Stray Light: No (USB2+H05261)
Number of Pixels in Processed Spectrum: 2048
>>>>>Begin Processed Spectral Data<<<<<
365.73	0.00
365.92	0.00
366.12	0.00
366.32	0.00
366.52	0.00
366.72	0.00
366.91	0.00
367.11	0.00
367.31	0.00
367.51	0.00
367.70	0.00
367.90	0.00
368.10	0.00
368.30	0.00
368.49	0.00
368.69	0.00
368.89	0.00
369.09	0.00
369.28	0.00
369.48	0.00
369.68	0.00
369.87	0.00
370.07	0.00
370.27	0.00
370.47	0.00
370.66	14.04
370.86	77.24
371.06	114.69
371.25	184.90
371.45	128.73
371.65	142.77
371.84	128.73
372.04	142.77
372.24	98.30
372.44	184.90
372.63	187.24
372.83	236.39
373.03	138.09
373.22	140.43
373.42	142.77
373.62	210.65
373.81	198.95
374.01	196.60
374.21	229.37
374.40	248.10
374.60	273.84
374.79	177.88
374.99	187.24
375.19	208.31
375.38	229.37
375.58	224.69
375.78	287.89
375.97	236.39
376.17	248.10
376.37	330.02
376.56	257.46
376.76	238.73
376.95	220.01
377.15	259.80
377.35	215.33
377.54	306.61
377.74	234.05
377.93	227.03
378.13	259.80
378.33	266.82
378.52	358.10
378.72	271.50
378.91	294.91
379.11	287.89
379.31	285.55
379.50	220.01
379.70	379.17
379.89	353.42
380.09	376.83
380.28	341.72
380.48	306.61
380.68	294.91
380.87	320.65
381.07	283.20
381.26	367.46
381.46	337.04
381.65	292.57
381.85	327.68
382.04	259.80
382.24	344.06
382.43	308.95
382.63	320.65
382.83	344.06
383.02	372.15
383.22	355.76
383.41	280.86
383.61	285.55
383.80	423.64
384.00	393.21
384.19	395.55
384.39	402.57
384.58	337.04
384.78	353.42
384.97	397.89
385.17	449.38
385.36	311.29
385.56	376.83
385.75	428.32
385.95	337.04
386.14	381.51
386.34	430.66
386.53	475.13
386.72	381.51
386.92	475.13
387.11	454.06
387.31	456.40
387.50	479.81
387.70	337.04
387.89	383.85
388.09	297.25
388.28	433.00
388.48	468.11
388.67	376.83
388.86	437.68
389.06	386.19
389.25	463.43
389.45	430.66
389.64	447.04
389.84	507.90
390.03	416.62
390.22	447.04
390.42	376.83
390.61	397.89
390.81	437.68
391.00	479.81
391.19	458.74
391.39	468.11
391.58	442.36
391.78	521.94
391.97	528.96
392.16	526.62
392.36	498.53
392.55	500.87
392.75	543.00
392.94	524.28
393.13	645.99
393.33	561.73
393.52	540.66
393.71	533.64
393.91	571.09
394.10	617.90
394.29	566.41
394.49	545.34
394.68	641.31
394.88	496.19
395.07	587.47
395.26	561.73
395.46	636.63
395.65	589.82
395.84	713.86
396.04	706.84
396.23	587.47
396.42	631.94
396.62	648.33
396.81	634.29
397.00	631.94
397.19	648.33
397.39	706.84
397.58	664.71
397.77	688.12
397.97	795.78
398.16	681.10
398.35	751.31
398.55	660.03
398.74	606.20
398.93	690.46
399.12	664.71
399.32	709.18
399.51	805.14
399.70	697.48
399.90	697.48
400.09	718.54
400.28	779.40
400.47	791.10
400.67	755.99
400.86	723.23
401.05	720.88
401.24	758.33
401.44	753.65
401.63	767.70
401.82	791.10
402.01	732.59
402.21	856.64
402.40	793.44
402.59	770.04
402.78	784.08
402.97	840.25
403.17	896.43
403.36	814.51
403.55	765.36
403.74	880.04
403.93	952.60
404.13	919.83
404.32	786.42
404.51	978.34
404.70	880.04
404.89	842.59
405.09	903.45
405.28	959.62
405.47	868.34
405.66	896.43
405.85	961.96
406.05	866.00
406.24	1025.15
406.43	880.04
406.62	976.00
406.81	1034.52
407.00	1062.60
407.20	947.92
407.39	994.73
407.58	1046.22
407.77	1104.73
407.96	994.73
408.15	1083.67
408.34	1076.65
408.54	987.71
408.73	1100.05
408.92	1057.92
409.11	1111.75
409.30	1121.12
409.49	1011.11
409.68	1104.73
409.87	1158.57
410.07	1086.01
410.26	1219.42
410.45	1135.16
410.64	1139.84
410.83	1130.48
411.02	1151.54
411.21	1165.59
411.40	1146.86
411.59	1280.27
411.78	1226.44
411.98	1226.44
412.17	1212.40
412.36	1336.45
412.55	1207.72
412.74	1352.83
412.93	1277.93
413.12	1217.08
413.31	1401.98
413.50	1338.79
413.69	1413.68
413.88	1366.87
414.07	1533.05
414.26	1359.85
414.45	1448.79
414.64	1481.56
414.83	1497.94
415.02	1458.15
415.22	1572.84
415.41	1469.86
415.60	1528.37
415.79	1511.99
415.98	1472.20
416.17	1664.12
416.36	1544.75
416.55	1626.67
416.74	1586.88
416.93	1607.95
417.12	1673.48
417.31	1631.35
417.50	1650.08
417.69	1748.38
417.88	1771.79
418.07	1626.67
418.26	1708.59
418.45	1673.48
418.64	1818.60
418.83	1753.06
419.02	1680.50
419.21	1825.62
419.39	1746.04
419.58	1720.29
419.77	1797.53
419.96	1825.62
420.15	1797.53
420.34	1849.02
420.53	1842.00
420.72	1872.43
420.91	1811.57
421.10	1827.96
421.29	1902.86
421.48	1893.49
421.67	1926.26
421.86	1912.22
422.05	1851.36
422.24	1881.79
422.43	1928.60
422.61	2040.95
422.80	1928.60
422.99	1902.86
423.18	2043.29
423.37	1982.43
423.56	1968.39
423.75	1982.43
423.94	1982.43
424.13	1846.68
424.32	1919.24
424.50	2059.67
424.69	2120.53
424.88	2122.87
425.07	2003.50
425.26	1952.01
425.45	2010.52
425.64	1961.37
425.83	2024.56
426.01	2064.35
426.20	1921.58
426.39	2010.52
426.58	1867.75
426.77	2066.69
426.96	2033.93
427.15	2026.90
427.33	2139.25
427.52	2113.50
427.71	2026.90
427.90	2045.63
428.09	2036.27
428.28	2160.31
428.46	2136.91
428.65	2223.51
428.84	2202.44
429.03	2214.15
429.22	2113.50
429.40	2260.96
429.59	2258.62
429.78	2157.97
429.97	2080.74
430.16	2193.08
430.34	2263.30
430.53	2256.28
430.72	2300.75
430.91	2232.87
431.10	2157.97
431.28	2347.56
431.47	2244.57
431.66	2282.02
431.85	2328.83
432.03	2363.94
432.22	2438.84
432.41	2424.80
432.60	2335.85
432.79	2464.58
432.97	2417.77
433.16	2317.13
433.35	2413.09
433.54	2469.27
433.72	2523.10
433.91	2438.84
434.10	2413.09
434.28	2509.05
434.47	2597.99
434.66	2506.71
434.85	2457.56
435.03	2459.90
435.22	2483.31
435.41	2722.04
435.59	2691.62
435.78	2661.19
435.97	2576.93
436.16	2619.06
436.34	2516.08
436.53	2527.78
436.72	2722.04
436.90	2642.46
437.09	2541.82
437.28	2684.59
437.46	2612.04
437.65	2785.24
437.84	2787.58
438.02	2782.90
438.21	2656.51
438.40	2691.62
438.58	2771.19
438.77	2829.71
438.96	2834.39
439.14	2864.82
439.33	2988.86
439.52	2949.08
439.70	2984.18
439.89	2963.12
440.08	2993.55
440.26	3016.95
440.45	3124.62
440.63	3075.46
440.82	2977.16
441.01	2984.18
441.19	3133.98
441.38	3222.92
441.57	3215.90
441.75	2995.89
441.94	3117.59
442.12	3164.40
442.31	3309.52
442.50	3103.55
442.68	3297.81
442.87	3375.05
443.05	3281.43
443.24	3220.58
443.43	3389.10
443.61	3382.07
443.80	3545.91
443.98	3258.03
444.17	3138.66
444.35	3351.65
444.54	3433.57
444.73	3283.77
444.91	3309.52
445.10	3428.88
445.28	3335.26
445.47	3370.37
445.65	3239.30
445.84	3524.85
446.02	3403.14
446.21	3225.26
446.39	3499.10
446.58	3581.02
446.77	3517.83
446.95	3372.71
447.14	3492.08
447.32	3396.12
447.51	3382.07
447.69	3325.90
447.88	3428.88
448.06	3344.63
448.25	3382.07
448.43	3597.40
448.62	3433.57
448.80	3323.56
448.99	3548.25
449.17	3513.14
449.36	3527.19
449.54	3627.83
449.73	3726.13
449.91	3625.49
450.10	3576.34
450.28	3840.82
450.46	3606.77
450.65	3585.70
450.83	3653.58
451.02	3646.55
451.20	3805.71
451.39	3805.71
451.57	3714.43
451.76	3581.02
451.94	3751.88
452.13	3868.91
452.31	3822.09
452.49	3768.26
452.68	3822.09
452.86	3679.32
453.05	3889.97
453.23	3868.91
453.42	3672.30
453.60	3648.90
453.78	3777.62
453.97	3861.88
454.15	3880.61
454.34	3801.03
454.52	3948.48
454.70	4002.32
454.89	3967.21
455.07	4093.60
455.26	3992.95
455.44	3969.55
455.62	3997.64
455.81	3950.82
455.99	4208.28
456.17	4044.45
456.36	4084.23
456.54	4238.71
456.73	4234.03
456.91	4320.63
457.09	4147.43
457.28	4210.62
457.46	4063.17
457.64	4304.25
457.83	4065.51
458.01	4217.65
458.19	4402.55
458.38	4184.88
458.56	4315.95
458.74	4217.65
458.93	4498.51
459.11	4404.89
459.29	4425.95
459.48	4514.89
459.66	4360.42
459.84	4383.82
460.03	4458.72
460.21	4404.89
460.39	4531.28
460.57	4610.86
460.76	4575.75
460.94	4585.11
461.12	4545.32
461.31	4557.02
461.49	4601.49
461.67	4557.02
461.85	4575.75
462.04	4554.68
462.22	4594.47
462.40	4678.73
462.59	4624.90
462.77	4772.35
462.95	4812.14
463.13	4730.22
463.32	4725.54
463.50	4751.29
463.68	4840.23
463.86	4725.54
464.05	4638.94
464.23	4732.56
464.41	4774.69
464.59	4704.48
464.78	4926.83
464.96	4884.70
465.14	4887.04
465.32	4903.42
465.50	5062.58
465.69	5018.11
465.87	4833.21
466.05	4751.29
466.23	4889.38
466.41	4837.89
466.60	5011.09
466.78	4823.84
466.96	4957.25
467.14	4973.64
467.32	4912.78
467.51	5064.92
467.69	5090.67
467.87	4880.02
468.05	5095.35
468.23	5088.32
468.41	5064.92
468.60	5139.82
468.78	5184.29
468.96	5071.94
469.14	5064.92
469.32	5289.61
469.50	5088.32
469.69	5238.12
469.87	5238.12
470.05	5170.24
470.23	5385.57
470.41	5359.83
470.59	5322.38
470.77	5453.45
470.95	5280.25
471.14	5341.10
471.32	5350.46
471.50	5589.20
471.68	5408.98
471.86	5579.84
472.04	5582.18
472.22	5640.69
472.40	5523.66
472.58	5514.30
472.77	5551.75
472.95	5673.46
473.13	5813.89
473.31	5748.36
473.49	5668.78
473.67	5734.31
473.85	5746.02
474.03	5940.28
474.21	5846.66
474.39	5933.26
474.57	5944.96
474.75	6019.86
474.93	6211.78
475.12	6047.94
475.30	6111.14
475.48	5944.96
475.66	6132.20
475.84	6061.99
476.02	6333.49
476.20	6366.26
476.38	6452.86
476.56	6436.47
476.74	6403.71
476.92	6424.77
477.10	6497.33
477.28	6590.95
477.46	6656.48
477.64	6817.98
477.82	6700.95
478.00	6801.60
478.18	6764.15
478.36	6892.88
478.54	7133.95
478.72	7052.03
478.90	7129.27
479.08	6911.60
479.26	7054.37
479.44	6986.50
479.62	7368.01
479.80	7140.97
479.98	7276.73
480.16	7377.37
480.34	7358.64
480.52	7489.71
480.70	7515.46
480.88	7358.64
481.06	7571.63
481.24	7716.75
481.41	7801.01
481.59	7833.77
481.77	7908.67
481.95	8011.65
482.13	7868.88
482.31	7990.59
482.49	8105.28
482.67	7990.59
482.85	8372.10
483.03	8446.99
483.21	8454.02
483.39	8219.96
483.57	8341.67
483.74	8505.51
483.92	8411.89
484.10	8596.79
484.28	8755.94
484.46	8982.98
484.64	9032.13
484.82	9022.77
485.00	8882.33
485.18	9015.74
485.35	9479.17
485.53	9153.84
485.71	9167.88
485.89	9315.33
486.07	9486.19
486.25	9317.67
486.43	9418.32
486.61	9753.01
486.78	9554.07
486.96	9568.11
487.14	9753.01
487.32	9879.40
487.50	9837.27
487.68	10008.13
487.85	10363.89
488.03	10427.09
488.21	10375.59
488.39	10349.85
488.57	10450.49
488.75	10469.22
488.92	10672.84
489.10	10787.53
489.28	10593.26
489.46	11012.22
489.64	10714.97
489.81	11126.91
489.99	10956.05
490.17	11136.27
490.35	11115.20
490.53	11206.48
490.70	11442.88
490.88	11503.73
491.06	11573.95
491.24	11489.69
491.41	11625.44
491.59	11756.51
491.77	11920.35
491.95	11859.49
492.13	11967.16
492.30	11967.16
492.48	11995.25
492.66	12025.67
492.84	12084.19
493.01	12449.31
493.19	12339.30
493.37	12475.06
493.54	12351.01
493.72	12720.81
493.90	12566.34
494.08	12774.64
494.25	12954.87
494.43	12931.46
494.61	12940.82
494.79	13163.17
494.96	13076.57
495.14	13015.72
495.32	13284.88
495.49	13280.20
495.67	13455.74
495.85	13701.50
496.02	13657.03
496.20	13736.60
496.38	13776.39
496.55	13731.92
496.73	13958.96
496.91	13774.05
497.09	14113.43
497.26	14377.91
497.44	14129.81
497.62	14459.83
497.79	14209.39
497.97	14408.34
498.14	14267.91
498.32	14621.33
498.50	14527.71
498.67	14530.05
498.85	14590.90
499.03	14661.12
499.20	14679.84
499.38	14913.89
499.56	15152.63
499.73	14841.34
499.91	15047.30
500.08	15267.31
500.26	14906.87
500.44	15227.53
500.61	15159.65
500.79	15321.15
500.97	15475.62
501.14	15433.49
501.32	15597.33
501.49	15747.12
501.67	15632.44
501.84	15524.77
502.02	15625.42
502.20	15747.12
502.37	16011.60
502.55	15770.53
502.72	15763.51
502.90	15995.22
503.07	15925.00
503.25	16009.26
503.43	15941.39
503.60	16091.18
503.78	16025.65
503.95	16372.05
504.13	16297.15
504.30	15995.22
504.48	16194.17
504.65	16332.26
504.83	16496.10
505.01	16760.58
505.18	16669.30
505.36	16919.73
505.53	16580.36
505.71	16601.42
505.88	16720.79
506.06	16662.27
506.23	16720.79
506.41	16781.64
506.58	17003.99
506.76	17055.48
506.93	17174.85
507.11	17160.81
507.28	17121.02
507.46	17418.27
507.63	17184.21
507.81	17369.12
507.98	17326.99
508.16	17626.57
508.33	17455.72
508.50	17453.37
508.68	17542.32
508.85	17614.87
509.03	17727.22
509.20	17647.64
509.38	17893.40
509.55	18024.47
509.73	18043.19
509.90	18073.62
510.08	17965.95
510.25	18307.67
510.42	18082.98
510.60	18518.32
510.77	18420.02
510.95	18609.60
511.12	18457.46
511.30	18616.62
511.47	18633.00
511.64	18307.67
511.82	18689.18
511.99	18324.05
512.17	18682.16
512.34	18672.79
512.51	18710.24
512.69	18831.95
512.86	18562.79
513.04	18948.98
513.21	19143.24
513.38	19070.68
513.56	19096.43
513.73	19103.45
513.90	19075.37
514.08	19124.52
514.25	19360.91
514.43	19234.52
514.60	19360.91
514.77	19351.55
514.95	19499.00
515.12	19569.22
515.29	19260.27
515.47	19433.47
515.64	19559.86
515.81	19651.14
515.99	19840.72
516.16	19892.21
516.33	20065.41
516.51	19887.53
516.68	19688.59
516.85	19822.00
517.03	20180.10
517.20	19943.70
517.37	20257.34
517.54	20229.25
517.72	20149.67
517.89	20421.17
518.06	20255.00
518.24	20512.46
518.41	20163.72
518.58	20409.47
518.75	20482.03
518.93	20449.26
519.10	20470.33
519.27	20730.12
519.45	20470.33
519.62	20332.23
519.79	20772.25
519.96	21043.76
520.14	20931.41
520.31	20608.42
520.48	21219.30
520.65	20769.91
520.83	20884.60
521.00	20786.30
521.17	20788.64
521.34	21123.33
521.52	21238.02
521.69	21348.03
521.86	21111.63
522.03	21425.26
522.20	21191.21
522.38	21577.40
522.55	21469.73
522.72	21359.73
522.89	21474.42
523.07	21687.40
523.24	21792.73
523.41	21649.96
523.58	21310.58
523.75	21902.73
523.92	21624.21
524.10	21837.20
524.27	21869.97
524.44	21982.31
524.61	21986.99
524.78	21785.71
524.96	22036.14
525.13	22185.94
525.30	22015.08
525.47	22073.59
525.64	22120.40
525.81	22104.02
525.98	22274.88
526.16	22218.71
526.33	22265.52
526.50	22335.73
526.67	22270.20
526.84	22403.61
527.01	22560.42
527.18	22597.87
527.36	22614.26
527.53	22888.10
527.70	22848.31
527.87	22572.13
528.04	22750.01
528.21	23098.75
528.38	22637.66
528.55	23054.28
528.72	22810.86
528.89	22855.33
529.07	23042.57
529.24	23192.37
529.41	22965.34
529.58	22937.25
529.75	22602.55
529.92	23234.50
530.09	23091.73
530.26	23400.68
530.43	23288.33
530.60	22965.34
530.77	23140.88
530.94	23117.47
531.11	23293.01
531.28	23257.90
531.46	23484.94
531.63	23398.34
531.80	23522.38
531.97	23620.69
532.14	23388.97
532.31	23639.41
532.48	23814.95
532.65	23608.98
532.82	23758.78
532.99	23707.29
533.16	23508.34
533.33	23679.20
533.50	24308.80
533.67	24067.73
533.84	23765.80
534.01	23632.39
534.18	23931.98
534.35	23962.40
534.52	24098.16
534.69	24081.77
534.86	24114.54
535.03	24121.56
535.20	23875.80
535.37	24196.46
535.54	24372.00
535.71	24177.73
535.88	24346.25
536.05	24102.84
536.22	24367.32
536.38	24751.17
536.55	24350.93
536.72	24451.58
536.89	24692.65
537.06	24577.97
537.23	24594.35
537.40	24741.80
537.57	24474.98
537.74	24816.70
537.91	24943.09
538.08	24982.88
538.25	25006.28
538.42	25020.33
538.59	24840.11
538.75	24430.51
538.92	24755.85
539.09	24879.89
539.26	24893.94
539.43	24968.84
539.60	25425.24
539.77	24961.81
539.94	24945.43
540.11	24870.53
540.28	25008.62
540.44	25273.10
540.61	25088.20
540.78	25022.67
540.95	25516.52
541.12	25216.93
541.29	25324.60
541.46	25511.84
541.62	25153.74
541.79	25104.59
541.96	24933.73
542.13	25366.73
542.30	25406.52
542.47	25773.98
542.63	25731.85
542.80	25455.67
542.97	25935.48
543.14	25809.09
543.31	25940.16
543.48	25558.65
543.64	25731.85
543.81	25738.87
543.98	26080.59
544.15	26148.46
544.32	26256.13
544.48	26157.83
544.65	26139.10
544.82	25886.32
544.99	25769.30
545.16	25879.30
545.32	26218.68
545.49	26059.52
545.66	26345.07
545.83	26546.36
546.00	26258.47
546.16	26132.08
546.33	26045.48
546.50	26214.00
546.67	26801.47
546.83	26359.11
547.00	26445.71
547.17	26366.13
547.34	26792.11
547.50	26632.96
547.67	26541.68
547.84	26649.34
548.00	26611.89
548.17	26569.76
548.34	26434.01
548.51	26848.29
548.67	26452.73
548.84	26787.43
549.01	26515.93
549.18	26647.00
549.34	26501.89
549.51	26429.33
549.68	26654.02
549.84	26731.26
550.01	26859.99
550.18	27143.19
550.34	26815.52
550.51	27110.43
550.68	27292.99
550.84	26871.69
551.01	26857.65
551.18	26831.90
551.34	27007.44
551.51	26771.05
551.68	27080.00
551.84	27058.93
552.01	26867.01
552.18	27615.98
552.34	27140.85
552.51	27587.89
552.68	27204.05
552.84	27393.63
553.01	27206.39
553.18	27452.14
553.34	27552.79
553.51	27255.54
553.67	27536.40
553.84	27452.14
554.01	27594.92
554.17	27503.64
554.34	27435.76
554.51	27339.80
554.67	27269.58
554.84	27468.53
555.00	27398.31
555.17	27419.38
555.33	27831.31
555.50	27754.07
555.67	27498.95
555.83	27772.80
556.00	28067.70
556.16	28161.33
556.33	28002.17
556.50	27604.28
556.66	27920.25
556.83	27583.21
556.99	27704.92
557.16	27941.32
557.32	28187.07
557.49	27929.61
557.65	27688.54
557.82	27728.33
557.98	27707.26
558.15	27803.22
558.32	28126.22
558.48	27807.90
558.65	27934.29
558.81	27983.44
558.98	28114.52
559.14	28208.14
559.31	27845.35
559.47	27850.03
559.64	27929.61
559.80	28201.11
559.97	28095.79
560.13	28056.00
560.30	28004.51
560.46	28219.84
560.63	28254.95
560.79	28039.62
560.96	28259.63
561.12	28229.20
561.29	28173.03
561.45	28229.20
561.61	28128.56
561.78	28442.19
561.94	28390.70
562.11	28325.16
562.27	28093.45
562.44	28177.71
562.60	28334.53
562.77	28292.40
562.93	28217.50
563.10	28203.46
563.26	28339.21
563.42	28547.51
563.59	28404.74
563.75	28383.68
563.92	28694.97
564.08	28510.07
564.24	28683.27
564.41	28276.01
564.57	28210.48
564.74	28212.82
564.90	28751.14
565.07	28610.71
565.23	28655.18
565.39	28540.49
565.56	28577.94
565.72	28268.99
565.88	28477.30
566.05	28650.50
566.21	28615.39
566.38	28554.54
566.54	28484.32
566.70	29106.90
566.87	29090.52
567.03	28996.90
567.19	29067.11
567.36	28514.75
567.52	28725.39
567.68	28528.79
567.85	28641.14
568.01	28807.31
568.17	28865.83
568.34	28844.76
568.50	28723.05
568.66	28912.64
568.83	29046.05
568.99	28772.21
569.15	29130.31
569.32	28868.17
569.48	28407.08
569.64	28687.95
569.81	28690.29
569.97	28807.31
570.13	28954.77
570.30	28730.08
570.46	28664.54
570.62	28767.52
570.78	28732.42
570.95	28648.16
571.11	29156.05
571.27	28886.89
571.43	29062.43
571.60	28893.91
571.76	28563.90
571.92	29270.74
572.09	28903.28
572.25	29043.71
572.41	28994.56
572.57	28830.72
572.74	28940.72
572.90	28999.24
573.06	28671.56
573.22	29212.23
573.38	28856.46
573.55	28903.28
573.71	29113.92
573.87	29062.43
574.03	29205.20
574.20	29074.13
574.36	28816.68
574.52	28896.25
574.68	29184.14
574.84	28889.23
575.01	28996.90
575.17	28840.08
575.33	28851.78
575.49	28924.34
575.65	29287.12
575.82	29340.96
575.98	28973.49
576.14	29071.79
576.30	28814.34
576.46	29230.95
576.62	28957.11
576.79	29455.64
576.95	29022.64
577.11	29237.97
577.27	29181.80
577.43	29460.32
577.59	29226.27
577.75	29188.82
577.92	29027.32
578.08	28957.11
578.24	29081.16
578.40	28931.36
578.56	29212.23
578.72	29017.96
578.88	29577.35
579.04	29450.96
579.21	29153.71
579.37	28936.04
579.53	29284.78
579.69	29111.58
579.85	29158.39
580.01	29287.12
580.17	29118.60
580.33	29081.16
580.49	28865.83
580.65	29193.50
580.82	29252.02
580.98	29326.91
581.14	29242.65
581.30	29462.66
581.46	29294.14
581.62	28891.57
581.78	29230.95
581.94	29153.71
582.10	29144.35
582.26	29132.65
582.42	29170.10
582.58	28952.43
582.74	29383.09
582.90	29198.18
583.06	29212.23
583.22	29137.33
583.38	29195.84
583.54	28994.56
583.70	29521.18
583.86	29057.75
584.02	29015.62
584.18	29818.42
584.34	29160.73
584.50	29200.52
584.66	29240.31
584.82	29254.36
584.98	29387.77
585.14	29378.40
585.30	29158.39
585.46	29172.44
585.62	29020.30
585.78	29099.88
585.94	29017.96
586.10	29666.29
586.26	28989.88
586.42	29605.44
586.58	29235.63
586.74	29511.81
586.90	28732.42
587.06	29668.63
587.22	29502.45
587.38	29287.12
587.54	29338.62
587.70	29443.94
587.86	29387.77
588.02	29345.64
588.18	29502.45
588.34	29497.77
588.49	29577.35
588.65	29502.45
588.81	29436.92
588.97	28950.09
589.13	29001.58
589.29	29401.81
589.45	29350.32
589.61	29832.47
589.77	29228.61
589.93	29560.97
590.08	29991.62
590.24	29970.56
590.40	29949.50
590.56	29523.52
590.72	29160.73
590.88	29453.30
591.04	29268.40
591.20	29757.57
591.35	29677.99
591.51	29825.45
591.67	29701.40
591.83	29958.86
591.99	29811.40
