SpectraSuite Data File
++++++++++++++++++++++++++++++++++++
Date: Fri Oct 18 13:58:38 GMT-05:00 2013
User: bianchi
Dark Spectrum Present: No
Reference Spectrum Present: No
Number of Sampled Component Spectra: 1
Spectrometers: USB2+H05261
Integration Time (usec): 50000 (USB2+H05261)
Spectra Averaged: 1 (USB2+H05261)
Boxcar Smoothing: 0 (USB2+H05261)
Correct for Electrical Dark: No (USB2+H05261)
Strobe/Lamp Enabled: No (USB2+H05261)
Correct for Detector Non-linearity: No (USB2+H05261)
Correct for Stray Light: No (USB2+H05261)
Number of Pixels in Processed Spectrum: 2048
>>>>>Begin Processed Spectral Data<<<<<
365.73	0.00
365.92	0.00
366.12	0.00
366.32	0.00
366.52	0.00
366.72	0.00
366.91	0.00
367.11	0.00
367.31	0.00
367.51	0.00
367.70	0.00
367.90	0.00
368.10	0.00
368.30	0.00
368.49	0.00
368.69	0.00
368.89	0.00
369.09	0.00
369.28	0.00
369.48	0.00
369.68	0.00
369.87	0.00
370.07	0.00
370.27	0.00
370.47	0.00
370.66	88.94
370.86	67.88
371.06	124.05
371.25	128.73
371.45	65.54
371.65	126.39
371.84	46.81
372.04	147.45
372.24	128.73
372.44	180.22
372.63	234.05
372.83	238.73
373.03	159.16
373.22	175.54
373.42	222.35
373.62	212.99
373.81	252.78
374.01	210.65
374.21	269.16
374.40	278.52
374.60	241.08
374.79	243.42
374.99	203.63
375.19	187.24
375.38	290.23
375.58	276.18
375.78	217.67
375.97	276.18
376.17	283.20
376.37	238.73
376.56	238.73
376.76	194.26
376.95	229.37
377.15	222.35
377.35	227.03
377.54	241.08
377.74	285.55
377.93	198.95
378.13	269.16
378.33	306.61
378.52	255.12
378.72	301.93
378.91	313.63
379.11	189.58
379.31	259.80
379.50	238.73
379.70	276.18
379.89	273.84
380.09	255.12
380.28	311.29
380.48	339.38
380.68	376.83
380.87	276.18
381.07	283.20
381.26	358.10
381.46	379.17
381.65	278.52
381.85	285.55
382.04	304.27
382.24	278.52
382.43	330.02
382.63	292.57
382.83	271.50
383.02	344.06
383.22	418.96
383.41	395.55
383.61	362.78
383.80	365.12
384.00	355.76
384.19	383.85
384.39	313.63
384.58	430.66
384.78	308.95
384.97	393.21
385.17	428.32
385.36	407.25
385.56	322.99
385.75	353.42
385.95	346.40
386.14	433.00
386.34	477.47
386.53	437.68
386.72	379.17
386.92	386.19
387.11	442.36
387.31	440.02
387.50	332.36
387.70	379.17
387.89	390.87
388.09	418.96
388.28	386.19
388.48	372.15
388.67	449.38
388.86	486.83
389.06	379.17
389.25	447.04
389.45	444.70
389.64	475.13
389.84	475.13
390.03	393.21
390.22	442.36
390.42	564.07
390.61	557.05
390.81	512.58
391.00	479.81
391.19	517.26
391.39	517.26
391.58	482.15
391.78	449.38
391.97	585.13
392.16	512.58
392.36	507.90
392.55	547.69
392.75	463.43
392.94	526.62
393.13	507.90
393.33	543.00
393.52	484.49
393.71	566.41
393.91	545.34
394.10	561.73
394.29	559.39
394.49	594.50
394.68	650.67
394.88	580.45
395.07	589.82
395.26	624.92
395.46	557.05
395.65	788.76
395.84	641.31
396.04	681.10
396.23	683.44
396.42	615.56
396.62	559.39
396.81	645.99
397.00	571.09
397.19	650.67
397.39	603.86
397.58	653.01
397.77	711.52
397.97	657.69
398.16	657.69
398.35	730.25
398.55	627.26
398.74	676.41
398.93	727.91
399.12	683.44
399.32	660.03
399.51	692.80
399.70	746.63
399.90	692.80
400.09	737.27
400.28	744.29
400.47	734.93
400.67	791.10
400.86	755.99
401.05	809.83
401.24	809.83
401.44	734.93
401.63	802.80
401.82	741.95
402.01	755.99
402.21	826.21
402.40	828.55
402.59	786.42
402.78	739.61
402.97	842.59
403.17	875.36
403.36	894.08
403.55	842.59
403.74	938.55
403.93	910.47
404.13	844.93
404.32	903.45
404.51	896.43
404.70	952.60
404.89	1008.77
405.09	990.05
405.28	973.66
405.47	940.90
405.66	954.94
405.85	861.32
406.05	992.39
406.24	929.19
406.43	964.30
406.62	999.41
406.81	1004.09
407.00	959.62
407.20	1025.15
407.39	1034.52
407.58	1027.50
407.77	1036.86
407.96	1050.90
408.15	1128.14
408.34	1081.33
408.54	1104.73
408.73	1165.59
408.92	1064.94
409.11	1149.20
409.30	1144.52
409.49	1055.58
409.68	1067.28
409.87	1130.48
410.07	1160.91
410.26	1188.99
410.45	1160.91
410.64	1118.78
410.83	1184.31
411.02	1172.61
411.21	1196.01
411.40	1240.48
411.59	1282.61
411.78	1270.91
411.98	1259.21
412.17	1277.93
412.36	1338.79
412.55	1369.21
412.74	1268.57
412.93	1380.92
413.12	1350.49
413.31	1392.62
413.50	1387.94
413.69	1317.72
413.88	1577.52
414.07	1352.83
414.26	1345.81
414.45	1434.75
414.64	1547.09
414.83	1458.15
415.02	1401.98
415.22	1526.03
415.41	1605.61
415.60	1579.86
415.79	1610.29
415.98	1549.43
416.17	1540.07
416.36	1483.90
416.55	1591.56
416.74	1530.71
416.93	1561.14
417.12	1607.95
417.31	1729.66
417.50	1689.87
417.69	1818.60
417.88	1664.12
418.07	1720.29
418.26	1703.91
418.45	1722.63
418.64	1774.13
418.83	1734.34
419.02	1746.04
419.21	1755.40
419.39	1806.89
419.58	1802.21
419.77	1818.60
419.96	1837.32
420.15	1888.81
420.34	1767.10
420.53	1748.38
420.72	1881.79
420.91	1937.96
421.10	1921.58
421.29	1912.22
421.48	1919.24
421.67	1954.35
421.86	1952.01
422.05	1888.81
422.24	2099.46
422.43	1926.26
422.61	1944.99
422.80	2069.03
422.99	1947.33
423.18	2040.95
423.37	2005.84
423.56	2010.52
423.75	1991.80
423.94	1952.01
424.13	1842.00
424.32	1806.89
424.50	1963.71
424.69	1994.14
424.88	1991.80
425.07	1912.22
425.26	1942.64
425.45	1933.28
425.64	1984.77
425.83	1898.17
426.01	2036.27
426.20	1975.41
426.39	2059.67
426.58	2026.90
426.77	2059.67
426.96	2036.27
427.15	2026.90
427.33	2040.95
427.52	2024.56
427.71	2134.57
427.90	2080.74
428.09	2045.63
428.28	2230.53
428.46	2183.72
428.65	2153.29
428.84	2155.63
429.03	2118.18
429.22	2225.85
429.40	2228.19
429.59	2139.25
429.78	2104.14
429.97	2148.61
430.16	2139.25
430.34	2200.10
430.53	2162.66
430.72	2244.57
430.91	2403.73
431.10	2150.95
431.28	2399.05
431.47	2321.81
431.66	2377.98
431.85	2282.02
432.03	2431.82
432.22	2349.90
432.41	2443.52
432.60	2396.71
432.79	2368.62
432.97	2476.29
433.16	2394.37
433.35	2485.65
433.54	2441.18
433.72	2562.89
433.91	2487.99
434.10	2480.97
434.28	2490.33
434.47	2544.16
434.66	2464.58
434.85	2385.01
435.03	2576.93
435.22	2583.95
435.41	2548.84
435.59	2628.42
435.78	2630.76
435.97	2602.68
436.16	2581.61
436.34	2600.34
436.53	2635.44
436.72	2757.15
436.90	2626.08
437.09	2708.00
437.28	2548.84
437.46	2649.49
437.65	2597.99
437.84	2862.48
438.02	2829.71
438.21	2810.98
438.40	2700.98
438.58	2684.59
438.77	2848.43
438.96	2871.84
439.14	2916.31
439.33	2878.86
439.52	2876.52
439.70	2885.88
439.89	2965.46
440.08	3002.91
440.26	2986.52
440.45	2972.48
440.63	3152.70
440.82	3091.85
441.01	2935.03
441.19	3105.89
441.38	3075.46
441.57	3098.87
441.75	3157.38
441.94	3255.69
442.12	3208.87
442.31	3211.22
442.50	3213.56
442.68	3220.58
442.87	3272.07
443.05	3199.51
443.24	3227.60
443.43	3274.41
443.61	3382.07
443.80	3417.18
443.98	3276.75
444.17	3204.19
444.35	3545.91
444.54	3428.88
444.73	3398.46
444.91	3353.99
445.10	3576.34
445.28	3375.05
445.47	3323.56
445.65	3302.50
445.84	3361.01
446.02	3433.57
446.21	3400.80
446.39	3400.80
446.58	3393.78
446.77	3384.41
446.95	3466.33
447.14	3520.17
447.32	3510.80
447.51	3478.04
447.69	3384.41
447.88	3496.76
448.06	3454.63
448.25	3466.33
448.43	3548.25
448.62	3510.80
448.80	3386.76
448.99	3557.61
449.17	3581.02
449.36	3562.30
449.54	3583.36
449.73	3758.90
449.91	3735.50
450.10	3634.85
450.28	3620.81
450.46	3761.24
450.65	3691.02
450.83	3700.39
451.02	3510.80
451.20	3770.60
451.39	3723.79
451.57	3875.93
451.76	3709.75
451.94	3630.17
452.13	3861.88
452.31	3794.01
452.49	3737.84
452.68	3789.33
452.86	3831.46
453.05	3983.59
453.23	3967.21
453.42	3906.35
453.60	3857.20
453.78	3770.60
453.97	3796.35
454.15	3936.78
454.34	3885.29
454.52	4014.02
454.70	3899.33
454.89	3960.19
455.07	4124.02
455.26	3992.95
455.44	4081.89
455.62	4016.36
455.81	4070.19
455.99	4084.23
456.17	4063.17
456.36	4159.13
456.54	4159.13
456.73	4140.41
456.91	4353.40
457.09	4283.18
457.28	4292.54
457.46	4170.83
457.64	4454.04
457.83	4196.58
458.01	4208.28
458.19	4163.81
458.38	4348.72
458.56	4402.55
458.74	4372.12
458.93	4386.16
459.11	4423.61
459.29	4367.44
459.48	4468.08
459.66	4325.31
459.84	4423.61
460.03	4559.36
460.21	4631.92
460.39	4526.60
460.57	4386.16
460.76	4641.28
460.94	4636.60
461.12	4578.09
461.31	4617.88
461.49	4571.07
461.67	4692.77
461.85	4636.60
462.04	4730.22
462.22	4706.82
462.40	4697.46
462.59	4702.14
462.77	4655.33
462.95	4758.31
463.13	4685.75
463.32	4784.06
463.50	4880.02
463.68	4894.06
463.86	4772.35
464.05	4835.55
464.23	4760.65
464.41	4924.49
464.59	4741.93
464.78	4968.96
464.96	4854.27
465.14	4973.64
465.32	4887.04
465.50	4887.04
465.69	4915.12
465.87	4926.83
466.05	5025.13
466.23	4964.28
466.41	5013.43
466.60	5167.90
466.78	5081.30
466.96	5029.81
467.14	5006.41
467.32	5062.58
467.51	5231.10
467.69	4894.06
467.87	5041.51
468.05	5205.35
468.23	5228.76
468.41	5275.57
468.60	4973.64
468.78	5226.42
468.96	5203.01
469.14	5256.84
469.32	5186.63
469.50	5006.41
469.69	5472.17
469.87	5399.62
470.05	5284.93
470.23	5256.84
470.41	5275.57
470.59	5441.75
470.77	5359.83
470.95	5530.69
471.14	5600.90
471.32	5350.46
471.50	5570.48
471.68	5591.54
471.86	5624.31
472.04	5490.90
472.22	5518.98
472.40	5650.05
472.58	5699.20
472.77	5783.46
472.95	5820.91
473.13	5870.06
473.31	5743.67
473.49	5708.57
473.67	5682.82
473.85	5849.00
474.03	5834.96
474.21	5968.37
474.39	6012.84
474.57	6162.63
474.75	6200.08
474.93	6143.91
475.12	6106.46
475.30	6059.65
475.48	5975.39
475.66	6146.25
475.84	6307.74
476.02	6263.27
476.20	6263.27
476.38	6300.72
476.56	6424.77
476.74	6370.94
476.92	6380.30
477.10	6415.41
477.28	6604.99
477.46	6583.93
477.64	6684.57
477.82	6754.79
478.00	6970.12
478.18	6888.20
478.36	6848.41
478.54	7094.16
478.72	6960.75
478.90	7080.12
479.08	7059.06
479.26	7094.16
479.44	7180.76
479.62	7321.20
479.80	7297.79
479.98	7262.68
480.16	7382.05
480.34	7353.96
480.52	7506.10
480.70	7468.65
480.88	7372.69
481.06	7721.43
481.24	7719.09
481.41	7751.85
481.59	7852.50
481.77	7838.45
481.95	7913.35
482.13	7946.12
482.31	8271.45
482.49	8313.58
482.67	8140.38
482.85	8292.52
483.03	8421.25
483.21	8472.74
483.39	8575.72
483.57	8430.61
483.74	8395.50
483.92	8638.92
484.10	8458.70
484.28	8849.57
484.46	9083.62
484.64	8898.72
484.82	8894.04
485.00	8999.36
485.18	9130.43
485.35	9554.07
485.53	9357.46
485.71	9401.93
485.89	9547.05
486.07	9612.58
486.25	9664.07
486.43	9547.05
486.61	9802.16
486.78	9701.52
486.96	9930.89
487.14	10012.81
487.32	9886.42
487.50	10019.83
487.68	10200.05
487.85	10186.01
488.03	10466.88
488.21	10714.97
488.39	10342.83
488.57	10768.80
488.75	10541.77
488.92	10902.22
489.10	10710.29
489.28	10864.77
489.46	10876.47
489.64	10958.39
489.81	11222.87
489.99	11098.82
490.17	11136.27
490.35	11276.70
490.53	11485.01
490.70	11590.33
490.88	11590.33
491.06	11576.29
491.24	11641.82
491.41	11721.40
491.59	11889.92
491.77	11829.07
491.95	12002.27
492.13	11662.89
492.30	12152.06
492.48	12411.86
492.66	12145.04
492.84	12243.34
493.01	12280.79
493.19	12599.10
493.37	12575.70
493.54	12531.23
493.72	12858.90
493.90	12669.32
494.08	12681.02
494.25	12950.18
494.43	12975.93
494.61	13025.08
494.79	13135.09
494.96	13207.64
495.14	13558.72
495.32	13378.50
495.49	13444.04
495.67	13411.27
495.85	13706.18
496.02	13729.58
496.20	13827.88
496.38	13811.50
496.55	13745.97
496.73	13987.04
496.91	13806.82
497.09	14118.11
497.26	14169.60
497.44	14139.18
497.62	14122.79
497.79	14537.07
497.97	14469.19
498.14	14801.55
498.32	14516.00
498.50	14593.24
498.67	14867.08
498.85	14839.00
499.03	14782.82
499.20	14913.89
499.38	14799.21
499.56	14953.68
499.73	15030.92
499.91	15264.97
500.08	15187.74
500.26	14944.32
500.44	15288.38
500.61	15445.20
500.79	14991.13
500.97	15697.97
501.14	15602.01
501.32	15878.19
501.49	15683.93
501.67	15606.69
501.84	15655.84
502.02	15709.68
502.20	15946.07
502.37	16126.29
502.55	16084.16
502.72	15985.86
502.90	16137.99
503.07	15908.62
503.25	15861.81
503.43	16315.87
503.60	15990.54
503.78	16421.20
503.95	16238.64
504.13	16060.76
504.30	16540.57
504.48	16500.78
504.65	16348.64
504.83	16723.13
505.01	16910.37
505.18	16606.10
505.36	17027.40
505.53	16830.79
505.71	16886.97
505.88	17111.66
506.06	16800.37
506.23	17053.14
506.41	16828.45
506.58	17142.08
506.76	17226.34
506.93	17216.98
507.11	17371.46
507.28	17401.88
507.46	17357.41
507.63	17425.29
507.81	17745.94
507.98	17575.08
508.16	17572.74
508.33	17743.60
508.50	17535.29
508.68	17647.64
508.85	18043.19
509.03	18132.13
509.20	18045.53
509.38	18066.60
509.55	17947.23
509.73	18031.49
509.90	17898.08
510.08	18129.79
510.25	18164.90
510.42	18286.61
510.60	18394.27
510.77	18478.53
510.95	18450.44
511.12	18260.86
511.30	18530.02
511.47	18691.52
511.64	18604.92
511.82	18853.02
511.99	18654.07
512.17	19066.00
512.34	18801.52
512.51	18981.74
512.69	19037.92
512.86	18925.57
513.04	19197.07
513.21	19278.99
513.38	19199.41
513.56	19342.19
513.73	19269.63
513.90	19283.67
514.08	19513.05
514.25	19286.01
514.43	19311.76
514.60	19482.62
514.77	19641.78
514.95	19403.04
515.12	19527.09
515.29	19398.36
515.47	19868.81
515.64	19810.29
515.81	20042.01
515.99	20072.43
516.16	20137.97
516.33	20149.67
516.51	20072.43
516.68	20053.71
516.85	20369.68
517.03	20231.59
517.20	20203.50
517.37	20294.79
517.54	20442.24
517.72	20287.76
517.89	20390.75
518.06	20723.10
518.24	20088.82
518.41	20603.74
518.58	20917.37
518.75	20697.36
518.93	20711.40
519.10	20500.75
519.27	20767.57
519.45	20954.82
519.62	20659.91
519.79	20774.60
519.96	20938.43
520.14	20996.95
520.31	21123.33
520.48	21144.40
520.65	20872.90
520.83	21254.40
521.00	21188.87
521.17	20947.79
521.34	21142.06
521.52	21324.62
521.69	21507.18
521.86	21434.63
522.03	21369.09
522.20	21586.76
522.38	21378.45
522.55	21624.21
522.72	21678.04
522.89	21537.61
523.07	21865.28
523.24	21687.40
523.41	21769.32
523.58	21610.17
523.75	22052.53
523.92	21914.44
524.10	22139.13
524.27	21862.94
524.44	22270.20
524.61	22279.56
524.78	22071.25
524.96	22335.73
525.13	22258.49
525.30	22104.02
525.47	22380.20
525.64	22321.69
525.81	22324.03
525.98	22342.75
526.16	22752.35
526.33	22707.88
526.50	22698.52
526.67	22291.26
526.84	22794.48
527.01	22085.30
527.18	22616.60
527.36	22883.42
527.53	22778.09
527.70	23131.51
527.87	23065.98
528.04	23220.45
528.21	23353.87
528.38	22822.56
528.55	23213.43
528.72	22963.00
528.89	23026.19
529.07	22920.87
529.24	23473.23
529.41	23517.70
529.58	23173.64
529.75	23122.15
529.92	23248.54
530.09	23201.73
530.26	23421.74
530.43	23194.71
530.60	23597.28
530.77	23484.94
530.94	23225.14
531.11	23662.82
531.28	23087.04
531.46	23513.02
531.63	23702.61
531.80	23756.44
531.97	23887.51
532.14	23756.44
532.31	23798.57
532.48	23520.04
532.65	23814.95
532.82	23927.30
532.99	23749.42
533.16	23922.62
533.33	23917.93
533.50	24198.80
533.67	24353.27
533.84	24030.28
534.01	24070.07
534.18	24341.57
534.35	24327.53
534.52	24306.46
534.69	24449.24
534.86	24292.42
535.03	23953.04
535.20	24318.17
535.37	24545.20
535.54	24535.84
535.71	24336.89
535.88	24470.30
536.05	24357.96
536.22	24692.65
536.38	24957.13
536.55	24592.01
536.72	24812.02
536.89	24774.57
537.06	24922.02
537.23	25029.69
537.40	24592.01
537.57	25003.94
537.74	24823.72
537.91	25252.04
538.08	25193.53
538.25	24816.70
538.42	25291.83
538.59	24952.45
538.75	24608.39
538.92	24854.15
539.09	24989.90
539.26	25415.88
539.43	24975.86
539.60	25469.71
539.77	25200.55
539.94	25090.54
540.11	25350.34
540.28	25202.89
540.44	25308.21
540.61	25151.40
540.78	25514.18
540.95	25399.49
541.12	25261.40
541.29	25668.66
541.46	25476.73
541.62	25312.89
541.79	25509.50
541.96	25223.95
542.13	25362.04
542.30	25755.26
542.47	25883.98
542.63	25809.09
542.80	25853.56
542.97	26169.53
543.14	26092.29
543.31	25935.48
543.48	26029.10
543.64	26206.98
543.81	26134.42
543.98	25944.84
544.15	26321.66
544.32	26616.57
544.48	26335.71
544.65	26197.62
544.82	26111.02
544.99	26125.06
545.16	26331.03
545.32	26206.98
545.49	26560.40
545.66	26466.78
545.83	26822.54
546.00	26567.42
546.16	26492.52
546.33	26122.72
546.50	26426.99
546.67	26438.69
546.83	26389.54
547.00	26478.48
547.17	26747.64
547.34	26757.00
547.50	26565.08
547.67	27194.68
547.84	26583.80
548.00	26822.54
548.17	27091.70
548.34	27044.89
548.51	27264.90
548.67	27197.02
548.84	27335.12
549.01	26923.18
549.18	26916.16
549.34	26813.18
549.51	26824.88
549.68	27138.51
549.84	26473.80
550.01	27630.02
550.18	27229.79
550.34	27012.12
550.51	27468.53
550.68	27562.15
550.84	27110.43
551.01	27374.91
551.18	27204.05
551.34	27145.53
551.51	27498.95
551.68	27410.01
551.84	27503.64
552.01	27679.18
552.18	27529.38
552.34	27377.25
552.51	27222.77
552.68	27674.49
552.84	27812.59
553.01	27297.67
553.18	27468.53
553.34	27885.14
553.51	27761.09
553.67	27824.29
553.84	27948.34
554.01	27665.13
554.17	27651.09
554.34	27697.90
554.51	27845.35
554.67	28224.52
554.84	27943.66
555.00	27885.14
555.17	27997.49
555.33	27840.67
555.50	27901.53
555.67	28147.28
555.83	27688.54
556.00	28121.54
556.16	28158.99
556.33	28135.58
556.50	28079.41
556.66	28011.53
556.83	28247.93
556.99	28168.35
557.16	28467.94
557.32	28318.14
557.49	28128.56
557.65	27999.83
557.82	27992.81
557.98	28037.28
558.15	28348.57
558.32	28474.96
558.48	28477.30
558.65	28238.56
558.81	28357.93
558.98	28360.27
559.14	28004.51
559.31	28133.24
559.47	27924.93
559.64	28364.95
559.80	28610.71
559.97	28451.55
560.13	28414.10
560.30	28622.41
560.46	28603.69
560.63	28322.82
560.79	28559.22
560.96	28549.85
561.12	28430.49
561.29	28091.11
561.45	28624.75
561.61	28416.44
561.78	28587.30
561.94	28819.02
562.11	28367.29
562.27	28748.80
562.44	28613.05
562.60	28840.08
562.77	28692.63
562.93	28407.08
563.10	29120.95
563.26	28458.57
563.42	28898.59
563.59	28591.98
563.75	28788.59
563.92	28828.38
564.08	28346.23
564.24	28659.86
564.41	28599.01
564.57	28425.81
564.74	28816.68
564.90	28893.91
565.07	28650.50
565.23	28753.48
565.39	29067.11
565.56	28849.44
565.72	28697.31
565.88	28900.94
566.05	28903.28
566.21	28624.75
566.38	28591.98
566.54	28936.04
566.70	29017.96
566.87	28964.13
567.03	28804.97
567.19	29003.92
567.36	29053.07
567.52	28865.83
567.68	29032.00
567.85	28999.24
568.01	29174.78
568.17	28416.44
568.34	29120.95
568.50	28940.72
568.66	29142.01
568.83	29378.40
568.99	29191.16
569.15	28856.46
569.32	29017.96
569.48	28919.66
569.64	29347.98
569.81	29106.90
569.97	29345.64
570.13	29329.25
570.30	29268.40
570.46	29415.85
570.62	29048.39
570.78	28652.84
570.95	28819.02
571.11	29172.44
571.27	29064.77
571.43	28940.72
571.60	29240.31
571.76	29071.79
571.92	29502.45
572.09	29287.12
572.25	29242.65
572.41	29069.45
572.57	29254.36
572.74	29118.60
572.90	29041.37
573.06	29298.83
573.22	29092.86
573.38	29305.85
573.55	29287.12
573.71	29247.33
573.87	29326.91
574.03	29247.33
574.20	29294.14
574.36	28851.78
574.52	29560.97
574.68	29380.74
574.84	29198.18
575.01	29219.25
575.17	29598.41
575.33	29020.30
575.49	29380.74
575.65	29593.73
575.82	29745.87
575.98	29497.77
576.14	29579.69
576.30	29467.34
576.46	29355.00
576.62	29003.92
576.79	29277.76
576.95	29420.53
577.11	29312.87
577.27	29612.46
577.43	29844.17
577.59	29560.97
577.75	29366.70
577.92	29364.36
578.08	29158.39
578.24	29406.49
578.40	29612.46
578.56	29670.97
578.72	29486.07
578.88	29642.88
579.04	29970.56
579.21	29460.32
579.37	29605.44
579.53	29095.20
579.69	29366.70
579.85	29453.30
580.01	29315.21
580.17	29191.16
580.33	29259.04
580.49	29530.54
580.65	29827.79
580.82	29624.16
580.98	29450.96
581.14	29441.60
581.30	29514.16
581.46	29687.36
581.62	29371.38
581.78	29626.50
581.94	29235.63
582.10	29418.19
582.26	29266.06
582.42	29593.73
582.58	29757.57
582.74	29364.36
582.90	29940.13
583.06	29685.01
583.22	29542.24
583.38	29446.28
583.54	29661.61
583.70	29467.34
583.86	29628.84
584.02	29462.66
584.18	29944.81
584.34	29633.52
584.50	29876.94
584.66	29413.51
584.82	29638.20
584.98	29593.73
585.14	29591.39
585.30	29156.05
585.46	29631.18
585.62	29605.44
585.78	29259.04
585.94	29493.09
586.10	29694.38
586.26	29036.69
586.42	29993.97
586.58	29888.64
586.74	29284.78
586.90	29446.28
587.06	29460.32
587.22	29493.09
587.38	29399.47
587.54	29806.72
587.70	29696.72
587.86	29919.07
588.02	29792.68
588.18	30068.86
588.34	29872.26
588.49	29961.20
588.65	29589.05
588.81	29228.61
588.97	29780.98
589.13	30068.86
589.29	29670.97
589.45	29736.51
589.61	29890.98
589.77	30125.04
589.93	29942.47
590.08	29930.77
590.24	30239.72
590.40	30192.91
590.56	30029.07
590.72	30000.99
590.88	29762.25
591.04	29186.48
591.20	30284.19
591.35	30120.35
591.51	30436.33
591.67	29935.45
591.83	30202.27
591.99	30036.09
