SpectraSuite Data File
++++++++++++++++++++++++++++++++++++
Date: Fri Oct 18 13:58:34 GMT-05:00 2013
User: bianchi
Dark Spectrum Present: No
Reference Spectrum Present: No
Number of Sampled Component Spectra: 1
Spectrometers: USB2+H05261
Integration Time (usec): 50000 (USB2+H05261)
Spectra Averaged: 1 (USB2+H05261)
Boxcar Smoothing: 0 (USB2+H05261)
Correct for Electrical Dark: No (USB2+H05261)
Strobe/Lamp Enabled: No (USB2+H05261)
Correct for Detector Non-linearity: No (USB2+H05261)
Correct for Stray Light: No (USB2+H05261)
Number of Pixels in Processed Spectrum: 2048
>>>>>Begin Processed Spectral Data<<<<<
365.73	0.00
365.92	0.00
366.12	0.00
366.32	0.00
366.52	0.00
366.72	0.00
366.91	0.00
367.11	0.00
367.31	0.00
367.51	0.00
367.70	0.00
367.90	0.00
368.10	0.00
368.30	0.00
368.49	0.00
368.69	0.00
368.89	0.00
369.09	0.00
369.28	0.00
369.48	0.00
369.68	0.00
369.87	0.00
370.07	0.00
370.27	0.00
370.47	0.00
370.66	81.92
370.86	112.35
371.06	65.54
371.25	112.35
371.45	173.20
371.65	102.98
371.84	100.64
372.04	217.67
372.24	215.33
372.44	152.13
372.63	191.92
372.83	205.97
373.03	152.13
373.22	177.88
373.42	208.31
373.62	262.14
373.81	227.03
374.01	262.14
374.21	168.52
374.40	252.78
374.60	262.14
374.79	227.03
374.99	273.84
375.19	271.50
375.38	299.59
375.58	262.14
375.78	290.23
375.97	227.03
376.17	304.27
376.37	290.23
376.56	248.10
376.76	266.82
376.95	315.97
377.15	227.03
377.35	264.48
377.54	294.91
377.74	245.76
377.93	294.91
378.13	334.70
378.33	330.02
378.52	257.46
378.72	365.12
378.91	299.59
379.11	259.80
379.31	224.69
379.50	222.35
379.70	278.52
379.89	355.76
380.09	327.68
380.28	278.52
380.48	318.31
380.68	301.93
380.87	341.72
381.07	250.44
381.26	330.02
381.46	290.23
381.65	234.05
381.85	280.86
382.04	320.65
382.24	313.63
382.43	393.21
382.63	271.50
382.83	229.37
383.02	411.93
383.22	400.23
383.41	379.17
383.61	404.91
383.80	376.83
384.00	351.08
384.19	390.87
384.39	337.04
384.58	330.02
384.78	355.76
384.97	423.64
385.17	351.08
385.36	379.17
385.56	365.12
385.75	334.70
385.95	388.53
386.14	301.93
386.34	407.25
386.53	320.65
386.72	409.59
386.92	454.06
387.11	407.25
387.31	372.15
387.50	470.45
387.70	449.38
387.89	449.38
388.09	418.96
388.28	397.89
388.48	355.76
388.67	505.56
388.86	442.36
389.06	454.06
389.25	458.74
389.45	557.05
389.64	442.36
389.84	430.66
390.03	477.47
390.22	472.79
390.42	449.38
390.61	538.32
390.81	505.56
391.00	475.13
391.19	510.24
391.39	514.92
391.58	458.74
391.78	423.64
391.97	514.92
392.16	491.51
392.36	575.77
392.55	547.69
392.75	517.26
392.94	517.26
393.13	566.41
393.33	606.20
393.52	559.39
393.71	545.34
393.91	627.26
394.10	498.53
394.29	571.09
394.49	528.96
394.68	631.94
394.88	578.11
395.07	664.71
395.26	615.56
395.46	603.86
395.65	603.86
395.84	596.84
396.04	622.58
396.23	622.58
396.42	683.44
396.62	702.16
396.81	606.20
397.00	650.67
397.19	610.88
397.39	634.29
397.58	709.18
397.77	624.92
397.97	671.73
398.16	638.97
398.35	634.29
398.55	660.03
398.74	702.16
398.93	697.48
399.12	692.80
399.32	723.23
399.51	713.86
399.70	648.33
399.90	718.54
400.09	826.21
400.28	755.99
400.47	732.59
400.67	748.97
400.86	699.82
401.05	854.30
401.24	807.48
401.44	732.59
401.63	734.93
401.82	858.98
402.01	851.96
402.21	788.76
402.40	887.06
402.59	819.19
402.78	823.87
402.97	840.25
403.17	847.27
403.36	807.48
403.55	837.91
403.74	908.13
403.93	1011.11
404.13	926.85
404.32	842.59
404.51	915.15
404.70	887.06
404.89	889.40
405.09	957.28
405.28	861.32
405.47	912.81
405.66	858.98
405.85	985.37
406.05	973.66
406.24	971.32
406.43	985.37
406.62	1006.43
406.81	1001.75
407.00	1029.84
407.20	1022.81
407.39	1046.22
407.58	990.05
407.77	1043.88
407.96	1102.39
408.15	997.07
408.34	1100.05
408.54	1135.16
408.73	1102.39
408.92	1153.88
409.11	1032.18
409.30	1081.33
409.49	1011.11
409.68	1104.73
409.87	1118.78
410.07	1046.22
410.26	1151.54
410.45	1165.59
410.64	1217.08
410.83	1188.99
411.02	1181.97
411.21	1163.25
411.40	1188.99
411.59	1132.82
411.78	1207.72
411.98	1252.19
412.17	1203.04
412.36	1301.34
412.55	1238.14
412.74	1289.64
412.93	1336.45
413.12	1287.29
413.31	1420.71
413.50	1530.71
413.69	1397.30
413.88	1364.53
414.07	1460.49
414.26	1434.75
414.45	1432.41
414.64	1420.71
414.83	1497.94
415.02	1399.64
415.22	1528.37
415.41	1598.59
415.60	1591.56
415.79	1558.80
415.98	1544.75
416.17	1717.95
416.36	1551.78
416.55	1509.65
416.74	1661.78
416.93	1717.95
417.12	1703.91
417.31	1692.21
417.50	1755.40
417.69	1769.44
417.88	1811.57
418.07	1659.44
418.26	1682.85
418.45	1694.55
418.64	1832.64
418.83	1781.15
419.02	1631.35
419.21	1905.20
419.39	1874.77
419.58	1778.81
419.77	1757.74
419.96	1851.36
420.15	1909.88
420.34	1842.00
420.53	1914.56
420.72	1886.47
420.91	1963.71
421.10	1898.17
421.29	2069.03
421.48	1891.15
421.67	1874.77
421.86	1919.24
422.05	1984.77
422.24	1968.39
422.43	1827.96
422.61	1853.70
422.80	1949.67
422.99	2127.55
423.18	1952.01
423.37	2043.29
423.56	2017.54
423.75	2038.61
423.94	1926.26
424.13	1907.54
424.32	1954.35
424.50	2066.69
424.69	1961.37
424.88	2036.27
425.07	2010.52
425.26	1980.09
425.45	2005.84
425.64	2022.22
425.83	2120.53
426.01	2052.65
426.20	2003.50
426.39	2022.22
426.58	2001.16
426.77	2134.57
426.96	1980.09
427.15	2031.58
427.33	2176.70
427.52	2047.97
427.71	2155.63
427.90	2179.04
428.09	2120.53
428.28	2242.23
428.46	2258.62
428.65	2195.42
428.84	2195.42
429.03	2176.70
429.22	2118.18
429.40	2193.08
429.59	2153.29
429.78	2190.74
429.97	2153.29
430.16	2237.55
430.34	2363.94
430.53	2450.54
430.72	2256.28
430.91	2356.92
431.10	2347.56
431.28	2225.85
431.47	2347.56
431.66	2275.00
431.85	2394.37
432.03	2448.20
432.22	2436.50
432.41	2394.37
432.60	2385.01
432.79	2373.30
432.97	2394.37
433.16	2422.45
433.35	2497.35
433.54	2560.55
433.72	2576.93
433.91	2506.71
434.10	2427.14
434.28	2487.99
434.47	2562.89
434.66	2553.52
434.85	2595.65
435.03	2504.37
435.22	2527.78
435.41	2595.65
435.59	2518.42
435.78	2619.06
435.97	2775.88
436.16	2586.29
436.34	2637.78
436.53	2630.76
436.72	2731.41
436.90	2574.59
437.09	2752.47
437.28	2609.70
437.46	2663.53
437.65	2771.19
437.84	2787.58
438.02	2796.94
438.21	2757.15
438.40	2715.02
438.58	2750.13
438.77	2841.41
438.96	2869.50
439.14	2949.08
439.33	2836.73
439.52	2885.88
439.70	2876.52
439.89	2974.82
440.08	3033.33
440.26	3143.34
440.45	3021.63
440.63	3176.11
440.82	3129.30
441.01	3061.42
441.19	2970.14
441.38	3269.73
441.57	3122.27
441.75	3199.51
441.94	3337.60
442.12	3232.28
442.31	3248.66
442.50	3293.13
442.68	3187.81
442.87	3239.30
443.05	3258.03
443.24	3384.41
443.43	3300.16
443.61	3489.74
443.80	3412.50
443.98	3318.88
444.17	3241.64
444.35	3447.61
444.54	3389.10
444.73	3421.86
444.91	3459.31
445.10	3412.50
445.28	3428.88
445.47	3421.86
445.65	3325.90
445.84	3485.06
446.02	3520.17
446.21	3562.30
446.39	3414.84
446.58	3503.78
446.77	3393.78
446.95	3220.58
447.14	3393.78
447.32	3454.63
447.51	3515.48
447.69	3508.46
447.88	3412.50
448.06	3492.08
448.25	3508.46
448.43	3562.30
448.62	3426.54
448.80	3606.77
448.99	3529.53
449.17	3667.62
449.36	3501.44
449.54	3674.64
449.73	3529.53
449.91	3637.19
450.10	3639.53
450.28	3754.22
450.46	3644.21
450.65	3681.66
450.83	3646.55
451.02	3747.20
451.20	3763.58
451.39	3784.65
451.57	3927.42
451.76	3637.19
451.94	3782.31
452.13	3934.44
452.31	3943.80
452.49	3840.82
452.68	3791.67
452.86	3754.22
453.05	3861.88
453.23	3911.04
453.42	3861.88
453.60	3831.46
453.78	3906.35
453.97	3882.95
454.15	3962.53
454.34	3962.53
454.52	4058.49
454.70	3985.93
454.89	3988.27
455.07	3861.88
455.26	3929.76
455.44	4032.74
455.62	4117.00
455.81	3913.38
455.99	4049.13
456.17	3985.93
456.36	4037.42
456.54	4231.69
456.73	4119.34
456.91	4252.75
457.09	4325.31
457.28	4283.18
457.46	4255.09
457.64	4397.87
457.83	4224.67
458.01	4313.61
458.19	4250.41
458.38	4332.33
458.56	4365.10
458.74	4404.89
458.93	4353.40
459.11	4533.62
459.29	4454.04
459.48	4444.68
459.66	4369.78
459.84	4629.58
460.03	4507.87
460.21	4458.72
460.39	4482.13
460.57	4564.04
460.76	4683.41
460.94	4475.10
461.12	4533.62
461.31	4578.09
461.49	4538.30
461.67	4503.19
461.85	4578.09
462.04	4713.84
462.22	4746.61
462.40	4622.56
462.59	4741.93
462.77	4662.35
462.95	4678.73
463.13	4697.46
463.32	4716.18
463.50	4849.59
463.68	4840.23
463.86	4826.18
464.05	4727.88
464.23	4814.48
464.41	4840.23
464.59	4842.57
464.78	4950.23
464.96	5008.75
465.14	4814.48
465.32	4868.31
465.50	5102.37
465.69	4933.85
465.87	4910.44
466.05	4880.02
466.23	4894.06
466.41	4964.28
466.60	5057.90
466.78	5015.77
466.96	5039.17
467.14	5032.15
467.32	5015.77
467.51	5107.05
467.69	4929.17
467.87	5102.37
468.05	5233.44
468.23	5039.17
468.41	4922.15
468.60	5071.94
468.78	5088.32
468.96	5210.03
469.14	5224.08
469.32	5214.71
469.50	5259.18
469.69	5268.55
469.87	5554.09
470.05	5310.68
470.23	5423.02
470.41	5416.00
470.59	5437.06
470.77	5240.46
470.95	5392.59
471.14	5481.53
471.32	5420.68
471.50	5652.39
471.68	5444.09
471.86	5673.46
472.04	5614.95
472.22	5685.16
472.40	5636.01
472.58	5710.91
472.77	5682.82
472.95	5731.97
473.13	5905.17
473.31	5701.54
473.49	5846.66
473.67	5678.14
473.85	5907.51
474.03	5886.45
474.21	6090.07
474.39	6115.82
474.57	6054.97
474.75	6136.88
474.93	6129.86
475.12	6146.25
475.30	6061.99
475.48	6141.57
475.66	6146.25
475.84	6148.59
476.02	6345.19
476.20	6225.82
476.38	6242.21
476.56	6434.13
476.74	6380.30
476.92	6494.99
477.10	6534.78
477.28	6766.49
477.46	6609.67
477.64	6771.17
477.82	6780.53
478.00	6799.26
478.18	6801.60
478.36	6792.23
478.54	6963.09
478.72	7019.27
478.90	6909.26
479.08	6930.33
479.26	7176.08
479.44	7222.89
479.62	7459.29
479.80	7281.41
479.98	7442.90
480.16	7358.64
480.34	7438.22
480.52	7648.87
480.70	7662.91
480.88	7590.36
481.06	7742.49
481.24	7630.15
481.41	7674.62
481.59	7793.98
481.77	8030.38
481.95	7997.61
482.13	8116.98
482.31	8088.89
482.49	8313.58
482.67	8222.30
482.85	8376.78
483.03	8416.57
483.21	8468.06
483.39	8634.24
483.57	8578.06
483.74	8287.84
483.92	8409.54
484.10	8608.49
484.28	8915.10
484.46	9022.77
484.64	9132.77
484.82	9046.17
485.00	9008.72
485.18	9284.91
485.35	9516.62
485.53	9270.86
485.71	9437.04
485.89	9645.35
486.07	9348.10
486.25	9308.31
486.43	9633.64
486.61	9727.27
486.78	9856.00
486.96	9645.35
487.14	9799.82
487.32	9998.77
487.50	10073.67
487.68	9928.55
487.85	10349.85
488.03	10523.05
488.21	10366.23
488.39	10422.41
488.57	10464.54
488.75	10633.05
488.92	10803.91
489.10	10750.08
489.28	10843.70
489.46	10897.53
489.64	10956.05
489.81	11131.59
489.99	11176.06
490.17	11297.77
490.35	11435.86
490.53	11440.54
490.70	11382.03
490.88	11517.78
491.06	11698.00
491.24	11606.72
491.41	11878.22
491.59	11868.86
491.77	11967.16
491.95	12070.14
492.13	11999.93
492.30	12458.67
492.48	12173.13
492.66	12140.36
492.84	12318.24
493.01	12442.29
493.19	12629.53
493.37	12671.66
493.54	12517.18
493.72	12538.25
493.90	12753.58
494.08	12961.89
494.25	13289.56
494.43	13090.62
494.61	13280.20
494.79	13226.37
494.96	13123.38
495.14	13226.37
495.32	13516.59
495.49	13441.70
495.67	13633.62
495.85	13486.17
496.02	13862.99
496.20	13685.11
496.38	14104.07
496.55	13628.94
496.73	14310.04
496.91	13823.20
497.09	14108.75
497.26	14331.10
497.44	14326.42
497.62	14237.48
497.79	14431.74
497.97	14745.38
498.14	14684.52
498.32	14558.13
498.50	14525.36
498.67	15023.90
498.85	15014.54
499.03	14871.76
499.20	14839.00
499.38	14745.38
499.56	15138.58
499.73	14944.32
499.91	15103.48
500.08	15286.04
500.26	15115.18
500.44	15164.33
500.61	15524.77
500.79	15524.77
500.97	15494.35
501.14	15686.27
501.32	15625.42
501.49	15660.52
501.67	15775.21
501.84	15723.72
502.02	16063.10
502.20	16072.46
502.37	16130.97
502.55	16039.69
502.72	15969.48
502.90	16020.97
503.07	16240.98
503.25	16079.48
503.43	16084.16
503.60	16435.24
503.78	16556.95
503.95	16205.87
504.13	16271.40
504.30	16470.35
504.48	16334.60
504.65	16692.70
504.83	16688.02
505.01	16725.47
505.18	16791.00
505.36	17177.19
505.53	16919.73
505.71	16851.86
505.88	16954.84
506.06	17032.08
506.23	17301.24
506.41	16996.97
506.58	17460.40
506.76	17404.22
506.93	17317.62
507.11	17153.79
507.28	17371.46
507.46	17130.38
507.63	17666.36
507.81	17479.12
507.98	17397.20
508.16	17427.63
508.33	17649.98
508.50	17699.13
508.68	17989.36
508.85	17743.60
509.03	18050.21
509.20	18087.66
509.38	17888.71
509.55	18286.61
509.73	17987.02
509.90	18310.01
510.08	18141.49
510.25	18221.07
510.42	18401.29
510.60	18647.05
510.77	18633.00
510.95	18714.92
511.12	18618.96
511.30	18780.46
511.47	18658.75
511.64	18675.13
511.82	18675.13
511.99	18752.37
512.17	18824.93
512.34	18934.93
512.51	19002.81
512.69	18948.98
512.86	19002.81
513.04	19562.20
513.21	19709.65
513.38	19253.25
513.56	19250.91
513.73	19080.05
513.90	19194.73
514.08	19302.40
514.25	19393.68
514.43	19363.25
514.60	19566.88
514.77	19611.35
514.95	19878.17
515.12	19964.77
515.29	19665.18
515.47	20042.01
515.64	20212.87
515.81	19831.36
515.99	19859.45
516.16	20137.97
516.33	20170.74
516.51	20318.19
516.68	19761.14
516.85	20051.37
517.03	20039.67
517.20	20404.79
517.37	20463.30
517.54	20542.88
517.72	20568.63
517.89	20381.38
518.06	20456.28
518.24	20390.75
518.41	20418.83
518.58	20795.66
518.75	20622.46
518.93	20535.86
519.10	20922.05
519.27	21076.52
519.45	20606.08
519.62	21001.63
519.79	21039.08
519.96	21029.71
520.14	21242.70
520.31	21212.28
520.48	21226.32
520.65	21345.69
520.83	21561.02
521.00	21371.43
521.17	21057.80
521.34	21174.83
521.52	21425.26
521.69	21411.22
521.86	21289.51
522.03	21628.89
522.20	21874.65
522.38	21539.95
522.55	21825.50
522.72	22008.06
522.89	21532.93
523.07	21757.62
523.24	22031.46
523.41	21949.54
523.58	21806.77
523.75	22342.75
523.92	22031.46
524.10	21832.52
524.27	22244.45
524.44	22101.68
524.61	22338.07
524.78	22384.88
524.96	22581.49
525.13	22363.82
525.30	22558.08
525.47	22071.25
525.64	22462.12
525.81	22478.50
525.98	22555.74
526.16	22560.42
526.33	22628.30
526.50	22628.30
526.67	22642.34
526.84	22628.30
527.01	22462.12
527.18	22618.94
527.36	22897.46
527.53	23119.81
527.70	22878.74
527.87	23002.78
528.04	22874.06
528.21	22934.91
528.38	22855.33
528.55	23000.44
528.72	22874.06
528.89	23211.09
529.07	23311.74
529.24	23187.69
529.41	23393.65
529.58	23051.94
529.75	23506.00
529.92	23381.95
530.09	23019.17
530.26	23323.44
530.43	23442.81
530.60	23379.61
530.77	23356.21
530.94	23419.40
531.11	23550.47
531.28	23372.59
531.46	23763.46
531.63	23627.71
531.80	24030.28
531.97	23786.86
532.14	23683.88
532.31	23527.06
532.48	23960.06
532.65	24051.34
532.82	23730.69
532.99	23800.91
533.16	23894.53
533.33	24109.86
533.50	24659.88
533.67	24123.90
533.84	23960.06
534.01	24196.46
534.18	24203.48
534.35	24318.17
534.52	24119.22
534.69	24629.46
534.86	24484.34
535.03	24641.16
535.20	24112.20
535.37	24397.74
535.54	24517.11
535.71	24645.84
535.88	24503.07
536.05	24584.99
536.22	24812.02
536.38	25238.00
536.55	24863.51
536.72	24800.32
536.89	24739.46
537.06	24694.99
537.23	24814.36
537.40	24414.13
537.57	24797.98
537.74	24793.29
537.91	25252.04
538.08	25163.10
538.25	24971.18
538.42	25034.37
538.59	25022.67
538.75	25036.71
538.92	24865.85
539.09	25163.10
539.26	25317.57
539.43	25085.86
539.60	25165.44
539.77	25413.54
539.94	25556.31
540.11	24716.06
540.28	25359.70
540.44	25706.10
540.61	25717.81
540.78	25329.28
540.95	25502.48
541.12	25427.58
541.29	25755.26
541.46	25783.34
541.62	25783.34
541.79	25729.51
541.96	25579.71
542.13	25415.88
542.30	25469.71
542.47	25778.66
542.63	25675.68
542.80	26094.63
542.97	25881.64
543.14	26129.74
543.31	25860.58
543.48	25954.20
543.64	26422.31
543.81	26036.12
543.98	26293.58
544.15	26623.59
544.32	26572.10
544.48	26401.24
544.65	26583.80
544.82	26476.14
544.99	26251.45
545.16	26401.24
545.32	26115.70
545.49	26314.64
545.66	27028.51
545.83	26469.12
546.00	26712.53
546.16	26473.80
546.33	26368.48
546.50	26080.59
546.67	26923.18
546.83	26279.54
547.00	26618.91
547.17	27082.34
547.34	26342.73
547.50	26719.56
547.67	27108.08
547.84	26455.08
548.00	26642.32
548.17	27065.96
548.34	26897.44
548.51	27115.11
548.67	27054.25
548.84	26930.20
549.01	26803.82
549.18	26771.05
549.34	27363.20
549.51	27119.79
549.68	26780.41
549.84	27007.44
550.01	27278.94
550.18	26843.60
550.34	27091.70
550.51	27590.24
550.68	27218.09
550.84	26944.25
551.01	27250.86
551.18	27178.30
551.34	27009.78
551.51	27337.46
551.68	27307.03
551.84	27243.84
552.01	27161.92
552.18	27615.98
552.34	27524.70
552.51	27644.07
552.68	27482.57
552.84	27236.81
553.01	27711.94
553.18	27332.78
553.34	27906.21
553.51	27410.01
553.67	27831.31
553.84	27903.87
554.01	27964.72
554.17	27744.71
554.34	27592.58
554.51	27400.65
554.67	28048.98
554.84	27878.12
555.00	27548.11
555.17	27634.71
555.33	27917.91
555.50	27964.72
555.67	27562.15
555.83	28133.24
556.00	27723.65
556.16	28095.79
556.33	27690.88
556.50	27798.54
556.66	28290.06
556.83	27894.50
556.99	28563.90
557.16	28554.54
557.32	28266.65
557.49	28376.66
557.65	28063.02
557.82	27775.14
557.98	28219.84
558.15	28393.04
558.32	28219.84
558.48	28512.41
558.65	28325.16
558.81	28290.06
558.98	28500.70
559.14	28386.02
559.31	28261.97
559.47	28224.52
559.64	28332.18
559.80	28650.50
559.97	28446.87
560.13	28414.10
560.30	28802.63
560.46	28231.54
560.63	28474.96
560.79	28683.27
560.96	28659.86
561.12	28617.73
561.29	28662.20
561.45	28423.47
561.61	28301.76
561.78	28648.16
561.94	28709.01
562.11	28786.25
562.27	28353.25
562.44	28278.35
562.60	28797.95
562.77	28797.95
562.93	28353.25
563.10	28835.40
563.26	28638.80
563.42	29244.99
563.59	28514.75
563.75	28678.58
563.92	28531.13
564.08	28357.93
564.24	28833.06
564.41	28582.62
564.57	28879.87
564.74	28961.79
564.90	28966.47
565.07	28924.34
565.23	28900.94
565.39	28718.37
565.56	29118.60
565.72	28744.12
565.88	29214.57
566.05	28809.65
566.21	28910.30
566.38	28554.54
566.54	29069.45
566.70	28879.87
566.87	29095.20
567.03	29415.85
567.19	28957.11
567.36	29448.62
567.52	29008.60
567.68	29106.90
567.85	28847.10
568.01	29013.28
568.17	28924.34
568.34	28973.49
568.50	29151.37
568.66	28950.09
568.83	29476.71
568.99	29226.27
569.15	29329.25
569.32	29142.01
569.48	29156.05
569.64	29188.82
569.81	29439.26
569.97	28828.38
570.13	29195.84
570.30	28858.81
570.46	29366.70
570.62	29184.14
570.78	29064.77
570.95	28847.10
571.11	29097.54
571.27	29090.52
571.43	29457.98
571.60	29226.27
571.76	28968.81
571.92	28882.21
572.09	29556.28
572.25	29198.18
572.41	29472.03
572.57	29319.89
572.74	29310.53
572.90	29364.36
573.06	29312.87
573.22	29125.63
573.38	29333.93
573.55	29551.60
573.71	29689.70
573.87	29479.05
574.03	29500.11
574.20	29270.74
574.36	29369.04
574.52	29607.78
574.68	29392.45
574.84	29373.72
575.01	29411.17
575.17	29301.17
575.33	28954.77
575.49	29465.00
575.65	29488.41
575.82	29659.27
575.98	29567.99
576.14	29303.51
576.30	29373.72
576.46	29385.43
576.62	29032.00
576.79	29434.58
576.95	29446.28
577.11	29457.98
577.27	29811.40
577.43	29848.85
577.59	29591.39
577.75	29252.02
577.92	29474.37
578.08	29144.35
578.24	29551.60
578.40	29525.86
578.56	29380.74
578.72	29436.92
578.88	29848.85
579.04	29577.35
579.21	29642.88
579.37	29493.09
579.53	29621.82
579.69	29015.62
579.85	29352.66
580.01	29600.76
580.17	29734.17
580.33	29689.70
580.49	29453.30
580.65	29972.90
580.82	29603.10
580.98	29722.46
581.14	29495.43
581.30	29591.39
581.46	29535.22
581.62	29521.18
581.78	29579.69
581.94	29598.41
582.10	29741.19
582.26	29612.46
582.42	29584.37
582.58	29830.13
582.74	29685.01
582.90	29780.98
583.06	30150.78
583.22	29317.55
583.38	29291.80
583.54	29689.70
583.70	29710.76
583.86	29486.07
584.02	29172.44
584.18	29809.06
584.34	29617.14
584.50	30178.87
584.66	29979.92
584.82	29649.91
584.98	29134.99
585.14	29514.16
585.30	29275.42
585.46	29490.75
585.62	29783.32
585.78	29488.41
585.94	29383.09
586.10	29755.23
586.26	29284.78
586.42	29649.91
586.58	29900.34
586.74	29820.77
586.90	29453.30
587.06	29584.37
587.22	29565.65
587.38	29708.42
587.54	30017.37
587.70	29869.92
587.86	29848.85
588.02	29476.71
588.18	29935.45
588.34	29502.45
588.49	30349.73
588.65	29429.90
588.81	29413.51
588.97	29933.11
589.13	29837.15
589.29	29685.01
589.45	29708.42
589.61	29790.34
589.77	30223.34
589.93	30143.76
590.08	30040.78
590.24	30260.79
590.40	29923.75
590.56	30319.30
590.72	29989.28
590.88	29935.45
591.04	29572.67
591.20	30164.82
591.35	29720.12
591.51	30459.73
591.67	30043.12
591.83	30359.09
591.99	29963.54
